Data from N_3_DEC_NC_4N_Splice17_13-06-57-537.txt Node
Date: Sat Mar 14 13:06:57 EDT 2020
User: sa697716
Spectrometer: FLMS03696
Trigger mode: 0
Integration Time (sec): 3.180400E-1
Scans to average: 20
Electric dark correction enabled: true
Nonlinearity correction enabled: true
Boxcar width: 5
XAxis mode: Wavelengths
Number of Pixels in Spectrum: 2048
>>>>>Begin Spectral Data<<<<<
187.83	-281372.44
188.298	2153.43
188.766	1149.86
189.233	1008.72
189.701	1493.18
190.169	2051.53
190.636	823.19
191.104	674.55
191.571	109.08
192.039	-55.5
192.506	-41.66
192.974	553.43
193.441	-855.73
193.908	-291.91
194.375	-86.01
194.842	35.61
195.31	116.07
195.777	175.3
196.244	339.25
196.711	348.57
197.177	430.9
197.644	605.62
198.111	1061.81
198.578	1519.77
199.045	1215.61
199.511	1984.95
199.978	2277.6
200.445	1970.39
200.911	2195.77
201.378	2456.47
201.844	2283.3
202.31	3947.59
202.777	4120.83
203.243	2277.1
203.709	2149.09
204.176	2548.68
204.642	2107.7
205.108	1984.43
205.574	1595.64
206.04	1439.01
206.506	1340.32
206.972	1251.12
207.438	1206.3
207.903	1362.88
208.369	1215.03
208.835	1224.32
209.301	1304.35
209.766	1327.71
210.232	1307.09
210.697	1622.8
211.163	1994.6
211.628	3024.17
212.094	2536.87
212.559	3126.42
213.024	1981.19
213.49	2414.14
213.955	2311.9
214.42	2213.19
214.885	2048.34
215.35	1967.6
215.815	1920.86
216.28	2040.73
216.745	1657.89
217.21	1791.99
217.675	1626.59
218.14	1811.26
218.604	2011.98
219.069	2296.2
219.534	2415.37
219.998	2789.61
220.463	3356.82
220.927	4062.78
221.392	3817.15
221.856	3842.07
222.32	4796.38
222.785	5912.9
223.249	7378.4
223.713	8189.26
224.177	8200.96
224.642	10457.09
225.106	12794.58
225.57	13941.96
226.034	10405.69
226.497	15785.28
226.961	14270.89
227.425	16615.09
227.889	18387.06
228.353	18370.13
228.816	37879.82
229.28	36142.75
229.744	30523.93
230.207	18608.17
230.671	18310.22
231.134	30140.85
231.597	34747.92
232.061	34617.31
232.524	33651.1
232.987	23147.65
233.45	20783.47
233.914	18633.64
234.377	19039.84
234.84	17378.87
235.303	20427.44
235.766	22749.12
236.229	23460.89
236.691	14751.74
237.154	16571.56
237.617	12494.75
238.08	12797.36
238.542	14979.2
239.005	10691.97
239.468	10605.16
239.93	10015.83
240.393	9114.77
240.855	8005.32
241.317	8197.68
241.78	9969.49
242.242	10333.54
242.704	11160.02
243.166	9709.53
243.629	8848
244.091	10192.39
244.553	11203.16
245.015	12037.34
245.477	15549.16
245.939	22774.34
246.4	24156.55
246.862	23446.48
247.324	22046.46
247.786	24669.54
248.247	32334.34
248.709	33287.72
249.17	24923.14
249.632	23497.49
250.093	27266.66
250.555	23554
251.016	14365.88
251.477	13654.85
251.939	14773.79
252.4	15495.33
252.861	18407.38
253.322	17136.94
253.783	20423.19
254.244	26453.47
254.705	20841.65
255.166	18501.42
255.627	18248.03
256.088	25830.75
256.549	27408.34
257.009	23616.13
257.47	28728.81
257.931	23398.48
258.391	17555.59
258.852	18082.55
259.312	18988.5
259.773	23475.41
260.233	19871.39
260.694	16776.19
261.154	18988.53
261.614	15293.54
262.074	13671.15
262.534	14220.61
262.994	13433.72
263.455	17899.02
263.915	15080.68
264.374	14197.18
264.834	15477.81
265.294	17138.93
265.754	17753.43
266.214	16816.13
266.673	15738.7
267.133	19865.35
267.593	19672.03
268.052	24033.65
268.512	20894.98
268.971	25268.35
269.431	27738
269.89	24859.9
270.349	37346.99
270.809	41644.81
271.268	37449.99
271.727	83884.76
272.186	54279.84
272.645	40680.51
273.104	29335.29
273.563	42488.57
274.022	33360.9
274.481	28393.21
274.94	21896.97
275.399	16273.25
275.857	18958.75
276.316	25653.19
276.775	22842.91
277.233	22548.23
277.692	21176.65
278.15	24002.29
278.609	24736.91
279.067	22908.11
279.525	21301.93
279.984	27509.99
280.442	33046.88
280.9	32632.38
281.358	21465.61
281.816	20041.45
282.274	19607.22
282.732	20226.16
283.19	20336.29
283.648	17518.24
284.106	18693.09
284.564	19008.32
285.021	17637.06
285.479	13138.27
285.937	11924.95
286.394	10485.74
286.852	10789.83
287.309	11359.16
287.767	11023.08
288.224	10489.32
288.682	11532.13
289.139	12649.59
289.596	11599.13
290.053	12060.31
290.511	15235.93
290.968	18504.28
291.425	25138.94
291.882	20991.71
292.339	18278.61
292.796	18080.2
293.252	17010.9
293.709	13528.72
294.166	12138.71
294.623	13418.36
295.079	12863.96
295.536	12941.05
295.992	11752.72
296.449	11612.97
296.905	12060.9
297.362	11582.59
297.818	12192.92
298.274	12681.01
298.731	12916.56
299.187	12781.18
299.643	13696.42
300.099	16585.7
300.555	18153.98
301.011	15161.31
301.467	14623.4
301.923	17088.47
302.379	16669.78
302.835	16382.78
303.291	16366.34
303.746	18607.66
304.202	23460.83
304.658	23573.96
305.113	15857.23
305.569	15558.91
306.024	16575.27
306.479	15774.34
306.935	13319.18
307.39	14537.85
307.845	13426.87
308.301	13543.71
308.756	13223.73
309.211	12767.25
309.666	13076.17
310.121	16260.82
310.576	16477.88
311.031	16370.1
311.486	18769.14
311.94	18750.56
312.395	25099.26
312.85	47117.14
313.305	231395.57
313.759	1199725.94
314.214	86892.84
314.668	69024.38
315.123	58018.07
315.577	20850.22
316.032	18560.31
316.486	23193.24
316.94	18301.91
317.394	12729.87
317.849	9922.92
318.303	9383.96
318.757	8844.7
319.211	9788.09
319.665	8569.03
320.119	8667.66
320.572	12412.65
321.026	11601.91
321.48	9672.67
321.934	10534.82
322.387	10559.56
322.841	11379.23
323.295	10256.76
323.748	11801.46
324.202	11975.99
324.655	14366.58
325.108	20113.67
325.562	14253.71
326.015	16897.16
326.468	12763.72
326.921	14290.89
327.374	13352.26
327.827	13924.53
328.28	15785.97
328.733	10590.32
329.186	9303.03
329.639	8885.6
330.092	7488.25
330.545	7135.67
330.997	7223.71
331.45	7915.27
331.903	9309.7
332.355	15999.62
332.808	15541.35
333.26	12796.97
333.713	13910.66
334.165	14005.36
334.617	18693.75
335.069	15079.77
335.522	27191.72
335.974	30089.77
336.426	27486.83
336.878	18962.72
337.33	9628.72
337.782	9425.57
338.234	11831.24
338.686	14144.79
339.137	16816.69
339.589	15818.34
340.041	12430.77
340.493	10699.34
340.944	10985.68
341.396	11815.06
341.847	9957.54
342.299	11753.16
342.75	14387.86
343.201	12588.3
343.653	14491.62
344.104	17826.83
344.555	14036.05
345.006	21814.7
345.457	16763.58
345.908	13298.91
346.359	12580.37
346.81	10239.96
347.261	10794.05
347.712	10613.34
348.163	11364.62
348.613	11539.19
349.064	10761.17
349.515	9428.77
349.965	9696.15
350.416	11658.96
350.866	12775
351.317	14383.9
351.767	23832.38
352.217	30151.67
352.668	24980.05
353.118	22893.86
353.568	21993.72
354.018	17433.4
354.468	18409.57
354.918	13179.99
355.368	11521.56
355.818	16305.48
356.268	46903.14
356.718	197026.4
357.168	49035.92
357.617	24604.65
358.067	27346.33
358.517	25631.16
358.966	30044.95
359.416	33810.56
359.865	36646.58
360.315	43658.39
360.764	20443
361.213	11504.98
361.663	10870.47
362.112	13421.83
362.561	21687.61
363.01	16366.29
363.459	13806.7
363.908	14928.62
364.357	12666.8
364.806	21340.52
365.255	14672.83
365.703	13455.96
366.152	13428.9
366.601	10894.61
367.05	8863.65
367.498	8062.59
367.947	8424.32
368.395	8752.16
368.844	7777.33
369.292	9354.58
369.74	6476.59
370.189	9935.03
370.637	11620.9
371.085	10050.37
371.533	12247.01
371.981	11780.54
372.429	11288.19
372.877	11751.9
373.325	9860.6
373.773	10023.33
374.221	8946.86
374.669	11109.46
375.116	9605.5
375.564	9695.96
376.012	10858.72
376.459	8957.78
376.907	10700.76
377.354	12886.93
377.801	12051.84
378.249	13867.27
378.696	17746.38
379.143	21435.14
379.591	22896.31
380.038	38831.83
380.485	28195.03
380.932	30476.52
381.379	27953.68
381.826	20684.88
382.273	14728.01
382.72	12891.71
383.166	12560.27
383.613	8159.42
384.06	7367.46
384.506	8527.04
384.953	6266.36
385.4	6307.57
385.846	5525.24
386.292	5385.97
386.739	5256.44
387.185	5211.85
387.631	5223.25
388.078	5095.95
388.524	5465.72
388.97	5068.75
389.416	4243.95
389.862	4516.44
390.308	4280.33
390.754	4362.61
391.2	4734.34
391.645	4863.28
392.091	4658.56
392.537	4527.76
392.983	4531.02
393.428	4470.39
393.874	4790.81
394.319	4815.53
394.765	4586.28
395.21	4717.99
395.655	4417.02
396.101	4155.78
396.546	3755.15
396.991	3797.34
397.436	3521.92
397.881	3410.78
398.326	3229.89
398.771	3072
399.216	2686.93
399.661	2417.01
400.106	2415.64
400.551	2484.85
400.995	2231.36
401.44	2212.44
401.885	2079.2
402.329	2098.15
402.774	2011.63
403.218	1951.72
403.663	1878.48
404.107	1932.67
404.551	1954.16
404.995	1787.89
405.44	1717.52
405.884	1742.64
406.328	1680.78
406.772	1674.35
407.216	1525.28
407.66	1472.95
408.104	1394.35
408.547	1303.21
408.991	1261.6
409.435	1210.08
409.879	1196.78
410.322	1182.95
410.766	1142.18
411.209	1088.34
411.653	1045.1
412.096	1026.69
412.54	1025.69
412.983	1019.83
413.426	1025.56
413.869	1019.71
414.312	1001.59
414.756	961.98
415.199	915.42
415.642	889
416.085	890.44
416.527	883.67
416.97	894.82
417.413	852.54
417.856	842.31
418.298	829.99
418.741	825.56
419.184	821.79
419.626	853.97
420.069	856.25
420.511	862.39
420.953	846.12
421.396	837.82
421.838	816.48
422.28	833.26
422.722	840.17
423.164	854.09
423.606	842.99
424.048	841.27
424.49	802.1
424.932	797.66
425.374	784.15
425.816	792.32
426.258	807.69
426.699	817.92
427.141	806.31
427.582	814.11
428.024	806.68
428.465	797.92
428.907	779.11
429.348	766.47
429.789	765.97
430.231	752.26
430.672	763.74
431.113	745.19
431.554	732.69
431.995	712.17
432.436	688.49
432.877	671.72
433.318	661.94
433.759	656.17
434.2	657.49
434.64	648.45
435.081	647.03
435.522	613.2
435.962	588.28
436.403	575.98
436.843	581.44
437.284	567.01
437.724	551.97
438.164	550.65
438.604	538.08
439.045	518.04
439.485	499.11
439.925	486.31
440.365	472.62
440.805	466.78
441.245	459.97
441.685	444
442.125	438.94
442.564	440.89
443.004	430.91
443.444	429.52
443.883	428.69
444.323	421.36
444.762	421.26
445.202	424.85
445.641	433.91
446.081	428.91
446.52	430.79
446.959	428.32
447.398	418.86
447.837	412.28
448.276	404.66
448.716	407.95
449.154	411.37
449.593	402.81
450.032	402.65
450.471	392.73
450.91	391.27
451.349	391.34
451.787	388.54
452.226	393.44
452.664	392.55
453.103	391.62
453.541	390.74
453.98	390.74
454.418	392.75
454.856	387.1
455.295	385.86
455.733	389.62
456.171	390.09
456.609	388.24
457.047	387.8
457.485	394.73
457.923	397.32
458.361	390.72
458.798	390.82
459.236	388.43
459.674	389.12
460.111	391.27
460.549	387.85
460.987	385.55
461.424	385.26
461.862	383.16
462.299	376.82
462.736	375.89
463.173	377.76
463.611	376.67
464.048	376.69
464.485	380.47
464.922	376.94
465.359	373.53
465.796	375.54
466.233	374.24
466.67	372.5
467.106	371.77
467.543	367.55
467.98	362.18
468.416	349.36
468.853	345.24
469.29	333.97
469.726	329.95
470.162	322.25
470.599	313.04
471.035	309.16
471.471	300.73
471.907	298.7
472.344	296.56
472.78	298.39
473.216	302.9
473.652	301.09
474.088	299.87
474.523	299.69
474.959	302.12
475.395	299.87
475.831	298.91
476.266	300.18
476.702	298.99
477.138	295.77
477.573	293.85
478.008	292.96
478.444	294.2
478.879	297.81
479.314	298.64
479.75	298.56
480.185	298.76
480.62	300.72
481.055	301.99
481.49	304.03
481.925	308.66
482.36	315.94
482.795	323.75
483.229	331.79
483.664	338.14
484.099	339
484.534	344.4
484.968	348.55
485.403	349.23
485.837	347.91
486.271	347.71
486.706	348.44
487.14	342.91
487.574	338.06
488.009	334.95
488.443	332.08
488.877	336.11
489.311	336.16
489.745	339.52
490.179	343.29
490.613	351.66
491.046	354.96
491.48	357.17
491.914	358.54
492.348	361.76
492.781	364.84
493.215	366.48
493.648	367.49
494.082	371.96
494.515	373.51
494.948	379.06
495.382	381.69
495.815	385.41
496.248	390.22
496.681	397.96
497.114	404.9
497.547	411.68
497.98	421.06
498.413	427.28
498.846	434.48
499.279	441.62
499.711	445.1
500.144	448.22
500.577	456.07
501.009	463.75
501.442	471.99
501.874	475.85
502.306	479.02
502.739	488.21
503.171	498.69
503.603	503.34
504.036	511.44
504.468	517.95
504.9	527.94
505.332	535.19
505.764	541.87
506.196	548.77
506.627	560.9
507.059	572.8
507.491	579.53
507.923	582.07
508.354	594.92
508.786	604.69
509.217	619.26
509.649	631.81
510.08	647.14
510.512	661.21
510.943	675.31
511.374	685.77
511.805	702.04
512.237	717.91
512.668	742.32
513.099	763.62
513.53	785.06
513.961	803.27
514.391	828.25
514.822	855.07
515.253	882.87
515.684	903.69
516.114	927.88
516.545	946.8
516.975	967.67
517.406	982.74
517.836	988.32
518.267	997.91
518.697	1013.98
519.127	1020.92
519.558	1029.11
519.988	1035.65
520.418	1045.35
520.848	1061.42
521.278	1070.44
521.708	1104.14
522.138	1117.82
522.567	1143.69
522.997	1164.74
523.427	1178.34
523.857	1193.98
524.286	1203.92
524.716	1217.51
525.145	1235.26
525.575	1245.86
526.004	1259.53
526.433	1242.11
526.863	1244.35
527.292	1239.61
527.721	1245.58
528.15	1252.36
528.579	1255.03
529.008	1265.56
529.437	1284.34
529.866	1295.68
530.295	1309.82
530.724	1321.48
531.152	1342.93
531.581	1355.15
532.01	1369.12
532.438	1377.85
532.867	1389.67
533.295	1404.53
533.723	1409.3
534.152	1408.08
534.58	1409.84
535.008	1398.7
535.436	1400.61
535.865	1407.04
536.293	1418.13
536.721	1430.74
537.149	1449.54
537.576	1452.32
538.004	1461.92
538.432	1468.32
538.86	1467.69
539.287	1472.25
539.715	1483.26
540.143	1485.3
540.57	1482.23
540.998	1479.24
541.425	1461.62
541.852	1445.7
542.28	1444.01
542.707	1432.51
543.134	1421.75
543.561	1418.39
543.988	1413.04
544.415	1413.13
544.842	1408.99
545.269	1403.48
545.696	1406.17
546.123	1417.53
546.549	1410.13
546.976	1400.98
547.403	1400.8
547.829	1402.77
548.256	1404.27
548.682	1402.67
549.108	1397.56
549.535	1397.58
549.961	1399.65
550.387	1390.12
550.813	1385.73
551.24	1390.34
551.666	1391.65
552.092	1384.5
552.518	1379.65
552.943	1375.31
553.369	1379.51
553.795	1382.73
554.221	1383.67
554.646	1380.84
555.072	1388.86
555.498	1392.96
555.923	1399.73
556.349	1411.24
556.774	1416.84
557.199	1418.01
557.625	1422.4
558.05	1419.12
558.475	1426.77
558.9	1425.28
559.325	1418.9
559.75	1412.52
560.175	1405.62
560.6	1399.42
561.025	1396.41
561.449	1395.55
561.874	1398.51
562.299	1401.41
562.723	1404.58
563.148	1396.12
563.572	1396.98
563.997	1402.92
564.421	1404.69
564.846	1403.27
565.27	1405.02
565.694	1401.9
566.118	1409.17
566.542	1413.49
566.966	1406.19
567.39	1400.47
567.814	1390.13
568.238	1388.21
568.662	1390.58
569.086	1391.01
569.509	1393.57
569.933	1379.31
570.357	1371.09
570.78	1353.99
571.204	1341.68
571.627	1331.14
572.05	1327.57
572.474	1324.61
572.897	1312.69
573.32	1303.89
573.743	1293.16
574.166	1278.53
574.589	1276.54
575.012	1268.83
575.435	1265.28
575.858	1256.78
576.281	1247.3
576.704	1234.5
577.126	1224.15
577.549	1214.82
577.972	1206.16
578.394	1198.06
578.817	1192.44
579.239	1177.48
579.661	1166.37
580.084	1154.17
580.506	1143.1
580.928	1139.25
581.35	1129.77
581.772	1125.27
582.194	1115.03
582.616	1105.19
583.038	1093.93
583.46	1084.66
583.882	1081.5
584.303	1082.58
584.725	1078.45
585.147	1081.21
585.568	1087.53
585.99	1095.46
586.411	1099.94
586.833	1109.52
587.254	1109.99
587.675	1118.84
588.096	1126.02
588.518	1122.11
588.939	1110.13
589.36	1107.46
589.781	1096.51
590.202	1076.13
590.623	1069.04
591.043	1064.95
591.464	1054.84
591.885	1051.26
592.305	1046.83
592.726	1036.7
593.147	1036.65
593.567	1033.04
593.987	1027.2
594.408	1022.33
594.828	1019.52
595.248	1015.06
595.669	1003.47
596.089	997.54
596.509	991.77
596.929	981.99
597.349	981.97
597.769	973.73
598.189	967.41
598.608	968.27
599.028	968.68
599.448	967.92
599.867	957.92
600.287	953.35
600.706	950.29
601.126	943.48
601.545	941.81
601.965	940.3
602.384	936.39
602.803	938.74
603.222	933.92
603.641	929.16
604.061	926.04
604.48	922.95
604.898	928.32
605.317	931.03
605.736	931.98
606.155	929.28
606.574	922.45
606.992	924.87
607.411	920.87
607.829	914.25
608.248	911.55
608.666	908.41
609.085	906.84
609.503	899.76
609.921	894.7
610.339	894.4
610.758	893.25
611.176	888.7
611.594	881.15
612.012	877.14
612.43	879.02
612.847	881.33
613.265	882.43
613.683	884.47
614.101	883.37
614.518	878.63
614.936	870.07
615.353	859.17
615.771	856.1
616.188	855.52
616.606	852.59
617.023	846.86
617.44	837.38
617.857	830.6
618.274	823.99
618.691	820.15
619.108	813.79
619.525	809.24
619.942	812.54
620.359	813.34
620.776	809.01
621.192	806.08
621.609	803.93
622.026	807.41
622.442	811.15
622.859	812.25
623.275	806.77
623.691	809.06
624.108	816.18
624.524	824.82
624.94	824.4
625.356	830.96
625.772	839.2
626.188	846.37
626.604	846.42
627.02	842.34
627.436	840.86
627.852	845.17
628.268	853.25
628.683	846.65
629.099	840.79
629.514	837.85
629.93	839.84
630.345	840.94
630.761	836.99
631.176	837.95
631.591	835.68
632.007	831.11
632.422	828.17
632.837	819.29
633.252	817.36
633.667	809.43
634.082	801.24
634.497	792.03
634.911	779.17
635.326	776.23
635.741	764.45
636.155	755.06
636.57	754.18
636.984	752.01
637.399	751.4
637.813	748.87
638.228	746.11
638.642	747.2
639.056	738.2
639.47	735.72
639.884	727.16
640.298	721.01
640.712	716.97
641.126	706.92
641.54	698.8
641.954	692.4
642.368	682.03
642.781	675.9
643.195	662.89
643.609	661.36
644.022	655.11
644.436	650.28
644.849	640.84
645.262	632.25
645.676	630.34
646.089	626.17
646.502	616.78
646.915	611.45
647.328	599.75
647.741	596.28
648.154	586.04
648.567	584.44
648.98	576.16
649.393	575.53
649.805	572.71
650.218	567.98
650.631	559.15
651.043	554.79
651.456	551.92
651.868	551.72
652.28	560.89
652.693	566.71
653.105	568.56
653.517	573.52
653.929	573.63
654.341	576.46
654.753	568.69
655.165	570.27
655.577	567.71
655.989	564.45
656.401	557.27
656.813	537.62
657.224	527.02
657.636	509.34
658.047	498.26
658.459	485.53
658.87	478.8
659.282	471.57
659.693	460.58
660.104	451.43
660.515	442.2
660.926	440.35
661.338	437.28
661.749	431.54
662.159	427.2
662.57	423.75
662.981	421.21
663.392	415.92
663.803	416.52
664.213	412.32
664.624	408.73
665.035	409.24
665.445	400.79
665.855	396.82
666.266	394.76
666.676	392.44
667.086	386.56
667.497	385.84
667.907	382.87
668.317	378.98
668.727	380.16
669.137	380.22
669.547	379.6
669.956	382.02
670.366	382.63
670.776	383.49
671.186	385.43
671.595	388.97
672.005	391.17
672.414	392.66
672.824	393.03
673.233	393.65
673.642	396.54
674.052	399.61
674.461	402.66
674.87	405.5
675.279	405.63
675.688	406.9
676.097	409.4
676.506	408.57
676.915	416.57
677.323	419.01
677.732	419.92
678.141	421.57
678.549	416.35
678.958	416.81
679.366	417.99
679.775	420.64
680.183	429.28
680.592	433.1
681	437.72
681.408	435.06
681.816	439.79
682.224	445.48
682.632	452.95
683.04	471.63
683.448	486.15
683.856	505.69
684.264	528.05
684.671	546.83
685.079	570.91
685.487	597.58
685.894	634.94
686.302	667.73
686.709	694.79
687.116	725.07
687.524	752.86
687.931	778.97
688.338	801.32
688.745	820.05
689.152	842.64
689.559	873.15
689.966	904.18
690.373	922.48
690.78	952.32
691.187	996.85
691.593	1033.37
692	1065.82
692.407	1110.52
692.813	1167.01
693.22	1214.94
693.626	1264.93
694.032	1305.32
694.439	1363.35
694.845	1412.29
695.251	1470.17
695.657	1525.44
696.063	1602.66
696.469	1661.63
696.875	1719.95
697.281	1756.72
697.687	1800.88
698.093	1837.38
698.498	1902.46
698.904	1955.2
699.31	2028.44
699.715	2087.89
700.12	2165.33
700.526	2189.53
700.931	2251.46
701.337	2299.79
701.742	2334.84
702.147	2406.79
702.552	2439.14
702.957	2493.22
