Data from N_3_HIR_WI_4N_Splice17_13-12-06-219.txt Node
Date: Sat Mar 14 13:12:06 EDT 2020
User: sa697716
Spectrometer: FLMS03696
Trigger mode: 0
Integration Time (sec): 3.180400E-1
Scans to average: 20
Electric dark correction enabled: true
Nonlinearity correction enabled: true
Boxcar width: 5
XAxis mode: Wavelengths
Number of Pixels in Spectrum: 2048
>>>>>Begin Spectral Data<<<<<
187.83	-344471.64
188.298	2516.32
188.766	1333.29
189.233	1202.42
189.701	1708.56
190.169	2391.61
190.636	860.55
191.104	687.79
191.571	100.26
192.039	-61.85
192.506	-88.11
192.974	478.89
193.441	-749.71
193.908	-325.47
194.375	-67.26
194.842	26.01
195.31	121.29
195.777	168.35
196.244	379.46
196.711	449.32
197.177	581.19
197.644	802.85
198.111	1381.79
198.578	1950.25
199.045	1569.18
199.511	2528.99
199.978	2938.06
200.445	2486.63
200.911	2740.79
201.378	3063.83
201.844	2792.07
202.31	4741.2
202.777	4964.67
203.243	2788.93
203.709	2686.23
204.176	3221.33
204.642	2675.65
205.108	2512.9
205.574	2067.37
206.04	1887.76
206.506	1765.45
206.972	1673.19
207.438	1609.4
207.903	1823.52
208.369	1593.29
208.835	1569.63
209.301	1650.31
209.766	1689.73
210.232	1672.17
210.697	2082.41
211.163	2580.67
211.628	3972.21
212.094	3355.3
212.559	4172.96
213.024	2611.26
213.49	3221.84
213.955	3180.71
214.42	3121.82
214.885	2933.64
215.35	2843.78
215.815	2776.37
216.28	3016.87
216.745	2480.46
217.21	2740.98
217.675	2585.67
218.14	2989.04
218.604	3409.05
219.069	3990.64
219.534	4283.73
219.998	5095.66
220.463	6298.62
220.927	7929.11
221.392	7551.51
221.856	7743.35
222.32	9862.31
222.785	12263.8
223.249	15535.17
223.713	17445.37
224.177	17532.66
224.642	22619.65
225.106	27921.94
225.57	30599.28
226.034	22742.12
226.497	34698.93
226.961	31326.85
227.425	36498.46
227.889	40533.89
228.353	40554.62
228.816	83805.99
229.28	80072.8
229.744	67529.42
230.207	41030.04
230.671	40326.32
231.134	66802.27
231.597	76970.44
232.061	76985.09
232.524	75120.94
232.987	51703.95
233.45	46536.37
233.914	41747.49
234.377	42838.99
234.84	39191.78
235.303	46156.4
235.766	51569.81
236.229	53181.12
236.691	33492.35
237.154	37589.08
237.617	28260.83
238.08	28943.38
238.542	33866.46
239.005	24193.35
239.468	23964.9
239.93	22560.48
240.393	20505.52
240.855	17961.54
241.317	18400.35
241.78	22362.41
242.242	23107.42
242.704	24902.21
243.166	21660.72
243.629	19635.47
244.091	22619.58
244.553	24788.85
245.015	26648.56
245.477	34453.91
245.939	50461.04
246.4	53487.57
246.862	51932.26
247.324	48942.46
247.786	54753.63
248.247	71731.56
248.709	74097.26
249.17	55320.35
249.632	52038.78
250.093	60241.79
250.555	51989.26
251.016	31679.25
251.477	30022.93
251.939	32384.75
252.4	33953.45
252.861	40328.87
253.322	37467.83
253.783	44588.07
254.244	57768.85
254.705	45562.88
255.166	40500.03
255.627	39840.46
256.088	56213.32
256.549	59699.11
257.009	51367.27
257.47	62267.11
257.931	50751.08
258.391	38013.54
258.852	39127.97
259.312	41054.99
259.773	50683.07
260.233	42782.04
260.694	36063.22
261.154	40865.39
261.614	32762.04
262.074	29294.02
262.534	30422.81
262.994	28630.09
263.455	38126.49
263.915	32081.89
264.374	30219
264.834	32977.16
265.294	36525.71
265.754	37821.99
266.214	35779.94
266.673	33495.31
267.133	42223.64
267.593	41869.35
268.052	51179.54
268.512	44468.72
268.971	53599.31
269.431	58643.8
269.89	52454.7
270.349	78552.98
270.809	87473.52
271.268	78519.54
271.727	175937.99
272.186	113948.3
272.645	85350.69
273.104	61558.33
273.563	89090.29
274.022	70016.78
274.481	59486.49
274.94	45779.39
275.399	34016.65
275.857	39564.02
276.316	53489.92
276.775	47539.85
277.233	46723.88
277.692	43688.85
278.15	49309.19
278.609	50641.56
279.067	46792.61
279.525	43405.29
279.984	55962.82
280.442	67091.51
280.9	65982.78
281.358	43340.88
281.816	40374.15
282.274	39476.89
282.732	40727.8
283.19	40889.46
283.648	35264.79
284.106	37503.18
284.564	38123.04
285.021	35302.79
285.479	26289.62
285.937	23924.17
286.394	20965.73
286.852	21563.41
287.309	22648.42
287.767	21878.01
288.224	20787.26
288.682	22752.94
289.139	24973.99
289.596	22826.13
290.053	23706.38
290.511	29880.97
290.968	36195.86
291.425	49123.62
291.882	40794.21
292.339	35473.32
292.796	35150.19
293.252	33112.41
293.709	26299
294.166	23521.61
294.623	25997.96
295.079	24957.76
295.536	25068.8
295.992	22734.37
296.449	22429.11
296.905	23309.32
297.362	22334.45
297.818	23483.65
298.274	24341.36
298.731	24784.8
299.187	24531.53
299.643	26293.19
300.099	31727.59
300.555	34725.93
301.011	28990.76
301.467	27907.51
301.923	32634.49
302.379	31814.73
302.835	31191.81
303.291	31175.49
303.746	35459.56
304.202	44727.16
304.658	44893.68
305.113	30180.25
305.569	29556.85
306.024	31477.81
306.479	29958.99
306.935	25200.75
307.39	27525.49
307.845	25385.3
308.301	25507.33
308.756	24808.81
309.211	23890.51
309.666	24434.57
310.121	30313.27
310.576	30751.22
311.031	30490.37
311.486	34893.66
311.94	34861.91
312.395	46548.99
312.85	87470.11
313.305	429558.64
313.759	2220786.77
314.214	160668.42
314.668	127211.65
315.123	106868.71
315.577	38245.7
316.032	34033.46
316.486	42614.52
316.94	33592.05
317.394	23388.54
317.849	18153.23
318.303	17204.34
318.757	16252.64
319.211	17966.34
319.665	15715.7
320.119	15897.21
320.572	22788.63
321.026	21232.25
321.48	17665.32
321.934	19264.35
322.387	19250.42
322.841	20807.84
323.295	18657.14
323.748	21470.33
324.202	21734.59
324.655	26085.25
325.108	36403.39
325.562	25729.92
326.015	30528.95
326.468	23056.95
326.921	25755.05
327.374	24004.61
327.827	24944.18
328.28	28257.02
328.733	18888.68
329.186	16627.13
329.639	15816.7
330.092	13297.06
330.545	12644.52
330.997	12753.27
331.45	13924.38
331.903	16291.29
332.355	28051.62
332.808	27231.5
333.26	22413.36
333.713	24368.66
334.165	24502.08
334.617	32688.4
335.069	26424.41
335.522	47737.02
335.974	52869.23
336.426	48221.43
336.878	33386.74
337.33	16896.07
337.782	16490.96
338.234	20648.19
338.686	24612.8
339.137	29134.86
339.589	27432.49
340.041	21476.79
340.493	18442.99
340.944	18841.58
341.396	20276.68
341.847	17042.42
342.299	20089.83
342.75	24480.86
343.201	21383.48
343.653	24614.23
344.104	30207.62
344.555	23765.07
345.006	36957.23
345.457	28266.64
345.908	22458.56
346.359	21131.75
346.81	17200.7
347.261	18122.65
347.712	17836.08
348.163	19102.12
348.613	19288.49
349.064	17966.98
349.515	15692.14
349.965	16098.34
350.416	19350.89
350.866	21237.26
351.317	23956.37
351.767	39635.15
352.217	49992.06
352.668	41518.3
353.118	37945.36
353.568	36611.13
354.018	28950.85
354.468	30523.47
354.918	21866.72
355.368	19166.26
355.818	27044.77
356.268	77831.56
356.718	325432.65
357.168	80989.64
357.617	40546.46
358.067	45150.82
358.517	42228.77
358.966	49433.59
359.416	55419.77
359.865	59843.05
360.315	71122.22
360.764	33161.92
361.213	18548.5
361.663	17553
362.112	21685.62
362.561	34997.85
363.01	26345.67
363.459	22173.66
363.908	23999.59
364.357	20377.73
364.806	34414.37
365.255	23651.4
365.703	21656.38
366.152	21697.02
366.601	17579.75
367.05	14228.3
367.498	12920.94
367.947	13496.49
368.395	13998.82
368.844	12408.71
369.292	14940.36
369.74	10302.93
370.189	15729.59
370.637	18425.87
371.085	15868.45
371.533	19291.62
371.981	18586.65
372.429	17719.04
372.877	18432.28
373.325	15428.5
373.773	15695.06
374.221	13951.56
374.669	17300.54
375.116	14955.72
375.564	15056.31
376.012	16826.12
376.459	13869.46
376.907	16543.82
377.354	19976.21
377.801	18614.38
378.249	21399.35
378.696	27335.15
379.143	33082.67
379.591	35199.6
380.038	59517.08
380.485	42960.85
380.932	46321.85
381.379	42353.67
381.826	31171.75
382.273	22115.54
382.72	19308.87
383.166	18807.13
383.613	12182.44
384.06	10963.57
384.506	12695.1
384.953	9345.51
385.4	9411.59
385.846	8255.36
386.292	8046.15
386.739	7881.63
387.185	7798.75
387.631	7814.73
388.078	7587.99
388.524	8108.93
388.97	7502.68
389.416	6258.86
389.862	6633.59
390.308	6280.81
390.754	6374.05
391.2	6912.46
391.645	7060.73
392.091	6752.76
392.537	6522.9
392.983	6536.46
393.428	6443.62
393.874	6904.58
394.319	6923.9
394.765	6565
395.21	6756.35
395.655	6328.9
396.101	5922.28
396.546	5349.3
396.991	5398.63
397.436	5012.11
397.881	4826.22
398.326	4555.88
398.771	4306.08
399.216	3763.74
399.661	3386.64
400.106	3360.91
400.551	3446.32
400.995	3083.38
401.44	3042.16
401.885	2851.22
402.329	2872.81
402.774	2751.65
403.218	2664.91
403.663	2561.65
404.107	2627.75
404.551	2643.77
404.995	2423.32
405.44	2325.68
405.884	2357.1
406.328	2275.29
406.772	2260.23
407.216	2056.69
407.66	1985.72
408.104	1878.82
408.547	1750.97
408.991	1688.24
409.435	1619.17
409.879	1595.92
410.322	1570.96
410.766	1515.49
411.209	1440.07
411.653	1381.88
412.096	1349.15
412.54	1346.66
412.983	1336.34
413.426	1343
413.869	1339.58
414.312	1311.65
414.756	1260.09
415.199	1199.79
415.642	1163.23
416.085	1162.59
416.527	1151.88
416.97	1167.91
417.413	1107.43
417.856	1094.78
418.298	1081.45
418.741	1071.37
419.184	1067.94
419.626	1110.43
420.069	1107.69
420.511	1115.01
420.953	1091.6
421.396	1080.99
421.838	1054.83
422.28	1078.13
422.722	1082.21
423.164	1096.87
423.606	1079.97
424.048	1080.34
424.49	1025.27
424.932	1020.83
425.374	1005.05
425.816	1019.9
426.258	1038.23
426.699	1047.19
427.141	1030.28
427.582	1043.65
428.024	1034.83
428.465	1024.72
428.907	998.86
429.348	987.06
429.789	987.36
430.231	966.11
430.672	977.51
431.113	954.1
431.554	938.1
431.995	913.01
432.436	880.82
432.877	861.13
433.318	848.56
433.759	841.3
434.2	839.17
434.64	829.55
435.081	832.09
435.522	788.71
435.962	758.57
436.403	742.8
436.843	752.74
437.284	736.26
437.724	717.68
438.164	717.71
438.604	703.28
439.045	678.09
439.485	651.78
439.925	636.89
440.365	622.14
440.805	615.27
441.245	608.78
441.685	587.56
442.125	582.49
442.564	585.23
443.004	572.44
443.444	570.57
443.883	570.35
444.323	564.58
444.762	564.18
445.202	571.03
445.641	582.98
446.081	579.06
446.52	583.45
446.959	578.78
447.398	566.58
447.837	561.42
448.276	552.77
448.716	559.62
449.154	563.95
449.593	552.76
450.032	553.2
450.471	542.35
450.91	541.97
451.349	541.61
451.787	541.21
452.226	549.62
452.664	549.75
453.103	550.03
453.541	549.19
453.98	550.59
454.418	555.26
454.856	546.36
455.295	544.32
455.733	549.38
456.171	551.71
456.609	549.31
457.047	547.97
457.485	555.82
457.923	557.2
458.361	550.49
458.798	551.69
459.236	549.06
459.674	552.17
460.111	555.25
460.549	550.59
460.987	547.85
461.424	547.44
461.862	545.62
462.299	536.04
462.736	535.59
463.173	535.81
463.611	530.75
464.048	530.1
464.485	534.34
464.922	529.13
465.359	525.66
465.796	522.56
466.233	519.73
466.67	515.64
467.106	515.92
467.543	510.85
467.98	504.8
468.416	489.67
468.853	484.72
469.29	470.28
469.726	465.24
470.162	454.1
470.599	445.67
471.035	440.51
471.471	428.34
471.907	424.55
472.344	421.83
472.78	423.43
473.216	430.07
473.652	425.81
474.088	423.78
474.523	423.72
474.959	426.6
475.395	423.27
475.831	421.42
476.266	424.42
476.702	422.92
477.138	418.68
477.573	417.64
478.008	415.37
478.444	417.59
478.879	422.95
479.314	425.12
479.75	425.19
480.185	427.08
480.62	429.9
481.055	432.31
481.49	436.62
481.925	443.28
482.36	452.19
482.795	464.98
483.229	476.31
483.664	485.66
484.099	486.96
484.534	494.71
484.968	499.49
485.403	502.15
485.837	501.51
486.271	501.3
486.706	501.74
487.14	495.39
487.574	488.68
488.009	485.48
488.443	482.38
488.877	487.72
489.311	489.55
489.745	495.81
490.179	501.66
490.613	512.54
491.046	517.41
491.48	521.72
491.914	523.06
492.348	527.25
492.781	531.34
493.215	533.06
493.648	535.39
494.082	540.93
494.515	542.87
494.948	550.99
495.382	555.54
495.815	561.03
496.248	567.4
496.681	579.87
497.114	591.41
497.547	601.76
497.98	614.71
498.413	622.22
498.846	632.53
499.279	642.57
499.711	647.65
500.144	652.39
500.577	663.5
501.009	675.49
501.442	687.27
501.874	691.15
502.306	696
502.739	706.84
503.171	723.02
503.603	729.52
504.036	741.13
504.468	750.32
504.9	764.18
505.332	773.86
505.764	781.93
506.196	791.31
506.627	808.23
507.059	823.91
507.491	835.65
507.923	837.75
508.354	855.3
508.786	868.81
509.217	888.37
509.649	905.69
510.08	926.97
510.512	946.58
510.943	964.49
511.374	979.49
511.805	1002.16
512.237	1023.21
512.668	1057.43
513.099	1086.96
513.53	1115.95
513.961	1139.43
514.391	1172.67
514.822	1207.08
515.253	1244.19
515.684	1271.2
516.114	1302.53
516.545	1327.36
516.975	1354.74
517.406	1375.13
517.836	1380.77
518.267	1390.13
518.697	1410.38
519.127	1416.81
519.558	1427.45
519.988	1433.39
520.418	1446.03
520.848	1465.38
521.278	1475.94
521.708	1499.08
522.138	1513.03
522.567	1544.93
522.997	1571.34
523.427	1589.08
523.857	1608.31
524.286	1620.53
524.716	1636.59
525.145	1657.83
525.575	1669.61
526.004	1685.42
526.433	1677.35
526.863	1680.19
527.292	1672.72
527.721	1680.52
528.15	1685.85
528.579	1687.34
529.008	1698.47
529.437	1722.46
529.866	1736.56
530.295	1755.18
530.724	1767.89
531.152	1796.22
531.581	1811.32
532.01	1828.75
532.438	1837.12
532.867	1853.48
533.295	1872.88
533.723	1879.8
534.152	1878.74
534.58	1878.56
535.008	1862.41
535.436	1864.18
535.865	1871.63
536.293	1885.17
536.721	1901.49
537.149	1927.83
537.576	1931.08
538.004	1944.68
538.432	1951.87
538.86	1949.79
539.287	1957.28
539.715	1971.05
540.143	1974.94
540.57	1971.8
540.998	1967.64
541.425	1943.15
541.852	1921.12
542.28	1918.38
542.707	1900.55
543.134	1886.13
543.561	1882.38
543.988	1873.96
544.415	1873.44
544.842	1865.98
545.269	1858.43
545.696	1860.45
546.123	1874.53
546.549	1863.97
546.976	1849.46
547.403	1849.77
547.829	1853.36
548.256	1855.22
548.682	1852.76
549.108	1846.81
549.535	1847.91
549.961	1850.05
550.387	1838.34
550.813	1832.35
551.24	1839.5
551.666	1842.65
552.092	1834.62
552.518	1828.21
552.943	1823.85
553.369	1832.12
553.795	1837.92
554.221	1840.66
554.646	1838.96
555.072	1849.31
555.498	1856.08
555.923	1867.08
556.349	1883.04
556.774	1890.84
557.199	1892.16
557.625	1898.08
558.05	1891.66
558.475	1900.87
558.9	1899.7
559.325	1891.14
559.75	1884.92
560.175	1877.64
560.6	1869.45
561.025	1867.01
561.449	1868.53
561.874	1875.41
562.299	1879.18
562.723	1887.33
563.148	1878.56
563.572	1881.74
563.997	1892.54
564.421	1897.33
564.846	1897.04
565.27	1901.15
565.694	1899.28
566.118	1910.79
566.542	1917.01
566.966	1909.15
567.39	1903.09
567.814	1890.74
568.238	1889.1
568.662	1893.66
569.086	1896.96
569.509	1903.74
569.933	1886.49
570.357	1877.17
570.78	1855.06
571.204	1841.26
571.627	1829.91
572.05	1826.78
572.474	1825.73
572.897	1813.57
573.32	1804.1
573.743	1793.31
574.166	1774.73
574.589	1775.44
575.012	1767.6
575.435	1765.36
575.858	1754.54
576.281	1743.31
576.704	1727.25
577.126	1714.97
577.549	1702.3
577.972	1692.13
578.394	1681.31
578.817	1673.74
579.239	1653.72
579.661	1640.24
580.084	1624.49
580.506	1611.54
580.928	1608.17
581.35	1597.46
581.772	1593.22
582.194	1580.47
582.616	1568.33
583.038	1553.49
583.46	1542.46
583.882	1539.39
584.303	1543.25
584.725	1538.39
585.147	1540.44
585.568	1551.15
585.99	1562.59
586.411	1568.18
586.833	1581.92
587.254	1582.61
587.675	1596.63
588.096	1609.65
588.518	1603.69
588.939	1586.47
589.36	1583.98
589.781	1572.86
590.202	1541.85
590.623	1533.3
591.043	1531.61
591.464	1518.72
591.885	1514.73
592.305	1508.83
592.726	1494.61
593.147	1496.67
593.567	1490.79
593.987	1482.38
594.408	1475.8
594.828	1474.51
595.248	1468.39
595.669	1448.84
596.089	1441.7
596.509	1435.5
596.929	1420.72
597.349	1421.01
597.769	1410.19
598.189	1404.21
598.608	1406.62
599.028	1409.44
599.448	1409.49
599.867	1396.55
600.287	1392.77
600.706	1388.3
601.126	1377.11
601.545	1375.74
601.965	1373.86
602.384	1368.28
602.803	1370.51
603.222	1364.58
603.641	1357.56
604.061	1354.17
604.48	1348.97
604.898	1355.98
605.317	1360.47
605.736	1362.33
606.155	1359.83
606.574	1350.4
606.992	1354.66
607.411	1348.49
607.829	1339.34
608.248	1334.3
608.666	1330.21
609.085	1329.24
609.503	1319.41
609.921	1311.65
610.339	1312.17
610.758	1310.37
611.176	1304.74
611.594	1295.16
612.012	1291.71
612.43	1294.88
612.847	1300.78
613.265	1301.28
613.683	1304.78
614.101	1304.98
614.518	1301.19
614.936	1290.94
615.353	1275.8
615.771	1272.35
616.188	1271.68
616.606	1267.82
617.023	1259.91
617.44	1246.14
617.857	1237.06
618.274	1227.25
618.691	1221.28
619.108	1210.94
619.525	1203.51
619.942	1209.37
620.359	1210.32
620.776	1205.14
621.192	1200.27
621.609	1197.25
622.026	1202.68
622.442	1209.24
622.859	1211.54
623.275	1203.64
623.691	1209.24
624.108	1220.44
624.524	1232.52
624.94	1232.5
625.356	1241.09
625.772	1253.06
626.188	1263.73
626.604	1265.01
627.02	1259.52
627.436	1257.24
627.852	1264.34
628.268	1275.19
628.683	1266
629.099	1256.1
629.514	1250.66
629.93	1253.53
630.345	1257.26
630.761	1253.23
631.176	1256.15
631.591	1251.72
632.007	1245.41
632.422	1241.96
632.837	1230.23
633.252	1226.62
633.667	1216.91
634.082	1208.07
634.497	1195.36
634.911	1176.13
635.326	1170.96
635.741	1152.82
636.155	1140.14
636.57	1140.93
636.984	1139.36
637.399	1139.18
637.813	1137.19
638.228	1135.58
638.642	1136.47
639.056	1124.19
639.47	1122.16
639.884	1111.84
640.298	1102.26
640.712	1099.45
641.126	1083.94
641.54	1072.32
641.954	1064.03
642.368	1050.06
642.781	1039.38
643.195	1020.74
643.609	1018.04
644.022	1008.52
644.436	1002.08
644.849	990.34
645.262	975.81
645.676	974.73
646.089	967.65
646.502	951.94
646.915	944.54
647.328	927
647.741	923.58
648.154	909.9
648.567	906.08
648.98	893.21
649.393	890.01
649.805	885.63
650.218	877.13
650.631	863.54
651.043	857.62
651.456	851.71
651.868	850.55
652.28	863.2
652.693	874.55
653.105	879.35
653.517	885.74
653.929	885.81
654.341	889.19
654.753	877.92
655.165	879.66
655.577	875.58
655.989	869.78
656.401	861.03
656.813	829.31
657.224	809.42
657.636	782.88
658.047	766.78
658.459	747.28
658.87	737
659.282	725.26
659.693	707.01
660.104	693
660.515	678.9
660.926	674.87
661.338	669
661.749	660.65
662.159	649.76
662.57	641.55
662.981	636.1
663.392	627.3
663.803	627.03
664.213	622.13
664.624	613.71
665.035	613.93
665.445	600.45
665.855	594.01
666.266	586.73
666.676	582.01
667.086	573.46
667.497	570.81
667.907	564.38
668.317	556.24
668.727	553.27
669.137	552.77
669.547	549.03
669.956	549.55
670.366	548.47
670.776	549.47
671.186	552.72
671.595	555.4
672.005	557.12
672.414	556.85
672.824	555.18
673.233	555.62
673.642	557.26
674.052	560.25
674.461	562.17
674.87	566.32
675.279	564.12
675.688	564.9
676.097	566.27
676.506	564.77
676.915	576.3
677.323	579.03
677.732	579.94
678.141	581.19
678.549	573.56
678.958	575.09
679.366	574
679.775	578.29
680.183	588.69
680.592	594.79
681	601.55
681.408	598.59
681.816	607.88
682.224	616.02
682.632	628.12
683.04	654.33
683.448	676.36
683.856	706.53
684.264	739.81
684.671	770.82
685.079	809.21
685.487	850.22
685.894	907.25
686.302	954.98
686.709	998.49
687.116	1047.72
687.524	1091.89
687.931	1132.35
688.338	1167.69
688.745	1197.67
689.152	1232.14
689.559	1275.94
689.966	1321.47
690.373	1347.07
690.78	1390.53
691.187	1454.37
691.593	1504.17
692	1548.79
692.407	1610.76
692.813	1686.75
693.22	1749.65
693.626	1812.81
694.032	1864.06
694.439	1938.77
694.845	1999.49
695.251	2074.97
695.657	2142.65
696.063	2241.26
696.469	2313.25
696.875	2383.55
697.281	2422.69
