Data from N_3_DIV_OH_2N_Splice17_12-50-11-354.txt Node
Date: Sat Mar 14 12:50:11 EDT 2020
User: sa697716
Spectrometer: FLMS03696
Trigger mode: 0
Integration Time (sec): 3.180400E-1
Scans to average: 20
Electric dark correction enabled: true
Nonlinearity correction enabled: true
Boxcar width: 5
XAxis mode: Wavelengths
Number of Pixels in Spectrum: 2048
>>>>>Begin Spectral Data<<<<<
187.83	-313018.61
188.298	2289.89
188.766	1255.68
189.233	1142.45
189.701	1624.26
190.169	2235.45
190.636	865.69
191.104	714.03
191.571	156.73
192.039	-11.09
192.506	21.99
192.974	624.41
193.441	-1012.72
193.908	-287.11
194.375	-61.03
194.842	49.55
195.31	137.02
195.777	184.98
196.244	413.55
196.711	527.46
197.177	681.06
197.644	948.32
198.111	1606.31
198.578	2265.75
199.045	1812.61
199.511	2964.2
199.978	3431.6
200.445	2908.26
200.911	3212.59
201.378	3589.05
201.844	3238.3
202.31	5512.8
202.777	5737.33
203.243	3190.09
203.709	3016.54
204.176	3589.39
204.642	2965.01
205.108	2769.17
205.574	2269.47
206.04	2091.26
206.506	1967.45
206.972	1864.14
207.438	1804.65
207.903	2059.44
208.369	1802.76
208.835	1812.48
209.301	1889.23
209.766	1919.85
210.232	1906.97
210.697	2353.34
211.163	2877.49
211.628	4314.44
212.094	3644.32
212.559	4462.16
213.024	2763.36
213.49	3373.53
213.955	3272.71
214.42	3196.66
214.885	2975.12
215.35	2836.2
215.815	2732.61
216.28	2899.68
216.745	2351.38
217.21	2516.51
217.675	2297.81
218.14	2582.48
218.604	2883.75
219.069	3276.96
219.534	3433.36
219.998	3983.95
220.463	4814.96
220.927	5908.48
221.392	5541.88
221.856	5618.67
222.32	7082.3
222.785	8753.04
223.249	10991
223.713	12217.39
224.177	12196.04
224.642	15640.72
225.106	19242.07
225.57	21021.46
226.034	15630.52
226.497	23799.31
226.961	21504.15
227.425	25050.39
227.889	27697.57
228.353	27714.18
228.816	57284.89
229.28	54875.21
229.744	46158.59
230.207	28011.78
230.671	27505.16
231.134	45388.6
231.597	52339.17
232.061	52283.31
232.524	50939.57
232.987	35119.64
233.45	31581.21
233.914	28317.84
234.377	28985.05
234.84	26542.59
235.303	31311.18
235.766	34968.81
236.229	36134.99
236.691	22716.45
237.154	25484.37
237.617	19169.23
238.08	19623.36
238.542	22962.46
239.005	16412.94
239.468	16282.83
239.93	15340.89
240.393	13936.94
240.855	12233.88
241.317	12524.91
241.78	15246.51
242.242	15762.06
242.704	17012.79
243.166	14813.31
243.629	13451.41
244.091	15479.34
244.553	16942.54
245.015	18216.23
245.477	23564.96
245.939	34501.51
246.4	36636.97
246.862	35581.24
247.324	33517.66
247.786	37423.18
248.247	48957.35
248.709	50448.16
249.17	37740.94
249.632	35566.88
250.093	41193.69
250.555	35544.85
251.016	21692.82
251.477	20541.05
251.939	22138.63
252.4	23214.4
252.861	27595.52
253.322	25664.35
253.783	30516.57
254.244	39497.57
254.705	31083.5
255.166	27630.01
255.627	27179.77
256.088	38291.86
256.549	40670.63
257.009	35030.67
257.47	42463.55
257.931	34578.06
258.391	25884.7
258.852	26682.15
259.312	27960.24
259.773	34542.84
260.233	29161.95
260.694	24560.08
261.154	27831.58
261.614	22318.81
262.074	19928.26
262.534	20706.82
262.994	19491.13
263.455	25922.27
263.915	21799.48
264.374	20516.6
264.834	22370.87
265.294	24755.35
265.754	25626.1
266.214	24241.09
266.673	22676.1
267.133	28587.87
267.593	28330.47
268.052	34644.42
268.512	30128.24
268.971	36369.43
269.431	39855.07
269.89	35687.28
270.349	53498.98
270.809	59636.2
271.268	53539.02
271.727	119965.86
272.186	77707.45
272.645	58236.13
273.104	41974.56
273.563	60779.49
274.022	47726.42
274.481	40594.33
274.94	31242.52
275.399	23211.51
275.857	27005.21
276.316	36534.15
276.775	32538.15
277.233	32021.41
277.692	29976.4
278.15	33932.65
278.609	34901.45
279.067	32289.72
279.525	29995.76
279.984	38767.52
280.442	46522.54
280.9	45929.06
281.358	30219.74
281.816	28164.44
282.274	27631.08
282.732	28555.47
283.19	28668.04
283.648	24718.7
284.106	26339.3
284.564	26771.9
285.021	24820.71
285.479	18511.96
285.937	16787.12
286.394	14728.54
286.852	15159.95
287.309	15903.15
287.767	15350.78
288.224	14596.24
288.682	16036.63
289.139	17598.85
289.596	16106.36
290.053	16720.53
290.511	21093.25
290.968	25589.33
291.425	34671.28
291.882	28837.2
292.339	25075.27
292.796	24863.31
293.252	23443.26
293.709	18627.39
294.166	16672.47
294.623	18419.08
295.079	17663.64
295.536	17724.74
295.992	16080.9
296.449	15893.5
296.905	16492.79
297.362	15800.41
297.818	16614.48
298.274	17230.82
298.731	17536.1
299.187	17364.69
299.643	18618.68
300.099	22515.01
300.555	24725.25
301.011	20694.96
301.467	19974.8
301.923	23375.11
302.379	22841.67
302.835	22451.53
303.291	22468.92
303.746	25570.65
304.202	32288.5
304.658	32447.78
305.113	21823.04
305.569	21371.99
306.024	22741.94
306.479	21619.54
306.935	18226.33
307.39	19924.95
307.845	18394.49
308.301	18524.6
308.756	18038.51
309.211	17376.87
309.666	17803.17
310.121	22139.88
310.576	22502.19
311.031	22373.71
311.486	25642.96
311.94	25637.46
312.395	34305.81
312.85	64462.48
313.305	316684.05
313.759	1643646.1
314.214	119228.36
314.668	94565.92
315.123	79431.14
315.577	28486.06
316.032	25326.82
316.486	31740.28
316.94	25066.74
317.394	17434.92
317.849	13547.18
318.303	12815.91
318.757	12068.89
319.211	13345.74
319.665	11671.79
320.119	11821.27
320.572	16927.97
321.026	15832.86
321.48	13180.78
321.934	14366.67
322.387	14393.08
322.841	15567.49
323.295	14004.76
323.748	16121.51
324.202	16360.57
324.655	19669.65
325.108	27533.02
325.562	19445.74
326.015	23100.95
326.468	17477.85
326.921	19547.16
327.374	18245.14
327.827	19013.75
328.28	21538.93
328.733	14451.04
329.186	12705.59
329.639	12115.62
330.092	10205.68
330.545	9737.37
330.997	9811.49
331.45	10719.66
331.903	12586.24
332.355	21628.67
332.808	20994.55
333.26	17298.29
333.713	18833.2
334.165	19001.05
334.617	25391.1
335.069	20505.73
335.522	37075.6
335.974	41157.53
336.426	37653.5
336.878	26081.77
337.33	13264.91
337.782	12973.92
338.234	16293.04
338.686	19474.66
339.137	23066.46
339.589	21723.55
340.041	17060.78
340.493	14659.6
340.944	15007.73
341.396	16167.71
341.847	13603.88
342.299	16072.37
342.75	19624.36
343.201	17145.8
343.653	19691.63
344.104	24175.92
344.555	18996.93
345.006	29518.29
345.457	22622.71
345.908	17963.01
346.359	16888.46
346.81	13742.09
347.261	14437.76
347.712	14197.72
348.163	15219.17
348.613	15432.32
349.064	14418.27
349.515	12631.34
349.965	12958.17
350.416	15600.89
350.866	17123.41
351.317	19354.4
351.767	32004.54
352.217	40477.55
352.668	33560.71
353.118	30705.07
353.568	29567.65
354.018	23399.87
354.468	24690.6
354.918	17735.23
355.368	15512.07
355.818	21935.25
356.268	63140.85
356.718	264693.28
357.168	65981
357.617	33138.46
358.067	36818.92
358.517	34482.72
358.966	40486.61
359.416	45447.09
359.865	48945.45
360.315	58332.64
360.764	27212.61
361.213	15254.13
361.663	14433.37
362.112	17796.81
362.561	28763.15
363.01	21701.52
363.459	18277.18
363.908	19754.66
364.357	16769.69
364.806	28286.76
365.255	19435.36
365.703	17814.12
366.152	17824.91
366.601	14482.18
367.05	11775.02
367.498	10702.59
367.947	11184.97
368.395	11618.33
368.844	10282.29
369.292	12381.21
369.74	8589.42
370.189	13162.3
370.637	15405.84
371.085	13316.75
371.533	16189.2
371.981	15574.05
372.429	14859.46
372.877	15507.14
373.325	13010.3
373.773	13254.24
374.221	11803.45
374.669	14617.98
375.116	12651.39
375.564	12763.33
376.012	14226.86
376.459	11741.15
376.907	14025.81
377.354	16961.78
377.801	15844.54
378.249	18247.63
378.696	23349.86
379.143	28292.06
379.591	30222.91
380.038	51105.3
380.485	37003.22
380.932	40060.32
381.379	36732.77
381.826	27099.39
382.273	19261.75
382.72	16828.38
383.166	16386.46
383.613	10630.55
384.06	9605.46
384.506	11130.28
384.953	8191.2
385.4	8254.03
385.846	7234.96
386.292	7051.1
386.739	6908.43
387.185	6849.74
387.631	6871.02
388.078	6697.58
388.524	7185.84
388.97	6638.61
389.416	5546.49
389.862	5901.02
390.308	5599.04
390.754	5695.17
391.2	6202.18
391.645	6365.4
392.091	6115.77
392.537	5920.77
392.983	5927.25
393.428	5845.52
393.874	6286.5
394.319	6325.33
394.765	6006.58
395.21	6190.32
395.655	5818.31
396.101	5449.73
396.546	4927.08
396.991	4967.15
397.436	4612.05
397.881	4460.13
398.326	4218.18
398.771	3992.94
399.216	3485.33
399.661	3140
400.106	3125.93
400.551	3202.02
400.995	2874.09
401.44	2837.94
401.885	2658.96
402.329	2680.93
402.774	2562.8
403.218	2486.69
403.663	2393.17
404.107	2462.38
404.551	2478.99
404.995	2270.5
405.44	2179.47
405.884	2207.64
406.328	2128.37
406.772	2116.94
407.216	1927.7
407.66	1861.2
408.104	1756.39
408.547	1638.34
408.991	1578.67
409.435	1515.59
409.879	1487.83
410.322	1465.51
410.766	1413.29
411.209	1342.74
411.653	1287.01
412.096	1261.38
412.54	1257.59
412.983	1250.79
413.426	1253.79
413.869	1252.29
414.312	1228.78
414.756	1186.68
415.199	1131.62
415.642	1097.96
416.085	1100.06
416.527	1091.85
416.97	1104.54
417.413	1048.46
417.856	1032.57
418.298	1021.01
418.741	1010.17
419.184	1004.8
419.626	1041.04
420.069	1041.14
420.511	1042.81
420.953	1017.91
421.396	1008.18
421.838	979.7
422.28	1001.35
422.722	1009.15
423.164	1020.52
423.606	1002.32
424.048	999.41
424.49	949.67
424.932	942.29
425.374	927.85
425.816	943.17
426.258	958.63
426.699	970.22
427.141	959.78
427.582	970.2
428.024	963.73
428.465	958.44
428.907	934.92
429.348	926.81
429.789	928.78
430.231	913.16
430.672	925.96
431.113	905.17
431.554	892.47
431.995	865.71
432.436	837.01
432.877	819.94
433.318	809.65
433.759	805.76
434.2	804.09
434.64	795.55
435.081	795.66
435.522	755.42
435.962	727.9
436.403	712.63
436.843	723.82
437.284	707.06
437.724	687.46
438.164	684.9
438.604	668.45
439.045	644.44
439.485	618.62
439.925	605.52
440.365	588.68
440.805	580.71
441.245	573.72
441.685	554.57
442.125	552.41
442.564	556.96
443.004	546.26
443.444	547.21
443.883	547.44
444.323	543
444.762	543.02
445.202	551.23
445.641	564.23
446.081	562.15
446.52	566.15
446.959	563.2
447.398	551.48
447.837	546.85
448.276	537.45
448.716	545.38
449.154	551.32
449.593	542.12
450.032	542.18
450.471	530.91
450.91	532.15
451.349	534.36
451.787	531.6
452.226	539.21
452.664	539.47
453.103	541.95
453.541	540.26
453.98	541.78
454.418	546.22
454.856	540.38
455.295	541.36
455.733	545.15
456.171	546.28
456.609	545.49
457.047	545.48
457.485	554.19
457.923	555.34
458.361	548.97
458.798	549.62
459.236	548.03
459.674	550.43
460.111	553.59
460.549	549.93
460.987	548.42
461.424	547.23
461.862	544.77
462.299	536
462.736	536.48
463.173	537.63
463.611	533.83
464.048	532.38
464.485	535.48
464.922	529
465.359	524.56
465.796	523.06
466.233	520.98
466.67	517.41
467.106	517.48
467.543	510.56
467.98	503.87
468.416	488.36
468.853	484.64
469.29	469.96
469.726	464.23
470.162	452.32
470.599	440.72
471.035	435.62
471.471	424.21
471.907	420.69
472.344	419.61
472.78	421.43
473.216	427.09
473.652	422.08
474.088	421.56
474.523	421.75
474.959	425.69
475.395	422.47
475.831	419.63
476.266	422.03
476.702	420.96
477.138	415.52
477.573	414.08
478.008	412.46
478.444	414.18
478.879	419.28
479.314	421.76
479.75	421.64
480.185	424.42
480.62	428.98
481.055	431.38
481.49	435.57
481.925	441.92
482.36	450.51
482.795	463.56
483.229	475.93
483.664	485.39
484.099	486.49
484.534	495.08
484.968	500.7
485.403	502.95
485.837	503.23
486.271	501.9
486.706	503.54
487.14	497.63
487.574	490.35
488.009	487.65
488.443	484.44
488.877	491.19
489.311	493.66
489.745	500.11
490.179	506.01
490.613	517.23
491.046	523.88
491.48	529.6
491.914	533.09
492.348	539.31
492.781	544.42
493.215	547.95
493.648	551.23
494.082	558.85
494.515	562.35
494.948	571.61
495.382	578.35
495.815	584.46
496.248	592.29
496.681	606.39
497.114	619.48
497.547	631.82
497.98	647.02
498.413	656.23
498.846	668.34
499.279	680.85
499.711	689.02
500.144	696.38
500.577	711.41
501.009	726.16
501.442	739.93
501.874	746.62
502.306	754.28
502.739	768.2
503.171	787.96
503.603	796.65
504.036	810.64
504.468	822.89
504.9	839.35
505.332	852.08
505.764	862.43
506.196	875.67
506.627	896.55
507.059	915.43
507.491	929.55
507.923	933.95
508.354	954.66
508.786	971.15
509.217	995.17
509.649	1016.15
510.08	1040.75
510.512	1064.03
510.943	1085.85
511.374	1103.24
511.805	1130.06
512.237	1155.19
512.668	1195.18
513.099	1230.04
513.53	1264.75
513.961	1291.92
514.391	1331.73
514.822	1372.88
515.253	1416.01
515.684	1448.1
516.114	1485.29
516.545	1513.42
516.975	1546.87
517.406	1570.26
517.836	1577.37
518.267	1589.2
518.697	1612.34
519.127	1620.63
519.558	1632.13
519.988	1639.52
520.418	1653.61
520.848	1675.45
521.278	1688.23
521.708	1698.04
522.138	1713.36
522.567	1749.89
522.997	1779.98
523.427	1799.61
523.857	1821.19
524.286	1835.06
524.716	1854.24
525.145	1876.92
525.575	1890.67
526.004	1909.26
526.433	1916
526.863	1918.39
527.292	1908.72
527.721	1916.27
528.15	1923.87
528.579	1924.45
529.008	1937.59
529.437	1965.11
529.866	1982.02
530.295	2003.53
530.724	2017.16
531.152	2048.15
531.581	2066.03
532.01	2086.57
532.438	2096.95
532.867	2113.83
533.295	2136.96
533.723	2143.15
534.152	2140.54
534.58	2140.87
535.008	2121.59
535.436	2123.91
535.865	2134.75
536.293	2151.7
536.721	2169.5
537.149	2198.56
537.576	2201.19
538.004	2214.61
538.432	2223.95
538.86	2222.7
539.287	2230.26
539.715	2246.75
540.143	2249.89
540.57	2243.89
540.998	2239.88
541.425	2214.5
541.852	2189.89
542.28	2188.91
542.707	2169.94
543.134	2153.54
543.561	2147.01
543.988	2138.71
544.415	2138.2
544.842	2132.01
545.269	2124.34
545.696	2126.06
546.123	2139.92
546.549	2128.53
546.976	2113.02
547.403	2112.18
547.829	2115.4
548.256	2118.71
548.682	2113.91
549.108	2104.39
549.535	2103.75
549.961	2105.6
550.387	2090.13
550.813	2083.47
551.24	2089.73
551.666	2091.15
552.092	2081.24
552.518	2072.76
552.943	2066.46
553.369	2076.15
553.795	2083.5
554.221	2084.66
554.646	2079.94
555.072	2091.24
555.498	2097.58
555.923	2107.55
556.349	2125.5
556.774	2134.88
557.199	2137.93
557.625	2144.65
558.05	2137.13
558.475	2149.14
558.9	2148.98
559.325	2140.28
559.75	2133.11
560.175	2125.71
560.6	2118.82
561.025	2116.23
561.449	2117.18
561.874	2122.09
562.299	2125.69
562.723	2134.37
563.148	2121.78
563.572	2124.08
563.997	2135.36
564.421	2141.14
564.846	2140.14
565.27	2144.66
565.694	2139.71
566.118	2151.64
566.542	2159.98
566.966	2152.16
567.39	2144.96
567.814	2131.84
568.238	2130.55
568.662	2135.85
569.086	2138.12
569.509	2146.4
569.933	2128.13
570.357	2119.43
570.78	2095.3
571.204	2080.33
571.627	2066.35
572.05	2063.32
572.474	2061.65
572.897	2046.07
573.32	2036.26
573.743	2024.49
574.166	2002.19
574.589	2000.21
575.012	1991
575.435	1988.55
575.858	1976.44
576.281	1963.98
576.704	1944.62
577.126	1930.16
577.549	1916.96
577.972	1904.24
578.394	1891.24
578.817	1882.46
579.239	1860.38
579.661	1844.9
580.084	1826.26
580.506	1810.12
580.928	1804.26
581.35	1791.68
581.772	1785.91
582.194	1770.37
582.616	1755.15
583.038	1738.13
583.46	1726.23
583.882	1722.74
584.303	1726.18
584.725	1719.83
585.147	1721.71
585.568	1733.44
585.99	1746.06
586.411	1752.56
586.833	1769.37
587.254	1771.5
587.675	1786.74
588.096	1800.04
588.518	1792.04
588.939	1772.7
589.36	1769.85
589.781	1756.67
590.202	1723.94
590.623	1713.13
591.043	1708.74
591.464	1693.18
591.885	1688.38
592.305	1682.2
592.726	1666.36
593.147	1668.4
593.567	1661.1
593.987	1652.54
594.408	1646.29
594.828	1644.49
595.248	1638.3
595.669	1618.1
596.089	1610.87
596.509	1602.38
596.929	1586.15
597.349	1585.75
597.769	1575.02
598.189	1567.83
598.608	1568.57
599.028	1570.4
599.448	1568.89
599.867	1554.73
600.287	1550.2
600.706	1544.97
601.126	1533.08
601.545	1532.36
601.965	1530.8
602.384	1523.69
602.803	1526.48
603.222	1520.52
603.641	1512.43
604.061	1508.47
604.48	1503.04
604.898	1511.58
605.317	1516.31
605.736	1518.38
606.155	1513.48
606.574	1502.15
606.992	1507.41
607.411	1501.26
607.829	1491.06
608.248	1487.09
608.666	1483.45
609.085	1481.6
609.503	1471.62
609.921	1463.16
610.339	1465.14
610.758	1464.3
611.176	1459.55
611.594	1448.26
612.012	1443.35
612.43	1446.81
612.847	1451.94
613.265	1452.04
613.683	1455.76
614.101	1455.37
614.518	1450.38
614.936	1437.68
615.353	1421.07
615.771	1415.16
616.188	1413.7
616.606	1408.46
617.023	1399.13
617.44	1382.23
617.857	1373.02
618.274	1362.39
618.691	1354.08
619.108	1342.81
619.525	1335.56
619.942	1340.31
620.359	1342.85
620.776	1336.4
621.192	1331.05
621.609	1327.56
622.026	1334.49
622.442	1339.96
622.859	1342
623.275	1334.37
623.691	1339.43
624.108	1351.17
624.524	1364.79
624.94	1363
625.356	1372.35
625.772	1386.94
626.188	1399.27
626.604	1399.66
627.02	1395.13
627.436	1393.55
627.852	1399.35
628.268	1411.85
628.683	1401.37
629.099	1392.32
629.514	1386.64
629.93	1390.47
630.345	1393.92
630.761	1389.66
631.176	1392.88
631.591	1384.77
632.007	1377.18
632.422	1375.05
632.837	1361.63
633.252	1357.17
633.667	1344.83
634.082	1334.94
634.497	1319.78
634.911	1297.64
635.326	1291.18
635.741	1270.94
636.155	1258.7
636.57	1257.66
636.984	1254.1
637.399	1253.44
637.813	1250.62
638.228	1246.83
638.642	1248.17
639.056	1234.72
639.47	1232.67
639.884	1220.55
640.298	1212.46
640.712	1208.26
641.126	1192.11
641.54	1179.35
641.954	1170.49
642.368	1154.13
642.781	1145.12
643.195	1123.88
643.609	1120.67
644.022	1109.9
644.436	1102.86
644.849	1086.41
645.262	1071.16
645.676	1069.36
646.089	1062.25
646.502	1045.05
646.915	1036.87
647.328	1015.28
647.741	1009.26
648.154	994.27
648.567	989.69
648.98	974.31
649.393	971.84
649.805	966.85
650.218	957.86
650.631	941.05
651.043	932.93
651.456	926.89
651.868	925.48
652.28	940.34
652.693	950.82
653.105	953.7
653.517	959.97
653.929	958.81
654.341	960.88
654.753	947.14
655.165	949.8
655.577	945.17
655.989	937.8
656.401	928.07
656.813	892.8
657.224	872.23
657.636	842.97
658.047	824.53
658.459	803.91
658.87	793.35
659.282	778.48
659.693	757.42
660.104	740.1
660.515	723.66
660.926	718.14
661.338	711.07
661.749	700.64
662.159	689.61
662.57	680.48
662.981	671.95
663.392	660.04
663.803	660.19
664.213	653.43
664.624	645.63
665.035	643.06
665.445	627.09
665.855	618.42
666.266	608.08
666.676	601.7
667.086	591.84
667.497	588.78
667.907	581.73
668.317	571.4
668.727	568.14
669.137	566.41
669.547	563.82
669.956	564.01
670.366	563.34
670.776	563.9
671.186	565.29
671.595	567.51
672.005	569
672.414	568.78
672.824	567.39
673.233	567.96
673.642	569.1
674.052	571.78
674.461	573.97
674.87	576.95
675.279	576.29
675.688	578.13
676.097	579.47
676.506	577.58
676.915	587.81
677.323	590.5
677.732	590.39
678.141	591.46
678.549	584.15
678.958	584.89
679.366	586.06
679.775	590.51
680.183	602.66
680.592	609.46
681	617.04
681.408	615.45
681.816	625.56
682.224	637.18
682.632	650.87
683.04	679.68
683.448	705.02
683.856	736.73
684.264	772.65
684.671	805.78
685.079	847.26
685.487	893.74
685.894	957.76
686.302	1011.69
686.709	1060.47
687.116	1116.5
687.524	1164.57
687.931	1209.38
688.338	1251.25
688.745	1287.62
689.152	1329.26
689.559	1380.72
689.966	1432.52
690.373	1463.64
690.78	1514.28
691.187	1585.44
691.593	1642.23
692	1694.28
692.407	1765.84
692.813	1850
693.22	1922.05
693.626	1994.08
694.032	2054.7
694.439	2141.61
694.845	2210.55
695.251	2295.87
695.657	2372.89
696.063	2483.37
696.469	2570.39
696.875	2651.43
697.281	2701.5
697.687	2758.32
698.093	2805.36
