Data from N_3_DIV_PA_2N_Splice17_13-16-51-140.txt Node
Date: Sat Mar 14 13:16:51 EDT 2020
User: sa697716
Spectrometer: FLMS03696
Trigger mode: 0
Integration Time (sec): 3.180400E-1
Scans to average: 20
Electric dark correction enabled: true
Nonlinearity correction enabled: true
Boxcar width: 5
XAxis mode: Wavelengths
Number of Pixels in Spectrum: 2048
>>>>>Begin Spectral Data<<<<<
187.83	-339876.76
188.298	2704.14
188.766	1502.97
189.233	1356.38
189.701	1886.79
190.169	2544.61
190.636	962.65
191.104	762.78
191.571	157.7
192.039	-34.51
192.506	47.16
192.974	727.34
193.441	-753.37
193.908	18.81
194.375	65.72
194.842	130.24
195.31	224.34
195.777	205.1
196.244	338.72
196.711	229.05
197.177	191.01
197.644	185.74
198.111	283.8
198.578	337.26
199.045	233.36
199.511	282.44
199.978	215.37
200.445	224.54
200.911	218.32
201.378	151.36
201.844	183.84
202.31	285.28
202.777	311.76
203.243	188.99
203.709	186.42
204.176	229.67
204.642	222.19
205.108	236.97
205.574	154.24
206.04	106.17
206.506	104.36
206.972	58.63
207.438	66.46
207.903	64.87
208.369	79.76
208.835	92.41
209.301	101.27
209.766	80.56
210.232	88.69
210.697	103.94
211.163	98.35
211.628	116.38
212.094	159.18
212.559	279.18
213.024	194.35
213.49	254.55
213.955	232.95
214.42	176.6
214.885	185.39
215.35	214.8
215.815	343.2
216.28	417.14
216.745	358.75
217.21	429.07
217.675	375.17
218.14	465.28
218.604	526.43
219.069	650.61
219.534	764.64
219.998	907.6
220.463	1126.48
220.927	1333.02
221.392	1281.59
221.856	1351.18
222.32	1684.08
222.785	2157.58
223.249	2736.8
223.713	3094.19
224.177	3135.46
224.642	4014.34
225.106	4985.88
225.57	5468.13
226.034	4166.9
226.497	6479.09
226.961	5965.81
227.425	7068.48
227.889	7842.41
228.353	7922.02
228.816	16495.48
229.28	15940.95
229.744	13601.25
230.207	8399.89
230.671	8328.1
231.134	13741.73
231.597	15955.09
232.061	15891.92
232.524	15523.15
232.987	10797.71
233.45	9782.52
233.914	8804.07
234.377	8995.54
234.84	8252.32
235.303	9732.55
235.766	10921.34
236.229	11311.21
236.691	7108.93
237.154	8008.13
237.617	6072.23
238.08	6214.48
238.542	7281.81
239.005	5235.91
239.468	5227.3
239.93	4928.04
240.393	4491.35
240.855	3952.86
241.317	4050.8
241.78	4924.01
242.242	5123.3
242.704	5560.77
243.166	4862.62
243.629	4456.67
244.091	5162.31
244.553	5701.67
245.015	6182.51
245.477	8009.53
245.939	11767.49
246.4	12531.34
246.862	12221.1
247.324	11578.64
247.786	12977.63
248.247	17068.38
248.709	17590.26
249.17	13181.46
249.632	12518.01
250.093	14584.13
250.555	12659.59
251.016	7781.12
251.477	7439.78
251.939	8084.01
252.4	8500.48
252.861	10112.31
253.322	9451.76
253.783	11267.67
254.244	14652.35
254.705	11532.94
255.166	10247.36
255.627	10147.03
256.088	14363.22
256.549	15255.44
257.009	13141.53
257.47	15946.7
257.931	13014.86
258.391	9766.1
258.852	10096.19
259.312	10597.49
259.773	13131.3
260.233	11179.02
260.694	9438.62
261.154	10702.01
261.614	8668.25
262.074	7788.22
262.534	8137.66
262.994	7714.93
263.455	10322.9
263.915	8752.27
264.374	8271.94
264.834	9044.48
265.294	10014.57
265.754	10407.72
266.214	9879.51
266.673	9259.66
267.133	11702.25
267.593	11613.57
268.052	14244.92
268.512	12412.89
268.971	15037.35
269.431	16521.43
269.89	14837.51
270.349	22310.66
270.809	24996.85
271.268	22518.72
271.727	50532.91
272.186	32751.89
272.645	24619.21
273.104	17756.43
273.563	25707.9
274.022	20166.93
274.481	17229.54
274.94	13313.2
275.399	9920.84
275.857	11569.13
276.316	15683
276.775	14012.44
277.233	13888.02
277.692	13082.47
278.15	14877.14
278.609	15398.94
279.067	14288.04
279.525	13326.67
279.984	17216.9
280.442	20711.18
280.9	20480.08
281.358	13525.18
281.816	12637.06
282.274	12358.13
282.732	12744.9
283.19	12778.8
283.648	11025.03
284.106	11748.2
284.564	11941
285.021	11096.11
285.479	8279.24
285.937	7504.34
286.394	6600.88
286.852	6796.14
287.309	7164.24
287.767	6979.39
288.224	6679.85
288.682	7344.81
289.139	8116.46
289.596	7482.23
290.053	7819.61
290.511	9927.55
290.968	12127.5
291.425	16574.51
291.882	13938.3
292.339	12225.62
292.796	12137.16
293.252	11483.52
293.709	9204.76
294.166	8277.53
294.623	9175.03
295.079	8818.69
295.536	8892.98
295.992	8103.75
296.449	8003.39
296.905	8329.27
297.362	8018.95
297.818	8469.58
298.274	8817.34
298.731	8957.29
299.187	8867.51
299.643	9505.06
300.099	11514.36
300.555	12610.55
301.011	10545.93
301.467	10236.7
301.923	11901.06
302.379	11597
302.835	11387.47
303.291	11394.37
303.746	12978.97
304.202	16376.58
304.658	16460.66
305.113	11084.23
305.569	10880.27
306.024	11570.88
306.479	10948.6
306.935	9284.79
307.39	10126.46
307.845	9334.02
308.301	9384.49
308.756	9126.97
309.211	8816.73
309.666	9013.03
310.121	11193.14
310.576	11337.84
311.031	11225.07
311.486	12812.32
311.94	12745.74
312.395	17071.52
312.85	32052.81
313.305	156815.02
313.759	816438.85
314.214	59069.66
314.668	46834.37
315.123	39418.04
315.577	14176.05
316.032	12642.16
316.486	15850.86
316.94	12546.13
317.394	8734.96
317.849	6793.18
318.303	6436.26
318.757	6081.13
319.211	6727.8
319.665	5905.75
320.119	5982.24
320.572	8567.11
321.026	8018.35
321.48	6700.44
321.934	7277.18
322.387	7283.01
322.841	7891.98
323.295	7159.52
323.748	8214.74
324.202	8369
324.655	10050.14
325.108	14080.66
325.562	9968.61
326.015	11827.98
326.468	8929.25
326.921	10000.38
327.374	9358.49
327.827	9760.72
328.28	11021.18
328.733	7404.58
329.186	6505.32
329.639	6197.58
330.092	5213.12
330.545	4971.96
330.997	5027.84
331.45	5499.84
331.903	6466.01
332.355	11066.79
332.808	10697.37
333.26	8794.3
333.713	9536.22
334.165	9563.46
334.617	12720.9
335.069	10221.28
335.522	18367.05
335.974	20274.92
336.426	18440.61
336.878	12687.85
337.33	6449.66
337.782	6283.89
338.234	7897.4
338.686	9444.86
339.137	11164.45
339.589	10526.2
340.041	8276.78
340.493	7129.3
340.944	7315.59
341.396	7921.64
341.847	6708.03
342.299	7952.52
342.75	9799.85
343.201	8556.29
343.653	9833.28
344.104	12152.61
344.555	9621.09
345.006	14932.15
345.457	11545.91
345.908	9205.4
346.359	8717.56
346.81	7134.36
347.261	7519.5
347.712	7401.57
348.163	7951.9
348.613	8122.49
349.064	7597.78
349.515	6645.27
349.965	6848.98
350.416	8238.98
350.866	9047.13
351.317	10202.85
351.767	16896.74
352.217	21324.48
352.668	17745.9
353.118	16282.5
353.568	15655.92
354.018	12414.7
354.468	13176.48
354.918	9471.78
355.368	8280.77
355.818	11700.27
356.268	33569.47
356.718	140797.8
357.168	35049.42
357.617	17531.9
358.067	19457.44
358.517	18221.26
358.966	21410.08
359.416	23999.39
359.865	25925.73
360.315	30760.96
360.764	14351.88
361.213	8056.9
361.663	7603.99
362.112	9400.86
362.561	15201.28
363.01	11516.97
363.459	9689.6
363.908	10471.91
364.357	8925.94
364.806	15091.17
365.255	10428.41
365.703	9609.84
366.152	9653.31
366.601	7831.24
367.05	6378.47
367.498	5794.55
367.947	6032.29
368.395	6259.46
368.844	5545.71
369.292	6639.47
369.74	4615.23
370.189	7021.44
370.637	8186.1
371.085	7055.02
371.533	8585.35
371.981	8265.24
372.429	7945.15
372.877	8279.58
373.325	6929.88
373.773	7049.33
374.221	6282.7
374.669	7731.72
375.116	6689.12
375.564	6783.41
376.012	7596.08
376.459	6264.46
376.907	7447.6
377.354	8914.2
377.801	8328.37
378.249	9607.66
378.696	12250.72
379.143	14767.75
379.591	15765.78
380.038	26745.05
380.485	19225.1
380.932	20697.94
381.379	19001.99
381.826	14104.88
382.273	10011.16
382.72	8703.22
383.166	8494.77
383.613	5504.35
384.06	4947.69
384.506	5702.09
384.953	4171.36
385.4	4179.17
385.846	3645.84
386.292	3526.87
386.739	3417.95
387.185	3367.77
387.631	3364.31
388.078	3255.93
388.524	3472.76
388.97	3215.44
389.416	2681.24
389.862	2852.05
390.308	2704.7
390.754	2737
391.2	2944.77
391.645	2991.63
392.091	2882.58
392.537	2774.98
392.983	2754.66
393.428	2720.95
393.874	2896.18
394.319	2901.49
394.765	2749.02
395.21	2802.29
395.655	2614.07
396.101	2445.13
396.546	2199.82
396.991	2191.57
397.436	2023.24
397.881	1946.94
398.326	1819.6
398.771	1717.2
399.216	1485.49
399.661	1322.19
400.106	1317.99
400.551	1343.63
400.995	1205.15
401.44	1195.65
401.885	1120.6
402.329	1130.01
402.774	1080.52
403.218	1054.35
403.663	1007.39
404.107	1036.45
404.551	1045.65
404.995	949.71
405.44	912.28
405.884	915.79
406.328	871.3
406.772	862.89
407.216	783.89
407.66	754.75
408.104	703.54
408.547	657.33
408.991	631.95
409.435	604.68
409.879	597.86
410.322	589.8
410.766	569.78
411.209	546.52
411.653	521.09
412.096	511.92
412.54	507.14
412.983	504.69
413.426	507.53
413.869	504.56
414.312	495.5
414.756	473.75
415.199	448.06
415.642	436.21
416.085	434.18
416.527	430.49
416.97	433.94
417.413	413.59
417.856	406.05
418.298	398.23
418.741	391.48
419.184	386.07
419.626	397.48
420.069	395.4
420.511	395.59
420.953	388.17
421.396	383.26
421.838	370.72
422.28	378.57
422.722	382.19
423.164	385.85
423.606	381.37
424.048	379.44
424.49	363.5
424.932	360.83
425.374	353.64
425.816	358.11
426.258	364.4
426.699	368.7
427.141	366.22
427.582	368.31
428.024	364.77
428.465	358.77
428.907	348.58
429.348	340.49
429.789	342.33
430.231	338.6
430.672	342.79
431.113	334.17
431.554	329.42
431.995	314.02
432.436	305.95
432.877	303.32
433.318	300.73
433.759	297.19
434.2	296.88
434.64	291.35
435.081	290.57
435.522	272.98
435.962	261.83
436.403	255.81
436.843	257.52
437.284	247.64
437.724	235.5
438.164	230.85
438.604	226.93
439.045	218.65
439.485	211.94
439.925	204.65
440.365	198.92
440.805	195.02
441.245	192.45
441.685	185.83
442.125	183.15
442.564	183.14
443.004	178.92
443.444	176.39
443.883	177.22
444.323	171.89
444.762	166.67
445.202	166.6
445.641	170.68
446.081	165.05
446.52	165.94
446.959	164.49
447.398	160.66
447.837	159.02
448.276	154.23
448.716	153.66
449.154	151.71
449.593	151.63
450.032	151.99
450.471	146.26
450.91	145.31
451.349	145.63
451.787	144.28
452.226	145.03
452.664	144.27
453.103	144.69
453.541	143.32
453.98	147.73
454.418	147.31
454.856	145.92
455.295	145.96
455.733	148.94
456.171	147.72
456.609	147.5
457.047	148.12
457.485	152.87
457.923	155.19
458.361	152.76
458.798	151.74
459.236	151.09
459.674	149.98
460.111	151.47
460.549	149.94
460.987	149.16
461.424	148.64
461.862	147.69
462.299	144.79
462.736	145.18
463.173	145.92
463.611	147.22
464.048	148.69
464.485	150.72
464.922	148.24
465.359	146.14
465.796	154.05
466.233	154.29
466.67	155.34
467.106	155.92
467.543	150.94
467.98	147.62
468.416	140.06
468.853	137
469.29	131.32
469.726	129.42
470.162	126.69
470.599	116.2
471.035	113.09
471.471	109.06
471.907	105.41
472.344	105.6
472.78	107.93
473.216	108.47
473.652	106.87
474.088	106.4
474.523	106.39
474.959	107.16
475.395	106.67
475.831	107.35
476.266	107.56
476.702	106.71
477.138	105.9
477.573	104.37
478.008	105.24
478.444	106.97
478.879	110.34
479.314	111.51
479.75	111.47
480.185	111.4
480.62	110.91
481.055	110.54
481.49	112.99
481.925	114.75
482.36	119.03
482.795	121.64
483.229	123.71
483.664	124.94
484.099	124.29
484.534	126.26
484.968	128.62
485.403	129.13
485.837	128.88
486.271	127.46
486.706	126.55
487.14	123.04
487.574	120.71
488.009	119.49
488.443	117.45
488.877	119.48
489.311	118.77
489.745	118.89
490.179	120.13
490.613	123.96
491.046	123.84
491.48	124.11
491.914	124.41
492.348	124.55
492.781	125.13
493.215	124.25
493.648	122.1
494.082	121.91
494.515	121.99
494.948	122.85
495.382	120.9
495.815	121.3
496.248	121.68
496.681	121.95
497.114	122.05
497.547	122.36
497.98	125.26
498.413	127.08
498.846	127.77
499.279	126.28
499.711	124.05
500.144	122.11
500.577	123.57
501.009	123.11
501.442	123.47
501.874	122.41
502.306	120.09
502.739	122.09
503.171	121.58
503.603	120.57
504.036	120.04
504.468	119.26
504.9	118.91
505.332	116.34
505.764	115.51
506.196	113.87
506.627	114.07
507.059	114.11
507.491	108.91
507.923	106.8
508.354	107.23
508.786	106.54
509.217	106.62
509.649	106.92
510.08	106.94
510.512	107.21
510.943	106.45
511.374	105.48
511.805	105.15
512.237	104.49
512.668	104.15
513.099	102.86
513.53	102.97
513.961	102.98
514.391	103.29
514.822	105.87
515.253	106.77
515.684	107.72
516.114	107.72
516.545	108.51
516.975	109.09
517.406	108.55
517.836	106.78
518.267	105.83
518.697	106.28
519.127	105.08
519.558	101.73
519.988	99.53
520.418	97.45
520.848	96.07
521.278	93.9
521.708	122.52
522.138	123.12
522.567	123.02
522.997	122.8
523.427	121
523.857	120.64
524.286	120.08
524.716	120.36
525.145	121.58
525.575	122.41
526.004	121.82
526.433	91.43
526.863	89.44
527.292	90.01
527.721	90.94
528.15	90.96
528.579	90.32
529.008	90.78
529.437	90.26
529.866	89.09
530.295	88.08
530.724	89.91
531.152	91.23
531.581	92.35
532.01	92.14
532.438	90.72
532.867	90.4
533.295	91.3
533.723	90.61
534.152	90.57
534.58	91.17
535.008	90.87
535.436	90.67
535.865	90.18
536.293	89.04
536.721	88.65
537.149	90.38
537.576	92.27
538.004	92.53
538.432	92.45
538.86	92.48
539.287	91.98
539.715	92.88
540.143	91.3
540.57	90.83
540.998	90.54
541.425	91.38
541.852	89.86
542.28	88.12
542.707	86.97
543.134	86.68
543.561	86.71
543.988	86.88
544.415	86.25
544.842	86.11
545.269	86.53
545.696	87.91
546.123	87.69
546.549	87.04
546.976	86.69
547.403	86.39
547.829	85.73
548.256	85.02
548.682	84.61
549.108	85.87
549.535	85.78
549.961	85.04
550.387	83.82
550.813	84.63
551.24	84.85
551.666	84.26
552.092	83.79
552.518	83.56
552.943	84.2
553.369	84.02
553.795	83.33
554.221	83.82
554.646	84.04
555.072	86.27
555.498	84.61
555.923	84.65
556.349	85.78
556.774	86.39
557.199	86.32
557.625	85.41
558.05	86.4
558.475	86.93
558.9	86.69
559.325	86.76
559.75	86.43
560.175	86.52
560.6	86.5
561.025	85.57
561.449	85.75
561.874	85.97
562.299	87.59
562.723	86.79
563.148	86.36
563.572	86.8
563.997	87.81
564.421	86.54
564.846	86.39
565.27	86.95
565.694	87.96
566.118	89.31
566.542	92.18
566.966	92.07
567.39	93.17
567.814	93.56
568.238	94.45
568.662	94.28
569.086	96.16
569.509	96.75
569.933	98.32
570.357	97.98
570.78	97.06
571.204	98.13
571.627	98.38
572.05	99.12
572.474	100.64
572.897	100.68
573.32	102.56
573.743	101.59
574.166	102.72
574.589	101.75
575.012	102.54
575.435	102.94
575.858	101.25
576.281	101.24
576.704	99.85
577.126	98.25
577.549	97.44
577.972	96.06
578.394	96.26
578.817	98.76
579.239	97.99
579.661	98.09
580.084	99.43
580.506	99.79
580.928	99.05
581.35	99.05
581.772	99.04
582.194	98.72
582.616	97.92
583.038	96.53
583.46	93.33
583.882	93.8
584.303	93.18
584.725	91.87
585.147	97.24
585.568	99.02
585.99	101.31
586.411	103.53
586.833	106.17
587.254	107.47
587.675	108.72
588.096	110.4
588.518	110.73
588.939	111.07
589.36	111.11
589.781	103.24
590.202	105.2
590.623	103.86
591.043	102.31
591.464	100.47
591.885	100.66
592.305	100.85
592.726	99.55
593.147	99.46
593.567	99.41
593.987	99.59
594.408	99.81
594.828	95.51
595.248	96.34
595.669	96.52
596.089	96.67
596.509	95.72
596.929	94.72
597.349	95.46
597.769	95.05
598.189	94.33
598.608	94.08
599.028	95.05
599.448	94.85
599.867	93.66
600.287	92.39
600.706	93.05
601.126	93.23
601.545	94.63
601.965	94.69
602.384	94.56
602.803	94.65
603.222	95.6
603.641	94.9
604.061	96.47
604.48	96.21
604.898	97.57
605.317	97.37
605.736	97.01
606.155	97.58
606.574	97.2
606.992	98.22
607.411	98.26
607.829	96.67
608.248	96.75
608.666	95.77
609.085	96.91
609.503	96.91
609.921	98.23
610.339	99.79
610.758	98.49
611.176	97.7
611.594	97.87
612.012	98.58
612.43	100.45
612.847	101.37
613.265	103.63
613.683	103.79
614.101	104.27
614.518	102.82
614.936	102.32
615.353	102.65
615.771	103.69
616.188	103.96
616.606	104
617.023	104.02
617.44	103.8
617.857	101.55
618.274	100.78
618.691	101.16
619.108	101.29
619.525	100.45
619.942	102.06
620.359	103.11
620.776	102.54
621.192	103.56
621.609	104.07
622.026	105.43
622.442	107.08
622.859	107.29
623.275	106.35
623.691	106.44
624.108	108.5
624.524	109.27
624.94	109.04
625.356	109.8
625.772	109.93
626.188	109.77
626.604	109.69
627.02	109.17
627.436	110.79
627.852	113.58
628.268	115.42
628.683	114.2
629.099	113.36
629.514	112.39
629.93	113.3
630.345	114.2
630.761	113.81
631.176	114.5
631.591	116.69
632.007	115.71
632.422	113.56
632.837	111.69
633.252	112.93
633.667	112.6
634.082	112.69
634.497	112.28
634.911	113.15
635.326	113.23
635.741	112.37
636.155	110.28
636.57	112.39
636.984	112.9
637.399	116
637.813	115.91
638.228	116.27
638.642	117.57
639.056	117.41
639.47	116.47
639.884	117.22
640.298	117.46
640.712	119.78
641.126	118.95
641.54	118.68
641.954	116.64
642.368	116.29
642.781	119.62
643.195	118.41
643.609	119.91
644.022	119.86
644.436	119.76
644.849	118.29
645.262	116.19
645.676	115.69
646.089	117.21
646.502	118.89
646.915	119.25
647.328	117.34
647.741	118.5
648.154	118.28
648.567	122.11
648.98	122.29
649.393	123.53
649.805	124.88
650.218	125.21
650.631	124.74
651.043	123.7
651.456	124.18
651.868	123.48
652.28	125.29
652.693	126.03
653.105	125.15
653.517	126.09
653.929	126.39
654.341	127.59
654.753	128.12
655.165	128.85
655.577	130.18
655.989	130.12
656.401	128.46
656.813	127.28
657.224	126.52
657.636	122.45
658.047	122.77
658.459	121.6
658.87	119.59
659.282	117.53
659.693	117.19
660.104	115.99
660.515	115.25
660.926	116.41
661.338	115.96
661.749	115.17
662.159	116.52
662.57	115.57
662.981	116.96
663.392	117.6
663.803	119.91
664.213	119.7
664.624	119.88
665.035	120.76
665.445	119.42
665.855	120.59
666.266	122.22
666.676	122.41
667.086	121.3
667.497	121.93
667.907	121.78
668.317	120.91
668.727	124.17
669.137	124.27
669.547	125.06
669.956	125.71
670.366	125.35
670.776	125.74
671.186	125.27
671.595	127.74
672.005	128.18
672.414	129.64
672.824	130.01
673.233	126.92
673.642	127.58
674.052	128.33
674.461	130.08
674.87	130.03
675.279	130.16
675.688	129.65
676.097	129.54
676.506	128.55
676.915	130.08
677.323	130.21
677.732	129.55
678.141	128.8
678.549	125.31
678.958	123.54
679.366	122.43
679.775	120.2
680.183	124.87
680.592	123.9
681	123.25
681.408	120.93
681.816	120.27
682.224	120.39
682.632	122.81
683.04	126.23
683.448	128.26
683.856	131.86
684.264	135.34
684.671	133.71
685.079	136.34
685.487	139.26
685.894	143.06
686.302	144.59
686.709	145.31
687.116	144.73
687.524	146.23
687.931	146.96
688.338	145.37
688.745	142.74
689.152	140.82
689.559	140.58
689.966	141.82
690.373	139.08
690.78	139.22
691.187	138.99
691.593	139.06
692	135.4
692.407	134.99
692.813	138.23
693.22	138.74
693.626	136.84
694.032	136.21
694.439	135.07
694.845	132.84
695.251	131.73
695.657	132.53
696.063	131.15
696.469	130.07
696.875	129.19
697.281	125.21
697.687	123.43
698.093	123.16
698.498	123.04
698.904	121.44
699.31	123.02
699.715	126.73
700.12	127.31
700.526	126.35
700.931	127.19
701.337	127.33
701.742	127.07
702.147	126.85
702.552	126.65
702.957	125.84
703.362	124.79
703.767	122.97
704.172	118.59
704.577	114.83
704.981	113.24
705.386	113.65
705.791	111.66
706.195	109.9
706.6	110.18
707.004	109.55
707.408	106.07
707.813	107.4
708.217	107.43
708.621	106.67
709.025	109.05
709.43	111.29
709.834	111.38
710.237	112.34
710.641	112.59
711.045	112.52
711.449	113.09
711.853	119.67
712.256	117.61
712.66	117.7
713.064	119.04
713.467	120.02
713.87	122.14
714.274	123.01
714.677	126.31
715.08	130.35
715.484	134.81
715.887	143.51
716.29	141.57
716.693	149.08
717.096	154.17
717.499	156.97
717.901	155.62
718.304	153.92
718.707	153.91
719.109	148.47
