Data from N_3_DIV_OH_2N_Splice17_12-49-41-676.txt Node
Date: Sat Mar 14 12:49:41 EDT 2020
User: sa697716
Spectrometer: FLMS03696
Trigger mode: 0
Integration Time (sec): 3.180400E-1
Scans to average: 20
Electric dark correction enabled: true
Nonlinearity correction enabled: true
Boxcar width: 5
XAxis mode: Wavelengths
Number of Pixels in Spectrum: 2048
>>>>>Begin Spectral Data<<<<<
187.83	-371095.83
188.298	2655.94
188.766	1443.04
189.233	1303.17
189.701	1888.65
190.169	2500.99
190.636	946.91
191.104	760.54
191.571	128.41
192.039	-66.79
192.506	-21.79
192.974	615.54
193.441	-822.64
193.908	-142.33
194.375	-85.77
194.842	60.56
195.31	105.88
195.777	203.36
196.244	458.42
196.711	492.58
197.177	604.24
197.644	857.19
198.111	1468.72
198.578	2040.88
199.045	1619.96
199.511	2708.16
199.978	3119.23
200.445	2701.93
200.911	2982.15
201.378	3330.18
201.844	3081.83
202.31	5279.27
202.777	5516.87
203.243	3068.41
203.709	2932.83
204.176	3541.8
204.642	2914.65
205.108	2728.15
205.574	2185.85
206.04	1989.34
206.506	1857.43
206.972	1740.49
207.438	1686.35
207.903	1916.79
208.369	1676.59
208.835	1661.29
209.301	1736.53
209.766	1762.41
210.232	1736
210.697	2144.6
211.163	2641.25
211.628	3966.4
212.094	3345.14
212.559	4065.16
213.024	2534.47
213.49	3117.87
213.955	3015.33
214.42	2906.78
214.885	2716.5
215.35	2603.95
215.815	2522.22
216.28	2650.69
216.745	2155.85
217.21	2301.63
217.675	2114.7
218.14	2358.17
218.604	2593.01
219.069	2949.89
219.534	3084.5
219.998	3544.45
220.463	4267.32
220.927	5200.39
221.392	4873.1
221.856	4901.59
222.32	6135.38
222.785	7516.65
223.249	9417.53
223.713	10464.73
224.177	10479.6
224.642	13364.81
225.106	16417.93
225.57	17893.12
226.034	13304.8
226.497	20195.59
226.961	18205.38
227.425	21173.73
227.889	23439.84
228.353	23347.36
228.816	48205.06
229.28	45960.38
229.744	38779.25
230.207	23604.74
230.671	23175.61
231.134	38167.7
231.597	43971.45
232.061	43860.52
232.524	42729.62
232.987	29417.38
233.45	26494.93
233.914	23756.08
234.377	24267.65
234.84	22166.36
235.303	26010.32
235.766	29036.23
236.229	29987.02
236.691	18899.35
237.154	21228.94
237.617	15975.33
238.08	16359.83
238.542	19145.17
239.005	13672.68
239.468	13598.93
239.93	12825.36
240.393	11684.41
240.855	10245.46
241.317	10491.43
241.78	12747.38
242.242	13192.24
242.704	14262.84
243.166	12433.66
243.629	11303.55
244.091	13035.35
244.553	14254.58
245.015	15301.84
245.477	19766.79
245.939	28982.54
246.4	30747.85
246.862	29875.1
247.324	28142.94
247.786	31407.84
248.247	41059.65
248.709	42250.64
249.17	31560.84
249.632	29769.72
250.093	34525.62
250.555	29760.75
251.016	18149.82
251.477	17229.82
251.939	18578.78
252.4	19487.94
252.861	23152.01
253.322	21570.76
253.783	25692.97
254.244	33305.14
254.705	26239.52
255.166	23292.94
255.627	22942.94
256.088	32343.81
256.549	34290.05
257.009	29561.34
257.47	35809.53
257.931	29163.95
258.391	21786.06
258.852	22423.74
259.312	23475.22
259.773	28972.94
260.233	24498.4
260.694	20659.12
261.154	23389.43
261.614	18796.29
262.074	16782.96
262.534	17430.64
262.994	16422.1
263.455	21880.54
263.915	18411.46
264.374	17317.76
264.834	18866.33
265.294	20885.85
265.754	21572.83
266.214	20399.44
266.673	19058.99
267.133	23989.53
267.593	23752.96
268.052	28990.98
268.512	25173.34
268.971	30324.4
269.431	33214.03
269.89	29694.61
270.349	44461.98
270.809	49645.2
271.268	44603.6
271.727	99933.43
272.186	64694.2
272.645	48497.11
273.104	34982.05
273.563	50612.66
274.022	39789.97
274.481	33882.15
274.94	26090.53
275.399	19364.64
275.857	22511.14
276.316	30381.28
276.775	27003.91
277.233	26590.15
277.692	24901.63
278.15	28193.67
278.609	29018.42
279.067	26823.27
279.525	24920.2
279.984	32179.78
280.442	38646.37
280.9	38093.63
281.358	25097.93
281.816	23403.89
282.274	22924.84
282.732	23651.67
283.19	23716.95
283.648	20449.17
284.106	21818.18
284.564	22149.85
285.021	20563.21
285.479	15321.69
285.937	13911.12
286.394	12206.86
286.852	12566.31
287.309	13196.55
287.767	12760.22
288.224	12152.95
288.682	13347.51
289.139	14618.03
289.596	13358.48
290.053	13881.55
290.511	17520.3
290.968	21277.81
291.425	28886.42
291.882	24053.47
292.339	20913.84
292.796	20720.74
293.252	19476.23
293.709	15484.62
294.166	13881.54
294.623	15339.44
295.079	14692.3
295.536	14773.72
295.992	13415.7
296.449	13246.18
296.905	13760.52
297.362	13194.81
297.818	13891.21
298.274	14419.13
298.731	14655.87
299.187	14489.28
299.643	15554.14
300.099	18825.29
300.555	20611.19
301.011	17185.79
301.467	16601.39
301.923	19391.56
302.379	18947.6
302.835	18598.2
303.291	18622.47
303.746	21190.34
304.202	26777.78
304.658	26908.13
305.113	18095.99
305.569	17779.37
306.024	18976.52
306.479	18023.76
306.935	15230.03
307.39	16630.17
307.845	15348.26
308.301	15455.49
308.756	15077.35
309.211	14530.59
309.666	14896.31
310.121	18527.92
310.576	18771.37
311.031	18646.72
311.486	21358.61
311.94	21333.69
312.395	28535.41
312.85	53751.04
313.305	264102.68
313.759	1369213.61
314.214	99408.41
314.668	78819.99
315.123	66213.63
315.577	23764.87
316.032	21132.99
316.486	26480.31
316.94	20885.36
317.394	14574.99
317.849	11304.77
318.303	10706.15
318.757	10095.32
319.211	11163
319.665	9747.26
320.119	9866.9
320.572	14142.97
321.026	13222.3
321.48	11016.14
321.934	12000.31
322.387	11992.44
322.841	12982.09
323.295	11682.62
323.748	13430.02
324.202	13611.63
324.655	16402.67
325.108	22976.28
325.562	16226
326.015	19268.5
326.468	14553.04
326.921	16279.27
327.374	15209.52
327.827	15855.09
328.28	17953.05
328.733	12063.79
329.186	10619.19
329.639	10121.11
330.092	8517.65
330.545	8133.14
330.997	8209.12
331.45	9002.59
331.903	10592.3
332.355	18203.12
332.808	17677.36
333.26	14580.1
333.713	15863.21
334.165	15983.04
334.617	21297.36
335.069	17207.69
335.522	31115.89
335.974	34512.9
336.426	31498.25
336.878	21776.31
337.33	11070.82
337.782	10814.59
338.234	13580.68
338.686	16191.19
339.137	19181
339.589	18099.04
340.041	14195.51
340.493	12191.53
340.944	12476.45
341.396	13436.21
341.847	11331.9
342.299	13406.15
342.75	16374.96
343.201	14297.04
343.653	16453.66
344.104	20211.83
344.555	15880.13
345.006	24614.1
345.457	18866.48
345.908	14970.35
346.359	14097.78
346.81	11460.22
347.261	12026.51
347.712	11824.4
348.163	12668.96
348.613	12866.51
349.064	12021.83
349.515	10550.45
349.965	10854.54
350.416	13065.46
350.866	14365.9
351.317	16235.9
351.767	26876.08
352.217	34011.4
352.668	28266.02
353.118	25941.66
353.568	24947.5
354.018	19723.4
354.468	20826.13
354.918	14942.79
355.368	13047.73
355.818	18392.74
356.268	52857.34
356.718	221863.93
357.168	55195.09
357.617	27684.57
358.067	30722.92
358.517	28810.64
358.966	33867.78
359.416	38002.53
359.865	41015.13
360.315	48999.84
360.764	22909.92
361.213	12852.03
361.663	12127.9
362.112	14973.87
362.561	24222.88
363.01	18287.78
363.459	15386.67
363.908	16625
364.357	14102.06
364.806	23874.61
365.255	16398.45
365.703	15062.87
366.152	15076.06
366.601	12256.86
367.05	9960.5
367.498	9044.57
367.947	9449.84
368.395	9810.86
368.844	8710.82
369.292	10485.52
369.74	7248.78
370.189	11109.71
370.637	13017.26
371.085	11257.23
371.533	13690.32
371.981	13195.68
372.429	12595.55
372.877	13102.81
373.325	10980.85
373.773	11168.08
374.221	9952.45
374.669	12351.51
375.116	10674.9
375.564	10767.54
376.012	12033.33
376.459	9933.73
376.907	11845.23
377.354	14330.44
377.801	13384.33
378.249	15399.62
378.696	19712.59
379.143	23892.63
379.591	25492.38
380.038	43304.44
380.485	31363.73
380.932	33885.48
381.379	31100.59
381.826	23027.34
382.273	16401.64
382.72	14356.38
383.166	14038.03
383.613	9136.2
384.06	8272.88
384.506	9585.88
384.953	7053.59
385.4	7104.01
385.846	6243.8
386.292	6086.23
386.739	5960.57
387.185	5906.18
387.631	5944.59
388.078	5795.21
388.524	6205.58
388.97	5746.86
389.416	4804.72
389.862	5120.5
390.308	4872.93
390.754	4965.35
391.2	5412.64
391.645	5557.46
392.091	5343.71
392.537	5176.48
392.983	5193.53
393.428	5138.06
393.874	5509.71
394.319	5566.76
394.765	5296.46
395.21	5459.07
395.655	5123.05
396.101	4806.03
396.546	4355.99
396.991	4396.8
397.436	4084.55
397.881	3949.09
398.326	3736.98
398.771	3544.51
399.216	3095.18
399.661	2789.72
400.106	2783.66
400.551	2857.11
400.995	2557.18
401.44	2520.96
401.885	2366.18
402.329	2387.78
402.774	2291.12
403.218	2222.87
403.663	2136.63
404.107	2194.86
404.551	2204.65
404.995	2015.62
405.44	1934.56
405.884	1965.54
406.328	1902.01
406.772	1891.48
407.216	1721.05
407.66	1653.15
408.104	1559.86
408.547	1457
408.991	1407.49
409.435	1351.43
409.879	1330.59
410.322	1312.31
410.766	1264.98
411.209	1198.82
411.653	1150.26
412.096	1127.22
412.54	1128.87
412.983	1121.38
413.426	1124.57
413.869	1122.22
414.312	1102.17
414.756	1060.56
415.199	1008.45
415.642	978.36
416.085	981
416.527	970.9
416.97	979.99
417.413	928.62
417.856	916.69
418.298	904.99
418.741	893.52
419.184	888.35
419.626	921.35
420.069	922.15
420.511	927.96
420.953	906.78
421.396	899.05
421.838	878.7
422.28	899.93
422.722	905.58
423.164	917.35
423.606	907.2
424.048	905.52
424.49	862.69
424.932	856.79
425.374	841.05
425.816	854.24
426.258	870.39
426.699	877.14
427.141	865.69
427.582	874.41
428.024	869.29
428.465	859.31
428.907	837.12
429.348	824.34
429.789	825.95
430.231	811.73
430.672	823.16
431.113	803.28
431.554	792.77
431.995	770.58
432.436	747.21
432.877	732.03
433.318	722.97
433.759	718.98
434.2	718.53
434.64	709.78
435.081	712.8
435.522	675.47
435.962	652.17
436.403	639.92
436.843	647.45
437.284	633.01
437.724	616.06
438.164	613.54
438.604	600.04
439.045	581.07
439.485	559.19
439.925	545.7
440.365	532.75
440.805	524.97
441.245	519.31
441.685	502.61
442.125	499.44
442.564	502.34
443.004	494.16
443.444	496.4
443.883	497.4
444.323	492.57
444.762	493.32
445.202	499.6
445.641	512.9
446.081	509.8
446.52	514.5
446.959	511.3
447.398	502.68
447.837	498.11
448.276	489.83
448.716	495.38
449.154	503.23
449.593	494.53
450.032	495.39
450.471	484.21
450.91	486.43
451.349	488.21
451.787	486.34
452.226	494.1
452.664	495.22
453.103	496.81
453.541	495.47
453.98	496.44
454.418	499.48
454.856	492.98
455.295	492.87
455.733	496.97
456.171	499.23
456.609	500.76
457.047	499.56
457.485	507.99
457.923	510.41
458.361	504.33
458.798	504.26
459.236	502.32
459.674	504.29
460.111	507.37
460.549	503
460.987	499.72
461.424	497.18
461.862	495.12
462.299	487.06
462.736	486.68
463.173	489.57
463.611	487.14
464.048	488.49
464.485	493.96
464.922	488.83
465.359	484.22
465.796	483.82
466.233	481.75
466.67	479.24
467.106	477.53
467.543	470.81
467.98	463.81
468.416	449.51
468.853	443.31
469.29	429.09
469.726	424.4
470.162	414.81
470.599	404.19
471.035	399.7
471.471	390.03
471.907	387.69
472.344	385.75
472.78	387.42
473.216	392.25
473.652	389.17
474.088	388.13
474.523	386.91
474.959	390.07
475.395	387.03
475.831	385.09
476.266	386.53
476.702	384.96
477.138	381.68
477.573	380.62
478.008	380.09
478.444	383.02
478.879	387.71
479.314	390.55
479.75	390.18
480.185	392.14
480.62	395.55
481.055	397.81
481.49	401.97
481.925	408.25
482.36	416.48
482.795	427.59
483.229	437.25
483.664	446.19
484.099	447.53
484.534	455.41
484.968	461.1
485.403	462.72
485.837	462.2
486.271	462.07
486.706	462.34
487.14	456.87
487.574	450.65
488.009	448.29
488.443	445.73
488.877	451.9
489.311	454.26
489.745	460.89
490.179	467.18
490.613	478.84
491.046	483.94
491.48	489.7
491.914	492.44
492.348	497.66
492.781	503.73
493.215	506.87
493.648	510.23
494.082	516.75
494.515	519.64
494.948	528.59
495.382	534.6
495.815	540.86
496.248	548.47
496.681	561.79
497.114	574.16
497.547	584.92
497.98	599.62
498.413	609.3
498.846	622.22
499.279	632.89
499.711	640.34
500.144	646.61
500.577	661.48
501.009	674.95
501.442	688.71
501.874	695.67
502.306	703.07
502.739	716.74
503.171	734.43
503.603	742.15
504.036	756.76
504.468	768.13
504.9	783.91
505.332	794.27
505.764	804.58
506.196	816.06
506.627	834.73
507.059	852.4
507.491	865.25
507.923	869.38
508.354	889.72
508.786	905.46
509.217	928.5
509.649	949.59
510.08	973.21
510.512	994.82
510.943	1015.79
511.374	1033.91
511.805	1058.71
512.237	1081.82
512.668	1118.65
513.099	1150.84
513.53	1184.03
513.961	1207.83
514.391	1242.27
514.822	1281.91
515.253	1322.34
515.684	1351.8
516.114	1385.28
516.545	1411.49
516.975	1442.78
517.406	1464.45
517.836	1469.86
518.267	1479.1
518.697	1501.76
519.127	1510.78
519.558	1521.15
519.988	1527.84
520.418	1542.75
520.848	1562.65
521.278	1575.26
521.708	1587.15
522.138	1603.58
522.567	1639.54
522.997	1668.65
523.427	1687.64
523.857	1707.89
524.286	1720.5
524.716	1738.72
525.145	1760.18
525.575	1774.37
526.004	1790.91
526.433	1794.9
526.863	1796.69
527.292	1787.02
527.721	1794.38
528.15	1801.69
528.579	1803.12
529.008	1815.98
529.437	1841.98
529.866	1856.9
530.295	1875.91
530.724	1890.19
531.152	1920.96
531.581	1936.64
532.01	1956.61
532.438	1966.22
532.867	1982.4
533.295	2002.97
533.723	2010.46
534.152	2008.16
534.58	2008.28
535.008	1992.17
535.436	1993.57
535.865	2002.08
536.293	2018.41
536.721	2036.01
537.149	2064.89
537.576	2068.11
538.004	2081.91
538.432	2088.66
538.86	2086.2
539.287	2093.56
539.715	2108.43
540.143	2113.04
540.57	2107.89
540.998	2103.28
541.425	2077.78
541.852	2053.27
542.28	2051.17
542.707	2033.06
543.134	2018.41
543.561	2013.87
543.988	2007.05
544.415	2006.63
544.842	2000.07
545.269	1992.22
545.696	1994.14
546.123	2007.72
546.549	1996.96
546.976	1982.64
547.403	1982.66
547.829	1984.16
548.256	1987.28
548.682	1982.83
549.108	1974.62
549.535	1972.99
549.961	1975.51
550.387	1960.44
550.813	1954.95
551.24	1961.5
551.666	1963.22
552.092	1953.2
552.518	1947.02
552.943	1941.21
553.369	1948.62
553.795	1954.85
554.221	1957.22
554.646	1953.99
555.072	1966.79
555.498	1972.65
555.923	1983.08
556.349	1999.49
556.774	2009.54
557.199	2011.81
557.625	2017.71
558.05	2011.7
558.475	2023.94
558.9	2023.89
559.325	2015.15
559.75	2009.34
560.175	2001.08
560.6	1993.87
561.025	1991.69
561.449	1992.01
561.874	1997.63
562.299	2002.29
562.723	2010.82
563.148	1997.2
563.572	2001.07
563.997	2011.69
564.421	2016.24
564.846	2017.53
565.27	2022.26
565.694	2018.44
566.118	2030.83
566.542	2039.03
566.966	2032.16
567.39	2026.48
567.814	2015.54
568.238	2013.42
568.662	2018.93
569.086	2021.7
569.509	2029.41
569.933	2011.78
570.357	2004.11
570.78	1980.58
571.204	1965.68
571.627	1953.79
572.05	1950.58
572.474	1949.84
572.897	1935.29
573.32	1926.88
573.743	1915.11
574.166	1893.42
574.589	1892.78
575.012	1884.36
575.435	1881.61
575.858	1870.44
576.281	1856.77
576.704	1839.05
577.126	1824.09
577.549	1811.63
577.972	1799.16
578.394	1787.8
578.817	1781.19
579.239	1759.34
579.661	1744.55
580.084	1727.33
580.506	1712.95
580.928	1707.61
581.35	1695.9
581.772	1691
582.194	1677.4
582.616	1662.83
583.038	1646.26
583.46	1632.59
583.882	1628.99
584.303	1631.37
584.725	1626.33
585.147	1628.95
585.568	1639.84
585.99	1650.87
586.411	1657.34
586.833	1672.15
587.254	1673.51
587.675	1689.34
588.096	1703.07
588.518	1697.8
588.939	1679.67
589.36	1677.3
589.781	1664.71
590.202	1634.18
590.623	1624.31
591.043	1621.72
591.464	1608
591.885	1604.38
592.305	1596.4
592.726	1581.68
593.147	1581.25
593.567	1575.87
593.987	1567.34
594.408	1560.9
594.828	1558.93
595.248	1553.81
595.669	1534.02
596.089	1525.96
596.509	1517.73
596.929	1503.83
597.349	1503.89
597.769	1493.48
598.189	1486.29
598.608	1487.73
599.028	1489.41
599.448	1488.93
599.867	1474.19
600.287	1468.48
600.706	1462.62
601.126	1452.15
601.545	1449.77
601.965	1448.43
602.384	1442.23
602.803	1444.8
603.222	1438.61
603.641	1431.91
604.061	1427.8
604.48	1423.36
604.898	1431.98
605.317	1437.12
605.736	1438.71
606.155	1436.54
606.574	1425.98
606.992	1430.47
607.411	1424.78
607.829	1415.72
608.248	1411.49
608.666	1407.46
609.085	1406.84
609.503	1397.03
609.921	1390.07
610.339	1390.62
610.758	1387.8
611.176	1381.98
611.594	1372.97
612.012	1369.3
612.43	1371.17
612.847	1376.44
613.265	1376.89
613.683	1379.3
614.101	1378.88
614.518	1373.7
614.936	1363.12
615.353	1347.88
615.771	1343.91
616.188	1341.74
616.606	1335.52
617.023	1327.67
617.44	1311.74
617.857	1302.6
618.274	1292.19
618.691	1285.14
619.108	1274.8
619.525	1267.32
619.942	1272.39
620.359	1272.2
620.776	1265.52
621.192	1260.84
621.609	1256.51
622.026	1261.73
622.442	1267.68
622.859	1270.66
623.275	1262.99
623.691	1267.09
624.108	1277.12
624.524	1289.51
624.94	1289.66
625.356	1299.91
625.772	1312.17
626.188	1324.53
626.604	1326.33
627.02	1321.47
627.436	1319.13
627.852	1326.23
628.268	1337.61
628.683	1328.92
629.099	1320.85
629.514	1316.01
629.93	1318.84
630.345	1323.14
630.761	1318.17
631.176	1321.09
631.591	1314.16
632.007	1307.31
632.422	1302.31
632.837	1289.1
633.252	1285.01
633.667	1273.17
634.082	1262.34
634.497	1248.45
634.911	1227.13
635.326	1222.17
635.741	1202.19
636.155	1190.56
636.57	1190.28
636.984	1188.62
637.399	1189.61
637.813	1187.1
638.228	1183.71
638.642	1185.37
639.056	1171.33
639.47	1168
639.884	1156.53
640.298	1147.71
640.712	1143.24
641.126	1127.27
641.54	1115.26
641.954	1105.38
642.368	1090.79
642.781	1080.9
643.195	1060.04
643.609	1058
644.022	1049.73
644.436	1041.66
644.849	1026.85
645.262	1011.97
645.676	1008.66
646.089	1000.62
646.502	983.96
646.915	975.56
647.328	954.98
647.741	949.6
648.154	935.11
648.567	930.79
648.98	917.49
649.393	915.54
649.805	909.89
650.218	901.6
650.631	886.2
651.043	878.23
651.456	870.46
651.868	870.43
652.28	884.26
652.693	894.01
653.105	896.18
653.517	902.17
653.929	900.47
654.341	903.62
654.753	891.89
655.165	894.34
655.577	889.78
655.989	884.07
656.401	873.58
656.813	840.8
657.224	820.16
657.636	791.73
658.047	773.24
658.459	753.17
658.87	740.81
659.282	726.7
659.693	706.81
660.104	691.47
660.515	675.08
660.926	669.87
661.338	661.79
661.749	651.29
662.159	640.57
662.57	631.51
662.981	624.15
663.392	613.74
663.803	612.05
664.213	604.31
664.624	595.88
665.035	593.91
665.445	578.13
665.855	569.71
666.266	561.52
666.676	555.02
667.086	544.74
667.497	540.57
667.907	533.71
668.317	522.78
668.727	520.63
669.137	517.66
669.547	513.84
669.956	513.96
670.366	511.95
670.776	510.84
671.186	512.68
671.595	514.41
672.005	514.1
672.414	513.16
672.824	513.61
673.233	512.3
673.642	514.8
674.052	515.59
674.461	516.94
674.87	520.15
675.279	518.41
675.688	517.89
676.097	518.94
676.506	517.33
676.915	526.56
677.323	528.29
677.732	527.4
678.141	526.6
678.549	520.9
678.958	520.94
679.366	522.24
679.775	526.29
680.183	538.33
680.592	544.61
681	551.86
681.408	550.87
681.816	560.45
682.224	573.02
682.632	587.77
683.04	615.78
683.448	640.01
683.856	669.27
684.264	704.45
684.671	736.39
685.079	777.51
685.487	821.58
685.894	882.18
686.302	935.21
686.709	983.71
687.116	1038.26
687.524	1086.81
687.931	1132.09
688.338	1173.77
688.745	1212.3
689.152	1252.63
689.559	1303.79
689.966	1356.64
690.373	1387.07
690.78	1434.57
691.187	1501.62
691.593	1557.19
692	1607.08
692.407	1674.14
692.813	1756.53
693.22	1823.47
693.626	1894.3
694.032	1951.89
694.439	2032.53
694.845	2098.78
695.251	2181.2
695.657	2253.7
696.063	2357.43
696.469	2436.78
696.875	2511.87
697.281	2553.75
697.687	2603.12
698.093	2645.66
698.498	2724.43
698.904	2788.8
699.31	2882.13
