Data from N_3_HIR_IL_4N_Splice17_13-40-43-479.txt Node
Date: Sat Mar 14 13:40:43 EDT 2020
User: sa697716
Spectrometer: FLMS03696
Trigger mode: 0
Integration Time (sec): 3.180400E-1
Scans to average: 20
Electric dark correction enabled: true
Nonlinearity correction enabled: true
Boxcar width: 5
XAxis mode: Wavelengths
Number of Pixels in Spectrum: 2048
>>>>>Begin Spectral Data<<<<<
187.83	-450740.21
188.298	3272.31
188.766	1707.61
189.233	1459.05
189.701	2079.29
190.169	2813.51
190.636	1020.44
191.104	744.05
191.571	35.7
192.039	-158.39
192.506	-198.16
192.974	503.55
193.441	-705.85
193.908	-72
194.375	-88.26
194.842	-46.21
195.31	42.08
195.777	149.42
196.244	426.26
196.711	514.79
197.177	656.72
197.644	917.6
198.111	1647.5
198.578	2307.06
199.045	1814.87
199.511	2951.61
199.978	3501.15
200.445	2973.57
200.911	3301.95
201.378	3642.83
201.844	3298.46
202.31	5624.42
202.777	5871.16
203.243	3253.26
203.709	3104.49
204.176	3734.5
204.642	3121.98
205.108	2893.71
205.574	2334.55
206.04	2129.71
206.506	2004.86
206.972	1894.33
207.438	1828.54
207.903	2072.96
208.369	1817.41
208.835	1805.85
209.301	1884.88
209.766	1897.86
210.232	1869.86
210.697	2319.77
211.163	2851.56
211.628	4264.05
212.094	3569.14
212.559	4444.08
213.024	2762.55
213.49	3385.32
213.955	3284.29
214.42	3177.02
214.885	2965.42
215.35	2849.47
215.815	2767.53
216.28	2933.16
216.745	2396.58
217.21	2577.2
217.675	2333.61
218.14	2612.8
218.604	2887.15
219.069	3281.97
219.534	3457
219.998	3988.24
220.463	4815.55
220.927	5875
221.392	5498.91
221.856	5555.84
222.32	6973.08
222.785	8590.43
223.249	10808.31
223.713	12043.55
224.177	12049.61
224.642	15395.28
225.106	18950.28
225.57	20660.47
226.034	15358.11
226.497	23383.74
226.961	21108.82
227.425	24614.79
227.889	27239.81
228.353	27147.35
228.816	55968.21
229.28	53425.99
229.744	45007.85
230.207	27353.9
230.671	26935.89
231.134	44451.25
231.597	51224.24
232.061	51106.71
232.524	49703.73
232.987	34259.28
233.45	30880.81
233.914	27654.43
234.377	28336.94
234.84	25927.92
235.303	30515.25
235.766	33995.06
236.229	35104.41
236.691	22074.01
237.154	24791.39
237.617	18648.29
238.08	19082.74
238.542	22309.96
239.005	15952.62
239.468	15826.57
239.93	14896.66
240.393	13544.82
240.855	11889.98
241.317	12172.7
241.78	14812.73
242.242	15319.33
242.704	16570.95
243.166	14424.17
243.629	13118.76
244.091	15115.23
244.553	16573.83
245.015	17854.77
245.477	23085.85
245.939	33828.31
246.4	35914.1
246.862	34882.78
247.324	32905.31
247.786	36794.71
248.247	48222.13
248.709	49665.97
249.17	37167.88
249.632	35056.84
250.093	40636.98
250.555	35068.21
251.016	21394.08
251.477	20297.12
251.939	21926.6
252.4	22988.79
252.861	27303.48
253.322	25401.02
253.783	30231.69
254.244	39227.54
254.705	30904.79
255.166	27460.57
255.627	27073.57
256.088	38242.92
256.549	40622.72
257.009	34967.45
257.47	42416.38
257.931	34545
258.391	25885.63
258.852	26704.23
259.312	28003.92
259.773	34570.14
260.233	29235.31
260.694	24678.13
261.154	27962.51
261.614	22479.57
262.074	20122.3
262.534	20943.99
262.994	19774.45
263.455	26363.06
263.915	22231.25
264.374	20916.04
264.834	22826.84
265.294	25287.99
265.754	26185.32
266.214	24788.39
266.673	23200.94
267.133	29269.89
267.593	29007.74
268.052	35470.31
268.512	30843.86
268.971	37225.65
269.431	40837.16
269.89	36627.55
270.349	54948.4
270.809	61374.66
271.268	55226.03
271.727	123904.59
272.186	80259.16
272.645	60204.58
273.104	43399.33
273.563	62841.18
274.022	49340.95
274.481	41991.36
274.94	32324.93
275.399	24004.23
275.857	27894.34
276.316	37717.71
276.775	33581.99
277.233	33074.42
277.692	30997.11
278.15	35131.82
278.609	36170.22
279.067	33476.99
279.525	31133.54
279.984	40191.38
280.442	48296.72
280.9	47684.95
281.358	31373.05
281.816	29240.73
282.274	28620.21
282.732	29495.99
283.19	29583.48
283.648	25533.92
284.106	27212.15
284.564	27622.77
285.021	25611.54
285.479	19094.67
285.937	17319.81
286.394	15190.22
286.852	15615.92
287.309	16407.29
287.767	15877.84
288.224	15119.69
288.682	16575.06
289.139	18198.39
289.596	16660.6
290.053	17316.35
290.511	21847.22
290.968	26485.49
291.425	35918.23
291.882	29921.4
292.339	26044.61
292.796	25813.19
293.252	24259.75
293.709	19268.99
294.166	17259.48
294.623	19059.4
295.079	18253.04
295.536	18328.25
295.992	16640.37
296.449	16438.12
296.905	17046.05
297.362	16337.53
297.818	17173.89
298.274	17843.9
298.731	18153.72
299.187	17933.49
299.643	19242.94
300.099	23318.18
300.555	25554
301.011	21360.81
301.467	20616.91
301.923	24114.23
302.379	23564.08
302.835	23160.84
303.291	23180.56
303.746	26394.01
304.202	33348.96
304.658	33468.23
305.113	22454
305.569	22016.2
306.024	23430.65
306.479	22252.31
306.935	18760.21
307.39	20440.52
307.845	18851.05
308.301	18956.19
308.756	18448.68
309.211	17758.23
309.666	18177.53
310.121	22598.09
310.576	22892.58
311.031	22718.11
311.486	26006.04
311.94	26003.89
312.395	34789.09
312.85	65397.11
313.305	320577.84
313.759	1660352.74
314.214	120313.19
314.668	95467.66
315.123	80140.74
315.577	28733.73
316.032	25560.42
316.486	32008.49
316.94	25245.85
317.394	17579.3
317.849	13632.59
318.303	12885.49
318.757	12166.44
319.211	13466.37
319.665	11752.95
320.119	11896.51
320.572	17063.17
321.026	15942.44
321.48	13290.15
321.934	14453.7
322.387	14460.33
322.841	15622.47
323.295	14080.25
323.748	16167.83
324.202	16378.56
324.655	19698.95
325.108	27557.34
325.562	19453.4
326.015	23068.61
326.468	17419.44
326.921	19492.54
327.374	18187.44
327.827	18987.03
328.28	21491.11
328.733	14433.74
329.186	12694.03
329.639	12096.82
330.092	10186.1
330.545	9691.69
330.997	9789.32
331.45	10705.93
331.903	12565.69
332.355	21627.65
332.808	20949.72
333.26	17235.64
333.713	18734.58
334.165	18863.25
334.617	25141.41
335.069	20263.52
335.522	36674.17
335.974	40647.19
336.426	37042.55
336.878	25572.86
337.33	12962.11
337.782	12634.38
338.234	15849
338.686	18920.66
339.137	22416.87
339.589	21124.59
340.041	16569.97
340.493	14220.28
340.944	14550.1
341.396	15695.88
341.847	13231.75
342.299	15619.8
342.75	19148.26
343.201	16743.3
343.653	19206.53
344.104	23564.29
344.555	18529.25
345.006	28790.06
345.457	22111.09
345.908	17511.18
346.359	16466.51
346.81	13401.56
347.261	14087
347.712	13849.22
348.163	14819.64
348.613	15031.72
349.064	14025.6
349.515	12285.78
349.965	12622.7
350.416	15153.39
350.866	16635.82
351.317	18741.66
351.767	31021.01
352.217	39212.52
352.668	32542.47
353.118	29841.74
353.568	28701.97
354.018	22751.39
354.468	23977.04
354.918	17176.46
355.368	15021.77
355.818	21237.89
356.268	61179.2
356.718	256016.91
357.168	63739.38
357.617	31861.93
358.067	35343.04
358.517	33075.31
358.966	38751.8
359.416	43502.64
359.865	46957
360.315	55941.83
360.764	26142.69
361.213	14653.9
361.663	13868.44
362.112	17110.94
362.561	27649.77
363.01	20847.78
363.459	17543.85
363.908	18963.13
364.357	16129.1
364.806	27294.03
365.255	18747.47
365.703	17173.82
366.152	17221.19
366.601	13957.56
367.05	11318.42
367.498	10288.5
367.947	10763.76
368.395	11208.26
368.844	9921.14
369.292	11898.84
369.74	8220.36
370.189	12577.91
370.637	14726.16
371.085	12656.8
371.533	15392.49
371.981	14830.59
372.429	14164.49
372.877	14728.48
373.325	12287.93
373.773	12497.6
374.221	11116.17
374.669	13742.32
375.116	11880.03
375.564	11956.04
376.012	13371.18
376.459	11019.22
376.907	13131.69
377.354	15841.89
377.801	14796.68
378.249	17064.81
378.696	21763.25
379.143	26313.8
379.591	28033.91
380.038	47353.01
380.485	34269.41
380.932	37056.36
381.379	33978.26
381.826	25058.87
382.273	17802.87
382.72	15505.75
383.166	15106.04
383.613	9798.09
384.06	8840.19
384.506	10227.25
384.953	7492.11
385.4	7515.87
385.846	6569.53
386.292	6382.13
386.739	6227.48
387.185	6139.26
387.631	6154.21
388.078	5980.83
388.524	6393.02
388.97	5903.37
389.416	4932.14
389.862	5261.14
390.308	4990.46
390.754	5064.31
391.2	5492.78
391.645	5635.45
392.091	5420.3
392.537	5241.68
392.983	5236.2
393.428	5168.78
393.874	5543.25
394.319	5574.2
394.765	5283.26
395.21	5419.79
395.655	5086.4
396.101	4771.58
396.546	4305.08
396.991	4335.72
397.436	4029.56
397.881	3898.95
398.326	3689.57
398.771	3510.01
399.216	3063.96
399.661	2761.32
400.106	2766
400.551	2840.86
400.995	2553.82
401.44	2528.18
401.885	2377.68
402.329	2404.37
402.774	2308.2
403.218	2247.26
403.663	2162.38
404.107	2230.3
404.551	2253.62
404.995	2068.8
405.44	1988.97
405.884	2014.49
406.328	1951.24
406.772	1947.78
407.216	1776.84
407.66	1716.22
408.104	1623.12
408.547	1518.8
408.991	1472.73
409.435	1414.33
409.879	1396.83
410.322	1380.2
410.766	1339.6
411.209	1277.83
411.653	1228.69
412.096	1206.66
412.54	1209.11
412.983	1206.07
413.426	1214.32
413.869	1210.45
414.312	1194.99
414.756	1151.17
415.199	1100.61
415.642	1071.67
416.085	1075.5
416.527	1067.83
416.97	1084.71
417.413	1031.32
417.856	1020.91
418.298	1008.93
418.741	1002.07
419.184	994.49
419.626	1034.88
420.069	1036.05
420.511	1041.66
420.953	1019.22
421.396	1011.12
421.838	982.59
422.28	1002.99
422.722	1009.55
423.164	1023.72
423.606	1008.09
424.048	1007.96
424.49	960.5
424.932	954.08
425.374	938.67
425.816	952.47
426.258	969.14
426.699	982.72
427.141	973.16
427.582	987.41
428.024	982.55
428.465	975.44
428.907	951.81
429.348	936.83
429.789	939.28
430.231	921.88
430.672	934.63
431.113	913.37
431.554	901.04
431.995	874.61
432.436	843.49
432.877	825.32
433.318	816.13
433.759	812.18
434.2	814.91
434.64	804.29
435.081	803.97
435.522	762.1
435.962	732.68
436.403	717.72
436.843	728.29
437.284	713.19
437.724	692.47
438.164	688.09
438.604	671.45
439.045	645.77
439.485	622.5
439.925	609.64
440.365	594.27
440.805	586.54
441.245	576.82
441.685	555.81
442.125	548.51
442.564	550.31
443.004	538.43
443.444	538.56
443.883	539.55
444.323	533.88
444.762	532.13
445.202	539.15
445.641	552.16
446.081	549.05
446.52	553.91
446.959	551.07
447.398	540.63
447.837	536.1
448.276	526.75
448.716	530.6
449.154	533.89
449.593	523.95
450.032	523.3
450.471	511.64
450.91	510.83
451.349	509.35
451.787	505.79
452.226	513.73
452.664	512.79
453.103	514.06
453.541	513.41
453.98	515.67
454.418	518.75
454.856	510.67
455.295	508.36
455.733	513.55
456.171	516.04
456.609	515.5
457.047	514.52
457.485	522.95
457.923	524.31
458.361	517.48
458.798	517.81
459.236	516.38
459.674	518
460.111	521.62
460.549	517.36
460.987	515.17
461.424	513.72
461.862	510.81
462.299	503.09
462.736	502.79
463.173	503.86
463.611	501.05
464.048	499.58
464.485	504.42
464.922	498.65
465.359	492.9
465.796	494.89
466.233	492.58
466.67	488.68
467.106	488.24
467.543	481.83
467.98	474.64
468.416	459.02
468.853	455.45
469.29	441.37
469.726	437.31
470.162	426.86
470.599	413.16
471.035	408.27
471.471	398.85
471.907	394.74
472.344	392.33
472.78	394.91
473.216	399.96
473.652	394.71
474.088	394.19
474.523	393.78
474.959	397.73
475.395	395.34
475.831	393.89
476.266	395.73
476.702	394.82
477.138	391.46
477.573	389.59
478.008	388.54
478.444	392.04
478.879	397.23
479.314	398.47
479.75	399.8
480.185	401.91
480.62	404.55
481.055	406.11
481.49	409.15
481.925	414.6
482.36	424.41
482.795	435.47
483.229	445.57
483.664	453.46
484.099	455.22
484.534	461.22
484.968	465.7
485.403	467.45
485.837	466.61
486.271	466.06
486.706	466.48
487.14	458.82
487.574	451.66
488.009	447.42
488.443	443.04
488.877	449.11
489.311	450.3
489.745	455.62
490.179	461.12
490.613	472.1
491.046	475.62
491.48	479.76
491.914	481.37
492.348	485.67
492.781	490.02
493.215	491.79
493.648	491.56
494.082	496.01
494.515	497.12
494.948	502.84
495.382	505.12
495.815	509.71
496.248	514.19
496.681	524.02
497.114	533.71
497.547	542.76
497.98	554.98
498.413	561.95
498.846	571.44
499.279	579.21
499.711	583.56
500.144	587.63
500.577	598.76
501.009	609.79
501.442	620.7
501.874	623.74
502.306	627.07
502.739	637.45
503.171	650.24
503.603	654.85
504.036	664.45
504.468	672.24
504.9	684.12
505.332	691.46
505.764	697.9
506.196	705.42
506.627	721.11
507.059	734.71
507.491	741.88
507.923	744.48
508.354	760.35
508.786	772.92
509.217	791.33
509.649	806.65
510.08	826.04
510.512	844.11
510.943	860.53
511.374	873.1
511.805	894.09
512.237	914.92
512.668	946.74
513.099	973.04
513.53	1000.03
513.961	1021.65
514.391	1052.88
514.822	1086.58
515.253	1122.73
515.684	1149.2
516.114	1179.61
516.545	1203.81
516.975	1231.91
517.406	1251.42
517.836	1258.92
518.267	1270.99
518.697	1292.21
519.127	1301.79
519.558	1311.93
519.988	1318.95
520.418	1333.47
520.848	1353.43
521.278	1364.91
521.708	1405.34
522.138	1421.38
522.567	1455.02
522.997	1482.21
523.427	1500.76
523.857	1520.25
524.286	1534.68
524.716	1552.9
525.145	1574.96
525.575	1590.47
526.004	1608.01
526.433	1585.7
526.863	1589.53
527.292	1583.94
527.721	1592.68
528.15	1601.65
528.579	1605.27
529.008	1618.02
529.437	1641.78
529.866	1656.82
530.295	1675.32
530.724	1691.02
531.152	1720.51
531.581	1736.27
532.01	1754.43
532.438	1765.1
532.867	1780.49
533.295	1800.62
533.723	1808.59
534.152	1808.74
534.58	1809.45
535.008	1795.8
535.436	1798.84
535.865	1807.56
536.293	1823.01
536.721	1839.35
537.149	1865.36
537.576	1869.56
538.004	1883.18
538.432	1891.31
538.86	1891.05
539.287	1898.23
539.715	1910.94
540.143	1913.61
540.57	1910.07
540.998	1907.11
541.425	1885.9
541.852	1865.65
542.28	1863.1
542.707	1847.3
543.134	1833.88
543.561	1829.29
543.988	1824.05
544.415	1824.47
544.842	1819.7
545.269	1814.07
545.696	1817.42
546.123	1831.12
546.549	1820.92
546.976	1809.81
547.403	1810.53
547.829	1814.4
548.256	1818
548.682	1816.37
549.108	1811.21
549.535	1812.79
549.961	1815.59
550.387	1804.14
550.813	1800.42
551.24	1809.3
551.666	1812.36
552.092	1804.47
552.518	1798.73
552.943	1795.04
553.369	1803.15
553.795	1809.91
554.221	1811.74
554.646	1811.02
555.072	1823.29
555.498	1828.81
555.923	1837.69
556.349	1853.83
556.774	1863.11
557.199	1865.1
557.625	1870.98
558.05	1865.69
558.475	1877.13
558.9	1876.67
559.325	1868.31
559.75	1862.56
560.175	1856.05
560.6	1851.12
561.025	1848.85
561.449	1850.65
561.874	1857.79
562.299	1862.26
562.723	1870.09
563.148	1859.32
563.572	1862.99
563.997	1872.71
564.421	1876.77
564.846	1877.22
565.27	1880.19
565.694	1878.02
566.118	1888.96
566.542	1895.5
566.966	1889.4
567.39	1884.05
567.814	1872.2
568.238	1871.37
568.662	1874.63
569.086	1876.39
569.509	1883.66
569.933	1866.67
570.357	1857.49
570.78	1834.58
571.204	1820.84
571.627	1808.81
572.05	1805.71
572.474	1805.27
572.897	1791.36
573.32	1785.04
573.743	1774.7
574.166	1754.97
574.589	1754.5
575.012	1747.04
575.435	1745.13
575.858	1735.71
576.281	1723.56
576.704	1707.39
577.126	1695.02
577.549	1683.88
577.972	1672.91
578.394	1663.81
578.817	1658.22
579.239	1640.34
579.661	1627.16
580.084	1613.1
580.506	1599.63
580.928	1596.47
581.35	1585.92
581.772	1582.56
582.194	1569.75
582.616	1557.45
583.038	1542.13
583.46	1529.99
583.882	1525.96
584.303	1530.18
584.725	1525.29
585.147	1528.57
585.568	1539.62
585.99	1552.36
586.411	1557.27
586.833	1572.3
587.254	1573.86
587.675	1588.37
588.096	1600.46
588.518	1593.6
588.939	1576.75
589.36	1575.11
589.781	1562.21
590.202	1533.07
590.623	1523.26
591.043	1521.71
591.464	1508.15
591.885	1503.95
592.305	1497.25
592.726	1483.9
593.147	1488.18
593.567	1482.76
593.987	1474.95
594.408	1469.87
594.828	1467.41
595.248	1461.26
595.669	1442.11
596.089	1434.3
596.509	1427.17
596.929	1412.64
597.349	1413.42
597.769	1402.43
598.189	1395.88
598.608	1397.66
599.028	1399.37
599.448	1398.73
599.867	1385.96
600.287	1381.52
600.706	1378.99
601.126	1369.75
601.545	1369.18
601.965	1367.75
602.384	1361.67
602.803	1364.58
603.222	1359.32
603.641	1352.16
604.061	1348.62
604.48	1343.91
604.898	1351.98
605.317	1355.66
605.736	1356.5
606.155	1354.04
606.574	1344.56
606.992	1348.64
607.411	1342.83
607.829	1333.01
608.248	1329.87
608.666	1326.82
609.085	1326.49
609.503	1317.07
609.921	1310.52
610.339	1312.01
610.758	1308.77
611.176	1303.42
611.594	1294.65
612.012	1289.96
612.43	1293.19
612.847	1298.01
613.265	1298.54
613.683	1301.1
614.101	1300.79
614.518	1295.44
614.936	1285.37
615.353	1271.44
615.771	1267.54
616.188	1267.14
616.606	1263.11
617.023	1255.62
617.44	1240.67
617.857	1232.91
618.274	1224.21
618.691	1218.76
619.108	1209.18
619.525	1202.09
619.942	1208.48
620.359	1209.93
620.776	1203.75
621.192	1200.28
621.609	1197.49
622.026	1203.5
622.442	1208.35
622.859	1210.56
623.275	1202.41
623.691	1206.73
624.108	1217.62
624.524	1229.53
624.94	1229.46
625.356	1238.64
625.772	1249.44
626.188	1260.04
626.604	1261.56
627.02	1257
627.436	1254.47
627.852	1261.11
628.268	1273
628.683	1262.76
629.099	1254.74
629.514	1249.8
629.93	1253.83
630.345	1258.74
630.761	1253.98
631.176	1256.4
631.591	1251.95
632.007	1246.49
632.422	1243.31
632.837	1232.37
633.252	1231.85
633.667	1221.74
634.082	1212.64
634.497	1198.73
634.911	1180.48
635.326	1176.45
635.741	1159.41
636.155	1148.18
636.57	1149.04
636.984	1147.85
637.399	1148.89
637.813	1145.54
638.228	1142.36
638.642	1144.48
639.056	1133.32
639.47	1130.31
639.884	1119.29
640.298	1112.18
640.712	1109.14
641.126	1094.02
641.54	1083.58
641.954	1074.04
642.368	1059.62
642.781	1052.31
643.195	1032.58
643.609	1031.42
644.022	1022.53
644.436	1015.76
644.849	1000.89
645.262	986.43
645.676	985.64
646.089	977.76
646.502	962.56
646.915	955.28
647.328	936.01
647.741	931.59
648.154	917.26
648.567	915.11
648.98	903.08
649.393	901.72
649.805	897.95
650.218	888.58
650.631	873.98
651.043	866.26
651.456	859.68
651.868	857.36
652.28	871.56
652.693	880.69
653.105	881.87
653.517	886.97
653.929	884.87
654.341	886.56
654.753	874.79
655.165	877.46
655.577	873.59
655.989	868.22
656.401	859.38
656.813	826.98
657.224	807.43
657.636	779.25
658.047	763.59
658.459	744.96
658.87	734.19
659.282	721.32
659.693	701.71
660.104	687.71
660.515	672.9
660.926	667.46
661.338	660.79
661.749	651.71
662.159	643.34
662.57	634.55
662.981	627.99
663.392	618.79
663.803	619.38
664.213	614.38
664.624	606.96
665.035	606.86
665.445	594.12
665.855	587.05
666.266	580.2
666.676	575.96
667.086	568.17
667.497	566.19
667.907	559.98
668.317	550.23
668.727	548.38
669.137	546.77
669.547	542.59
669.956	542.89
670.366	542.76
670.776	542.01
671.186	544.15
671.595	545.27
672.005	545.87
672.414	544.89
672.824	543.68
673.233	542.97
673.642	544.53
674.052	547.91
674.461	549.85
674.87	551.96
675.279	550.94
675.688	550.26
676.097	552.8
676.506	550.91
676.915	561.64
677.323	565.11
677.732	564.94
678.141	564.77
678.549	556.61
678.958	556.71
679.366	557.15
679.775	561.01
680.183	572.84
680.592	577.74
681	582.93
681.408	580.03
681.816	587.55
682.224	596.56
682.632	608.01
683.04	634.58
683.448	657.09
683.856	686.22
684.264	719.42
684.671	749.16
685.079	786.62
685.487	829.31
685.894	887.01
686.302	934.94
686.709	978.49
687.116	1029.38
687.524	1073.05
687.931	1113.38
688.338	1149.33
688.745	1180.16
689.152	1214.24
689.559	1259.08
689.966	1305.68
690.373	1331.03
690.78	1374.21
691.187	1437.2
691.593	1486.87
692	1530.99
692.407	1594.17
692.813	1673.3
693.22	1736.4
693.626	1800.77
694.032	1855.59
694.439	1933.35
694.845	1995.96
695.251	2075.2
695.657	2144.84
696.063	2246.53
696.469	2324.34
696.875	2396.5
697.281	2436.84
697.687	2486.78
698.093	2532.22
698.498	2611.03
