Data from N_3_HIR_WI_4N_Splice17_13-12-03-251.txt Node
Date: Sat Mar 14 13:12:03 EDT 2020
User: sa697716
Spectrometer: FLMS03696
Trigger mode: 0
Integration Time (sec): 3.180400E-1
Scans to average: 20
Electric dark correction enabled: true
Nonlinearity correction enabled: true
Boxcar width: 5
XAxis mode: Wavelengths
Number of Pixels in Spectrum: 2048
>>>>>Begin Spectral Data<<<<<
187.83	-272145.05
188.298	2052.26
188.766	1132.84
189.233	986.75
189.701	1315.38
190.169	1790.8
190.636	631.65
191.104	480.11
191.571	32.54
192.039	-92.82
192.506	-51.64
192.974	642.14
193.441	-1096.99
193.908	-416.66
194.375	-137.84
194.842	-61.25
195.31	-7.35
195.777	137.64
196.244	394.09
196.711	473.59
197.177	603.51
197.644	860.29
198.111	1494.67
198.578	2092.31
199.045	1683.38
199.511	2749.1
199.978	3170.63
200.445	2675.22
200.911	2940.36
201.378	3273.66
201.844	2978.13
202.31	5086.08
202.777	5316.08
203.243	2946.36
203.709	2826.51
204.176	3375.54
204.642	2802.46
205.108	2620.77
205.574	2146.64
206.04	1963.04
206.506	1829.87
206.972	1737
207.438	1689.72
207.903	1922.89
208.369	1700.16
208.835	1694.64
209.301	1772.62
209.766	1809.9
210.232	1797.22
210.697	2240.94
211.163	2781.68
211.628	4232.31
212.094	3578.64
212.559	4416.3
213.024	2780.36
213.49	3411.74
213.955	3339.41
214.42	3279.92
214.885	3060.45
215.35	2962.16
215.815	2890.55
216.28	3093.56
216.745	2561.7
217.21	2808.71
217.675	2630.78
218.14	3020.27
218.604	3462.37
219.069	4056.58
219.534	4359.2
219.998	5188.89
220.463	6378.64
220.927	7999.41
221.392	7649.63
221.856	7823.83
222.32	9989.17
222.785	12426.66
223.249	15739.87
223.713	17634.61
224.177	17700.6
224.642	22831.69
225.106	28211.95
225.57	31019.38
226.034	23054.16
226.497	35089.54
226.961	31721.71
227.425	36931.24
227.889	41010.3
228.353	41040.32
228.816	84843.1
229.28	81048.09
229.744	68251.03
230.207	41322.68
230.671	40589.36
231.134	67150.4
231.597	77382.84
232.061	77313.13
232.524	75464.93
232.987	51968.79
233.45	46722.98
233.914	41831.31
234.377	42939.34
234.84	39271.49
235.303	46381.16
235.766	51748.58
236.229	53445.06
236.691	33683.5
237.154	37858.51
237.617	28424.68
238.08	29088.3
238.542	34040.86
239.005	24328.9
239.468	24099.92
239.93	22702.74
240.393	20611.4
240.855	18071.66
241.317	18524.51
241.78	22530.72
242.242	23261.78
242.704	25102.24
243.166	21839.89
243.629	19810.22
244.091	22832.21
244.553	25018.93
245.015	26863.51
245.477	34745.61
245.939	50895.75
246.4	53915.35
246.862	52317.44
247.324	49300.51
247.786	55155.83
248.247	72363.02
248.709	74742.63
249.17	55839.18
249.632	52531.68
250.093	60866.23
250.555	52478.79
251.016	31961.07
251.477	30284.21
251.939	32671.79
252.4	34231.87
252.861	40650.4
253.322	37695.76
253.783	44805.34
254.244	58087.18
254.705	45787.4
255.166	40668.63
255.627	40035.53
256.088	56449.17
256.549	59969.13
257.009	51597.72
257.47	62576.03
257.931	50926.37
258.391	38164.95
258.852	39335.9
259.312	41216.69
259.773	50930.28
260.233	42993.92
260.694	36228
261.154	41080.09
261.614	32933.31
262.074	29457.19
262.534	30579.25
262.994	28795.06
263.455	38339.25
263.915	32265.27
264.374	30363.24
264.834	33116.91
265.294	36714.88
265.754	38012.57
266.214	35950.8
266.673	33660.86
267.133	42454.66
267.593	42098.86
268.052	51503.21
268.512	44762.01
268.971	53879.08
269.431	59005.94
269.89	52778.95
270.349	79048.46
270.809	88097.23
271.268	79183.01
271.727	177397.11
272.186	114734.2
272.645	85966.9
273.104	61951.38
273.563	89584.4
274.022	70436.81
274.481	59870.55
274.94	46055.81
275.399	34212.86
275.857	39753.53
276.316	53676.61
276.775	47695.16
277.233	46879.17
277.692	43813.66
278.15	49506.19
278.609	50867.01
279.067	47017.27
279.525	43604.72
279.984	56265.84
280.442	67461.17
280.9	66440.7
281.358	43636.55
281.816	40621.41
282.274	39746.32
282.732	41029.16
283.19	41180.02
283.648	35518.67
284.106	37817.31
284.564	38439.19
285.021	35595.67
285.479	26524.26
285.937	24127.32
286.394	21158.83
286.852	21783.58
287.309	22890.79
287.767	22097.65
288.224	21005.95
288.682	23035.7
289.139	25249.43
289.596	23087.49
290.053	23983.65
290.511	30237.77
290.968	36612.82
291.425	49666.23
291.882	41272.81
292.339	35888.39
292.796	35581.05
293.252	33511.57
293.709	26568.73
294.166	23785.72
294.623	26257.7
295.079	25169.38
295.536	25238.68
295.992	22892.65
296.449	22620.45
296.905	23489.86
297.362	22502
297.818	23663.48
298.274	24501.17
298.731	24979.84
299.187	24690.34
299.643	26476.64
300.099	32005.99
300.555	35096.32
301.011	29332.08
301.467	28199.69
301.923	32993.27
302.379	32160.71
302.835	31545.63
303.291	31555.08
303.746	35850.76
304.202	45281.91
304.658	45448.34
305.113	30563.37
305.569	29918.09
306.024	31817.88
306.479	30298.14
306.935	25496.21
307.39	27838.62
307.845	25684.09
308.301	25836.21
308.756	25144.63
309.211	24188.58
309.666	24761.29
310.121	30669.11
310.576	31089.92
311.031	30848.56
311.486	35312.87
311.94	35242.9
312.395	47091.83
312.85	88411.54
313.305	433524.7
313.759	2242534.53
314.214	162460.24
314.668	128606.15
315.123	108084.8
315.577	38759.35
316.032	34426.96
316.486	43084.79
316.94	33989.57
317.394	23631.44
317.849	18356.7
318.303	17390.82
318.757	16397.76
319.211	18096.77
319.665	15825.4
320.119	15988.18
320.572	22918.91
321.026	21377.2
321.48	17778.73
321.934	19387.38
322.387	19423.05
322.841	20960.22
323.295	18817.01
323.748	21657.01
324.202	21959.92
324.655	26367.35
325.108	36867.17
325.562	26004.36
326.015	30868.29
326.468	23299.44
326.921	25976.76
327.374	24190.08
327.827	25148.6
328.28	28411.46
328.733	19027.45
329.186	16709.72
329.639	15899.05
330.092	13380.79
330.545	12721.58
330.997	12839.84
331.45	14025.53
331.903	16455.94
332.355	28319.62
332.808	27535.61
333.26	22712.56
333.713	24648.95
334.165	24836.36
334.617	33128.3
335.069	26754.72
335.522	48294.3
335.974	53375.27
336.426	48686.82
336.878	33670.71
337.33	17047.13
337.782	16610.77
338.234	20791.82
338.686	24805.77
339.137	29351.28
339.589	27648.71
340.041	21642.23
340.493	18603.18
340.944	19051.65
341.396	20513.7
341.847	17228.91
342.299	20292.49
342.75	24782.2
343.201	21648.12
343.653	24918
344.104	30576.52
344.555	24011.57
345.006	37370.68
345.457	28586.29
345.908	22712.18
346.359	21398.16
346.81	17432.14
347.261	18365.22
347.712	18041.77
348.163	19310.27
348.613	19535.6
349.064	18251.99
349.515	15988.07
349.965	16377.3
350.416	19744.02
350.866	21635.91
351.317	24395.82
351.767	40321.98
352.217	50938.51
352.668	42326.72
353.118	38795.26
353.568	37358.98
354.018	29456.59
354.468	31022.24
354.918	22228.81
355.368	19423.4
355.818	27400.55
356.268	78871.57
356.718	330233.7
357.168	82185.57
357.617	41142.48
358.067	45693.97
358.517	42749.82
358.966	50186.3
359.416	56145.51
359.865	60653.16
360.315	72182.28
360.764	33695.51
361.213	18822.07
361.663	17790.17
362.112	21922.13
362.561	35452.8
363.01	26710.69
363.459	22466.57
363.908	24272.51
364.357	20608.38
364.806	34818.76
365.255	23895.14
365.703	21873.41
366.152	21920.04
366.601	17767.97
367.05	14416.06
367.498	13081.81
367.947	13668.79
368.395	14190.17
368.844	12570.43
369.292	15126.48
369.74	10431.91
370.189	15969.8
370.637	18712.23
371.085	16133.98
371.533	19610.16
371.981	18879.23
372.429	17954.11
372.877	18648.87
373.325	15598.82
373.773	15862.03
374.221	14145.97
374.669	17502.15
375.116	15108.09
375.564	15199.76
376.012	16955.21
376.459	14000.49
376.907	16726.9
377.354	20188.47
377.801	18827.22
378.249	21663.1
378.696	27640.15
379.143	33418.43
379.591	35597.29
380.038	60254.55
380.485	43570.86
380.932	47090.09
381.379	42937.32
381.826	31498.35
382.273	22368.03
382.72	19548.91
383.166	19058.02
383.613	12363.53
384.06	11144.88
384.506	12910.76
384.953	9466.92
385.4	9504.14
385.846	8319.39
386.292	8106.52
386.739	7953.04
387.185	7891.07
387.631	7890.68
388.078	7652.14
388.524	8194.28
388.97	7581.26
389.416	6312.22
389.862	6705.01
390.308	6352.82
390.754	6445.04
391.2	7000.55
391.645	7152.11
392.091	6835.31
392.537	6604.77
392.983	6605.32
393.428	6491.73
393.874	6938.91
394.319	6972.59
394.765	6617.31
395.21	6805.43
395.655	6379.03
396.101	5973.8
396.546	5398.76
396.991	5437.71
397.436	5045.33
397.881	4870.36
398.326	4608.01
398.771	4358.25
399.216	3800.11
399.661	3418.47
400.106	3403.14
400.551	3486.64
400.995	3118.89
401.44	3076.73
401.885	2885.6
402.329	2911.2
402.774	2780.8
403.218	2681.94
403.663	2579.48
404.107	2649.59
404.551	2662.47
404.995	2434.98
405.44	2335.45
405.884	2367.49
406.328	2285
406.772	2272.29
407.216	2066.27
407.66	1991.06
408.104	1890.28
408.547	1764.12
408.991	1705.3
409.435	1638.53
409.879	1612.22
410.322	1589.62
410.766	1531.94
411.209	1456.25
411.653	1395.43
412.096	1364.41
412.54	1366.83
412.983	1355.09
413.426	1360.53
413.869	1356.13
414.312	1329.28
414.756	1279.24
415.199	1216.39
415.642	1179.02
416.085	1179.15
416.527	1170.91
416.97	1187.9
417.413	1125.09
417.856	1113.4
418.298	1098.56
418.741	1088.68
419.184	1082.57
419.626	1126.42
420.069	1127.34
420.511	1134.04
420.953	1107.51
421.396	1095.38
421.838	1065.19
422.28	1089.46
422.722	1093
423.164	1106.6
423.606	1087.58
424.048	1086.2
424.49	1033.44
424.932	1025.67
425.374	1011.03
425.816	1028.49
426.258	1048.17
426.699	1059.23
427.141	1045.07
427.582	1058.35
428.024	1051.12
428.465	1042.95
428.907	1017.61
429.348	1001.65
429.789	1003.6
430.231	982.83
430.672	992.88
431.113	966.6
431.554	950.8
431.995	923.81
432.436	892.58
432.877	873.86
433.318	860.12
433.759	853.91
434.2	855.67
434.64	845.09
435.081	844.66
435.522	802.75
435.962	772.22
436.403	757.88
436.843	767.32
437.284	749.94
437.724	730.52
438.164	729.13
438.604	713.43
439.045	686.83
439.485	660.32
439.925	647.19
440.365	630.19
440.805	623.38
441.245	615.52
441.685	593.06
442.125	588.46
442.564	591.45
443.004	580.41
443.444	581.08
443.883	581.34
444.323	576.46
444.762	576.96
445.202	583.76
445.641	595.38
446.081	591.32
446.52	596.41
446.959	592.94
447.398	579.97
447.837	574.47
448.276	563.1
448.716	569.06
449.154	573.39
449.593	561.17
450.032	561.22
450.471	551.89
450.91	551.61
451.349	551.33
451.787	547.65
452.226	555.54
452.664	555.58
453.103	557.71
453.541	557.73
453.98	559.04
454.418	562.76
454.856	555.19
455.295	554.09
455.733	560.02
456.171	562.56
456.609	562.26
457.047	560.08
457.485	568.04
457.923	568.09
458.361	559.69
458.798	560.41
459.236	557.6
459.674	559.58
460.111	562.12
460.549	556.78
460.987	554.84
461.424	553.63
461.862	552.01
462.299	542.72
462.736	542.34
463.173	543.84
463.611	539.55
464.048	539.5
464.485	543.89
464.922	537.96
465.359	533.89
465.796	530.98
466.233	527.62
466.67	523.45
467.106	523.04
467.543	517.54
467.98	510.25
468.416	496.17
468.853	491.34
469.29	476.11
469.726	470.79
470.162	458.56
470.599	450.05
471.035	445.89
471.471	434.78
471.907	431.13
472.344	427.14
472.78	429.17
473.216	434.31
473.652	429.59
474.088	429.18
474.523	428.17
474.959	432.39
475.395	428.12
475.831	425.5
476.266	427.23
476.702	426.47
477.138	423.45
477.573	422.09
478.008	420.82
478.444	422.89
478.879	427.13
479.314	430.07
479.75	430.26
480.185	431.82
480.62	435.61
481.055	438.71
481.49	442.53
481.925	449.45
482.36	457.91
482.795	470.13
483.229	483.24
483.664	492.97
484.099	494.5
484.534	502.36
484.968	508.01
485.403	509.67
485.837	509.16
486.271	507.5
486.706	508.14
487.14	501.91
487.574	494.61
488.009	490.54
488.443	486.81
488.877	493.02
489.311	494.25
489.745	500.37
490.179	506.34
490.613	517.32
491.046	522.96
491.48	527.41
491.914	530.18
492.348	534.36
492.781	538.3
493.215	540.85
493.648	541.97
494.082	548.27
494.515	550.07
494.948	557.87
495.382	562.7
495.815	568.33
496.248	575.43
496.681	586.84
497.114	598.23
497.547	608.82
497.98	622.02
498.413	630.15
498.846	640.15
499.279	650.53
499.711	655.58
500.144	659.85
500.577	671.37
501.009	682.21
501.442	693.38
501.874	698.14
502.306	702.38
502.739	712.9
503.171	728.36
503.603	734.98
504.036	745.87
504.468	755.5
504.9	769.44
505.332	779.85
505.764	788.03
506.196	798.05
506.627	814.82
507.059	830.99
507.491	841.9
507.923	844
508.354	861.56
508.786	874.85
509.217	894.52
509.649	911.54
510.08	931.49
510.512	949.97
510.943	967.71
511.374	981.61
511.805	1004.32
512.237	1026.21
512.668	1060.32
513.099	1090.24
513.53	1119.29
513.961	1142.62
514.391	1175.59
514.822	1211.17
515.253	1249.14
515.684	1276.72
516.114	1308.52
516.545	1331.76
516.975	1359.99
517.406	1379.76
517.836	1385.1
518.267	1394.65
518.697	1413.99
519.127	1421.45
519.558	1430.98
519.988	1436.82
520.418	1449.26
520.848	1468.89
521.278	1479.34
521.708	1501.08
522.138	1517.18
522.567	1548.94
522.997	1576.13
523.427	1593.6
523.857	1612.29
524.286	1623.54
524.716	1640.26
525.145	1659.89
525.575	1671.66
526.004	1688.84
526.433	1681.39
526.863	1682.1
527.292	1673.37
527.721	1679.63
528.15	1686.71
528.579	1689.05
529.008	1701.27
529.437	1725.79
529.866	1740.89
530.295	1758.43
530.724	1770.89
531.152	1799.67
531.581	1814.3
532.01	1832.32
532.438	1841.72
532.867	1856.06
533.295	1874.28
533.723	1880.87
534.152	1878.11
534.58	1878.55
535.008	1863.41
535.436	1865.26
535.865	1872.1
536.293	1885.74
536.721	1902.71
537.149	1928.13
537.576	1931.06
538.004	1943.56
538.432	1951.2
538.86	1949.12
539.287	1956.34
539.715	1970.04
540.143	1972.37
540.57	1968.34
540.998	1965.32
541.425	1940.82
541.852	1919.96
542.28	1918.6
542.707	1902.98
543.134	1888.6
543.561	1884.22
543.988	1875.42
544.415	1874.8
544.842	1870.55
545.269	1863.94
545.696	1865.67
546.123	1878.87
546.549	1868.38
546.976	1856
547.403	1855.87
547.829	1859.16
548.256	1862.22
548.682	1860.04
549.108	1852.9
549.535	1852.16
549.961	1854.71
550.387	1841.91
550.813	1836.69
551.24	1843.62
551.666	1845.45
552.092	1836.29
552.518	1829.6
552.943	1824.35
553.369	1832.11
553.795	1839.21
554.221	1842.23
554.646	1839.16
555.072	1851.64
555.498	1857.7
555.923	1866.81
556.349	1882.51
556.774	1892.19
557.199	1894.45
557.625	1902.32
558.05	1896.73
558.475	1908.04
558.9	1905.27
559.325	1897.53
559.75	1889.84
560.175	1884.12
560.6	1879.61
561.025	1876.66
561.449	1876.9
561.874	1881.64
562.299	1885.95
562.723	1893.6
563.148	1882.83
563.572	1887.94
563.997	1898.46
564.421	1904.67
564.846	1904.4
565.27	1906.99
565.694	1904.54
566.118	1916.52
566.542	1923.78
566.966	1914.59
567.39	1908.51
567.814	1896.84
568.238	1894.28
568.662	1898.97
569.086	1900.67
569.509	1907.05
569.933	1889.99
570.357	1881.25
570.78	1858.01
571.204	1844.12
571.627	1832.9
572.05	1830.97
572.474	1831.09
572.897	1817.77
573.32	1808.1
573.743	1798.21
574.166	1778.87
574.589	1778.77
575.012	1770.92
575.435	1768.61
575.858	1759.35
576.281	1748.28
576.704	1730.29
577.126	1715.48
577.549	1704.85
577.972	1694.78
578.394	1683.5
578.817	1676.15
579.239	1656.85
579.661	1642.83
580.084	1628.11
580.506	1614.03
580.928	1609.44
581.35	1599.43
581.772	1595.86
582.194	1582.23
582.616	1568.9
583.038	1554.49
583.46	1543.96
583.882	1539.91
584.303	1544.8
584.725	1539.41
585.147	1541.61
585.568	1551.76
585.99	1563.7
586.411	1569.62
586.833	1583.86
587.254	1585.35
587.675	1598.61
588.096	1610.57
588.518	1605.17
588.939	1587.47
589.36	1586.04
589.781	1575.12
590.202	1547
590.623	1537.78
591.043	1535.58
591.464	1524.46
591.885	1520.31
592.305	1514.57
592.726	1500.12
593.147	1501.76
593.567	1496.17
593.987	1487.64
594.408	1482.03
594.828	1479.7
595.248	1474.06
595.669	1453.1
596.089	1444.33
596.509	1438.15
596.929	1424.94
597.349	1426.51
597.769	1416.27
598.189	1410.14
598.608	1411.04
599.028	1413.06
599.448	1411.79
599.867	1398.63
600.287	1394.94
600.706	1390.78
601.126	1381.16
601.545	1379.17
601.965	1377.51
602.384	1370.55
602.803	1372.14
603.222	1367.13
603.641	1359.29
604.061	1355.27
604.48	1351
604.898	1358.7
605.317	1362.4
605.736	1363.56
606.155	1360.23
606.574	1350.31
606.992	1355.69
607.411	1350.36
607.829	1341.57
608.248	1338.03
608.666	1335.45
609.085	1333.83
609.503	1324.95
609.921	1319.06
610.339	1319.8
610.758	1318.2
611.176	1312.69
611.594	1303.22
612.012	1299.3
612.43	1301.67
612.847	1306.72
613.265	1307.12
613.683	1310.24
614.101	1310.87
614.518	1305.82
614.936	1296.63
615.353	1281.4
615.771	1277.28
616.188	1276.24
616.606	1272.46
617.023	1265.35
617.44	1251.93
617.857	1243.85
618.274	1235.5
618.691	1229.03
619.108	1219.33
619.525	1211.54
619.942	1216.83
620.359	1218.44
620.776	1212.73
621.192	1207.83
621.609	1203.7
622.026	1209.18
622.442	1214.08
622.859	1216.3
623.275	1208.31
623.691	1212.55
624.108	1223.34
624.524	1236.39
624.94	1235.25
625.356	1245.02
625.772	1256.91
626.188	1269.21
626.604	1269.82
627.02	1264.94
627.436	1262.83
627.852	1268.92
628.268	1280.15
628.683	1271.45
629.099	1263.38
629.514	1259.55
629.93	1262.25
630.345	1265.8
630.761	1260.86
631.176	1263.77
631.591	1258.64
632.007	1251.81
632.422	1248.64
632.837	1236.27
633.252	1232.06
633.667	1220.25
634.082	1210.59
634.497	1197.33
634.911	1178.18
635.326	1173.82
635.741	1155.41
636.155	1143.66
636.57	1142.91
636.984	1141.56
637.399	1141.71
637.813	1139.49
638.228	1138.06
638.642	1139.25
639.056	1127.9
639.47	1126.04
639.884	1115.19
640.298	1107.53
640.712	1105.02
641.126	1091.49
641.54	1080.43
641.954	1072.29
642.368	1058.84
642.781	1048.34
643.195	1029.96
643.609	1026.79
644.022	1018.31
644.436	1011.51
644.849	997.69
645.262	983.41
645.676	981.66
646.089	975.27
646.502	960.32
646.915	953.3
647.328	935.95
647.741	931.7
648.154	918.54
648.567	914.94
648.98	902.23
649.393	900.9
649.805	896.82
650.218	888.51
650.631	873
651.043	866.77
651.456	859.49
651.868	858.06
652.28	870.9
652.693	883.03
653.105	885.47
653.517	890.87
653.929	889.46
654.341	893.41
654.753	882.44
655.165	887.68
655.577	883.09
655.989	877.36
656.401	868.58
656.813	837.47
657.224	817.07
657.636	790.98
658.047	775.71
658.459	757.67
658.87	746.27
659.282	733.15
659.693	712.47
660.104	698.54
660.515	684.48
660.926	679.73
661.338	673.97
661.749	665.02
662.159	655.57
662.57	648.29
662.981	642.51
663.392	633.91
663.803	634.38
664.213	629.48
664.624	622.26
665.035	621.52
665.445	609.63
665.855	602.4
666.266	594.86
666.676	590.2
667.086	581.27
667.497	577.46
667.907	570.88
668.317	562.59
668.727	560.41
669.137	559.93
669.547	558.21
669.956	558.87
670.366	559.83
670.776	560.28
671.186	562.85
671.595	565.24
672.005	567.65
672.414	568.51
672.824	566.88
673.233	567.41
673.642	568.76
674.052	570.81
674.461	573.16
674.87	575.74
675.279	574.87
675.688	575.27
676.097	577.49
676.506	576.46
676.915	586.1
677.323	588.8
677.732	588.87
678.141	589.43
678.549	582.26
678.958	582.4
679.366	582.94
679.775	586.42
680.183	597.85
680.592	603.3
681	609.6
681.408	608.14
681.816	616.58
682.224	626.06
682.632	637.93
683.04	664.4
683.448	687.11
683.856	716.22
684.264	749.94
684.671	780.11
685.079	817.96
685.487	860.11
685.894	916.71
686.302	966.5
686.709	1009.82
687.116	1059.36
687.524	1103.57
687.931	1144.12
688.338	1178.39
688.745	1209.88
689.152	1244.59
689.559	1290.43
689.966	1333.98
690.373	1359.57
690.78	1402.88
691.187	1466.56
691.593	1516.67
692	1560.04
692.407	1621.06
692.813	1697.37
693.22	1758.55
693.626	1822.02
694.032	1873.58
694.439	1949.37
694.845	2008.9
695.251	2084.52
695.657	2151.57
696.063	2251.06
696.469	2324.87
696.875	2395.43
697.281	2434.54
697.687	2482.27
698.093	2521.36
