Data from N_3_DEC_CT_2N_Splice17_13-02-30-412.txt Node
Date: Sat Mar 14 13:02:30 EDT 2020
User: sa697716
Spectrometer: FLMS03696
Trigger mode: 0
Integration Time (sec): 3.180400E-1
Scans to average: 20
Electric dark correction enabled: true
Nonlinearity correction enabled: true
Boxcar width: 5
XAxis mode: Wavelengths
Number of Pixels in Spectrum: 2048
>>>>>Begin Spectral Data<<<<<
187.83	-336624.99
188.298	2431.69
188.766	1307.57
189.233	1180.13
189.701	1653.35
190.169	2192.93
190.636	768.64
191.104	556.43
191.571	13.21
192.039	-133.82
192.506	-164.08
192.974	389.97
193.441	-692.56
193.908	-180.17
194.375	-70.13
194.842	-2.59
195.31	-11.44
195.777	135.18
196.244	370.39
196.711	475.5
197.177	617.59
197.644	887.91
198.111	1559.75
198.578	2198.06
199.045	1772.43
199.511	2883.1
199.978	3370.2
200.445	2882.21
200.911	3185.16
201.378	3554.96
201.844	3202.84
202.31	5487.39
202.777	5718.42
203.243	3183.92
203.709	3050.22
204.176	3644.48
204.642	3007.97
205.108	2805.16
205.574	2289.65
206.04	2087.35
206.506	1952.3
206.972	1851.6
207.438	1774.41
207.903	2026.4
208.369	1764.27
208.835	1742.17
209.301	1823.39
209.766	1898.89
210.232	1875.33
210.697	2327.5
211.163	2882.42
211.628	4372.43
212.094	3672.87
212.559	4523.93
213.024	2827.02
213.49	3458.3
213.955	3385.99
214.42	3303.61
214.885	3066.76
215.35	2969.98
215.815	2857.23
216.28	3031.27
216.745	2485.93
217.21	2701.42
217.675	2526.3
218.14	2877.81
218.604	3272.03
219.069	3795.85
219.534	4040.65
219.998	4750.58
220.463	5811.49
220.927	7233.8
221.392	6854.19
221.856	6964.21
222.32	8859.11
222.785	10954.08
223.249	13843.81
223.713	15470.93
224.177	15479.39
224.642	19880.36
225.106	24530.24
225.57	26867.2
226.034	20012.47
226.497	30576.77
226.961	27659.18
227.425	32225.4
227.889	35809.54
228.353	35851.47
228.816	74273.53
229.28	71203.41
229.744	60265.14
230.207	36636.12
230.671	36064.26
231.134	59769.49
231.597	68988.42
232.061	69142.68
232.524	67530.89
232.987	46579.14
233.45	41885.66
233.914	37563.71
234.377	38538.15
234.84	35280.82
235.303	41592.6
235.766	46472.13
236.229	47984.29
236.691	30192.32
237.154	33939.9
237.617	25541.5
238.08	26156.86
238.542	30663.06
239.005	21916.94
239.468	21743.5
239.93	20477.35
240.393	18628.44
240.855	16345.41
241.317	16762.31
241.78	20426.36
242.242	21114.21
242.704	22789.68
243.166	19859.73
243.629	18021.72
244.091	20790.71
244.553	22805.63
245.015	24534.73
245.477	31759.84
245.939	46540.86
246.4	49398.33
246.862	48036.25
247.324	45277.85
247.786	50730.18
248.247	66614.94
248.709	68881.04
249.17	51507.86
249.632	48529.22
250.093	56217.97
250.555	48585.3
251.016	29676.99
251.477	28162.94
251.939	30393.18
252.4	31948.33
252.861	37985.42
253.322	35320.99
253.783	42062.95
254.244	54601.63
254.705	43134.93
255.166	38416.2
255.627	37837.07
256.088	53399.5
256.549	56779.33
257.009	48957.14
257.47	59389.36
257.931	48449.33
258.391	36310.33
258.852	37490.9
259.312	39342.89
259.773	48583.47
260.233	41066.13
260.694	34665.61
261.154	39351.23
261.614	31600.19
262.074	28271.3
262.534	29384.15
262.994	27705.57
263.455	36950.24
263.915	31149.36
264.374	29364.53
264.834	32097.36
265.294	35610.07
265.754	36939.18
266.214	34981.98
266.673	32790.72
267.133	41423.59
267.593	41135.38
268.052	50332.54
268.512	43773.63
268.971	52718.76
269.431	57806.29
269.89	51779.81
270.349	77648.43
270.809	86496.96
271.268	77751.13
271.727	174517.46
272.186	113049.89
272.645	84842.2
273.104	61240.15
273.563	88690.57
274.022	69835.26
274.481	59380.43
274.94	45719.99
275.399	33996.29
275.857	39592.06
276.316	53537.88
276.775	47631.28
277.233	46900.63
277.692	43863.76
278.15	49587.98
278.609	51017.44
279.067	47204.9
279.525	43831.88
279.984	56618.43
280.442	67969.17
280.9	66985.06
281.358	44078.91
281.816	41056.33
282.274	40187.83
282.732	41515.58
283.19	41758.81
283.648	36031.2
284.106	38364.51
284.564	39054.16
285.021	36191.39
285.479	26978.72
285.937	24554.31
286.394	21536.11
286.852	22185.4
287.309	23344.58
287.767	22557.06
288.224	21444.82
288.682	23535.77
289.139	25852.92
289.596	23659.01
290.053	24622.47
290.511	31112.79
290.968	37720.8
291.425	51222.41
291.882	42599.67
292.339	37043.63
292.796	36781.36
293.252	34630.37
293.709	27497.36
294.166	24628.22
294.623	27210.79
295.079	26096.31
295.536	26187.7
295.992	23756.37
296.449	23492.66
296.905	24413.58
297.362	23386.11
297.818	24607.91
298.274	25531.94
298.731	26021.59
299.187	25737.44
299.643	27627.43
300.099	33446.63
300.555	36687.72
301.011	30684.96
301.467	29535.43
301.923	34590.17
302.379	33778.43
302.835	33147.04
303.291	33197.82
303.746	37786.5
304.202	47762.24
304.658	47987.96
305.113	32249
305.569	31600.27
306.024	33704.31
306.479	32133.43
306.935	27047.7
307.39	29560.31
307.845	27299.32
308.301	27440.67
308.756	26743.65
309.211	25757.13
309.666	26352.65
310.121	32696.29
310.576	33199.72
311.031	32906.24
311.486	37690.81
311.94	37701.69
312.395	50383.86
312.85	94685.53
313.305	465984.28
313.759	2411209.01
314.214	174631.14
314.668	138556.2
315.123	116466.28
315.577	41728.33
316.032	37146.8
316.486	46578.31
316.94	36721.12
317.394	25552.85
317.849	19854.53
318.303	18789.92
318.757	17720.42
319.211	19619
319.665	17152.24
320.119	17363.61
320.572	24889.91
321.026	23223.51
321.48	19299.35
321.934	21060.37
322.387	21105.82
322.841	22789.67
323.295	20452.12
323.748	23582.02
324.202	23917.59
324.655	28756.53
325.108	40122.42
325.562	28337.57
326.015	33696.48
326.468	25470.05
326.921	28445.27
327.374	26516.59
327.827	27604.85
328.28	31235.27
328.733	20887.28
329.186	18373.1
329.639	17484.62
330.092	14735.67
330.545	14026.66
330.997	14140.9
331.45	15435.44
331.903	18072.02
332.355	31100.03
332.808	30185.58
333.26	24873.45
333.713	27009.77
334.165	27150.47
334.617	36264.7
335.069	29320
335.522	52984.62
335.974	58602.61
336.426	53526.71
336.878	37117.98
337.33	18804.92
337.782	18358.22
338.234	22983.82
338.686	27516.32
339.137	32563.8
339.589	30597
340.041	23985.51
340.493	20603.07
340.944	21062.25
341.396	22697.16
341.847	19085.54
342.299	22503.57
342.75	27489.48
343.201	24037.26
343.653	27567.61
344.104	33895.66
344.555	26714.04
345.006	41515.09
345.457	31732.31
345.908	25254.94
346.359	23742.49
346.81	19306.25
347.261	20364.33
347.712	20051.81
348.163	21522.97
348.613	21798.51
349.064	20355.8
349.515	17799.84
349.965	18259.68
350.416	22029.19
350.866	24165.04
351.317	27289.13
351.767	45198.75
352.217	56974.14
352.668	47176.92
353.118	43151.24
353.568	41597.66
354.018	32848.42
354.468	34641.35
354.918	24828.44
355.368	21716.27
355.818	30613.97
356.268	88113.98
356.718	368471.52
357.168	91881.32
357.617	46076.35
358.067	51302.4
358.517	48078.95
358.966	56378.66
359.416	63206.39
359.865	68312.59
360.315	81221.85
360.764	37976.72
361.213	21270.46
361.663	20137.83
362.112	24807.62
362.561	40098.22
363.01	30204.76
363.459	25424.39
363.908	27511.39
364.357	23304.98
364.806	39295.55
365.255	27028.5
365.703	24740.05
366.152	24756.58
366.601	20061.24
367.05	16278.32
367.498	14770.58
367.947	15438.55
368.395	16024.99
368.844	14160.13
369.292	17106.31
369.74	11830.43
370.189	18102.14
370.637	21177.09
371.085	18261.54
371.533	22194.92
371.981	21346.47
372.429	20367.23
372.877	21162.95
373.325	17728.33
373.773	18064.31
374.221	16058.35
374.669	19918.61
375.116	17216.53
375.564	17361.5
376.012	19374.16
376.459	15956.82
376.907	19065.02
377.354	23005.16
377.801	21400.1
378.249	24518.11
378.696	31245.79
379.143	37781.86
379.591	40149.13
380.038	67802.2
380.485	48923.82
380.932	52831.47
381.379	48301.55
381.826	35489.35
382.273	25170.35
382.72	22001.92
383.166	21404.6
383.613	13881.97
384.06	12499.75
384.506	14437.04
384.953	10567.83
385.4	10609
385.846	9274.58
386.292	9022.72
386.739	8823.61
387.185	8707.61
387.631	8704
388.078	8436.73
388.524	9015.57
388.97	8320.97
389.416	6930.07
389.862	7364.41
390.308	6969
390.754	7065.96
391.2	7646.68
391.645	7805.67
392.091	7450.76
392.537	7186.53
392.983	7172.05
393.428	7040.01
393.874	7529.26
394.319	7533.2
394.765	7131.01
395.21	7311.52
395.655	6831.31
396.101	6401.65
396.546	5772.39
396.991	5818.21
397.436	5398.47
397.881	5219.26
398.326	4933.05
398.771	4655.91
399.216	4072.51
399.661	3661.55
400.106	3641.95
400.551	3727.05
400.995	3341.44
401.44	3305.54
401.885	3103.93
402.329	3130.53
402.774	2998.91
403.218	2898.39
403.663	2783.52
404.107	2851.19
404.551	2867.17
404.995	2633.6
405.44	2537.05
405.884	2566.77
406.328	2473.29
406.772	2462.96
407.216	2237.94
407.66	2159.21
408.104	2048.06
408.547	1917.45
408.991	1856.01
409.435	1783.19
409.879	1751.2
410.322	1726.43
410.766	1663.24
411.209	1580.83
411.653	1513.46
412.096	1483.99
412.54	1482.82
412.983	1475.71
413.426	1479.92
413.869	1475.5
414.312	1448.88
414.756	1396.65
415.199	1328.18
415.642	1291.42
416.085	1295.75
416.527	1287.76
416.97	1304.88
417.413	1236.86
417.856	1220.47
418.298	1204.5
418.741	1196.78
419.184	1190.42
419.626	1238.05
420.069	1238.69
420.511	1244.46
420.953	1215.42
421.396	1204.18
421.838	1171.55
422.28	1198.1
422.722	1202.45
423.164	1217.24
423.606	1195.09
424.048	1193.05
424.49	1132.55
424.932	1127.57
425.374	1111.6
425.816	1131.07
426.258	1150.21
426.699	1164.98
427.141	1146.53
427.582	1164.73
428.024	1160.42
428.465	1152.93
428.907	1123.07
429.348	1109.25
429.789	1109.44
430.231	1086.11
430.672	1097.57
431.113	1070.43
431.554	1052.56
431.995	1021.45
432.436	983.38
432.877	962.68
433.318	947.56
433.759	944.42
434.2	944.7
434.64	932.97
435.081	934.6
435.522	886.31
435.962	854.34
436.403	836.43
436.843	851.4
437.284	834.86
437.724	811.34
438.164	812.46
438.604	793.46
439.045	761.04
439.485	731.01
439.925	714.54
440.365	697.02
440.805	687.78
441.245	678.34
441.685	652.23
442.125	645.25
442.564	649
443.004	633.73
443.444	632.87
443.883	635.38
444.323	627.87
444.762	629.74
445.202	637.89
445.641	649.68
446.081	645.64
446.52	651.57
446.959	644.93
447.398	630.33
447.837	624.33
448.276	613.52
448.716	619.55
449.154	626.25
449.593	611.36
450.032	608.39
450.471	596.31
450.91	596.32
451.349	595.16
451.787	592.2
452.226	598.95
452.664	598.8
453.103	599.19
453.541	596.79
453.98	595.78
454.418	600.5
454.856	592.24
455.295	589.75
455.733	594.49
456.171	597.06
456.609	595.97
457.047	595.29
457.485	601.45
457.923	601.27
458.361	593.51
458.798	594.6
459.236	591.46
459.674	593.07
460.111	596.07
460.549	588.71
460.987	585.03
461.424	583.78
461.862	581.48
462.299	572.02
462.736	572.23
463.173	572.39
463.611	566.14
464.048	565.03
464.485	570.43
464.922	564.71
465.359	561.18
465.796	557.85
466.233	554.13
466.67	548.39
467.106	548.6
467.543	541.72
467.98	536.51
468.416	522.19
468.853	516.91
469.29	501.48
469.726	496.33
470.162	484.1
470.599	473.34
471.035	468.49
471.471	456.75
471.907	452.53
472.344	450.08
472.78	450.91
473.216	456.28
473.652	450.82
474.088	448.37
474.523	446.65
474.959	450.97
475.395	448.23
475.831	445.45
476.266	448.96
476.702	448.33
477.138	443.43
477.573	441.23
478.008	439.31
478.444	441.78
478.879	447.45
479.314	449.4
479.75	449.31
480.185	450.83
480.62	454.68
481.055	455.9
481.49	458.98
481.925	466.31
482.36	475.43
482.795	487.63
483.229	500.59
483.664	509.96
484.099	511.27
484.534	518.39
484.968	523.12
485.403	523.94
485.837	523.06
486.271	521.84
486.706	521.5
487.14	514.26
487.574	506.09
488.009	500.06
488.443	495.08
488.877	500.46
489.311	501.08
489.745	506.71
490.179	511.74
490.613	521.4
491.046	525.15
491.48	529.26
491.914	529.92
492.348	533.94
492.781	537.4
493.215	538.8
493.648	540.18
494.082	545.48
494.515	546.14
494.948	552.54
495.382	556.35
495.815	560.62
496.248	564.42
496.681	574.85
497.114	584.32
497.547	593.34
497.98	604.46
498.413	610.34
498.846	618.23
499.279	625.8
499.711	629.61
500.144	632.97
500.577	643.26
501.009	653.85
501.442	663.48
501.874	666.73
502.306	670.43
502.739	678.86
503.171	692.24
503.603	697.03
504.036	707.12
504.468	713.76
504.9	726.17
505.332	733.3
505.764	739.08
506.196	747.29
506.627	762.81
507.059	776.94
507.491	786.35
507.923	788.3
508.354	805.59
508.786	818.27
509.217	838.91
509.649	854.57
510.08	874.99
510.512	893.81
510.943	911.63
511.374	925.57
511.805	947.26
512.237	969.86
512.668	1002.12
513.099	1030.21
513.53	1059.92
513.961	1082.52
514.391	1115.35
514.822	1150.82
515.253	1187.8
515.684	1216.18
516.114	1248.44
516.545	1273.29
516.975	1302.08
517.406	1324.64
517.836	1332.2
518.267	1342.98
518.697	1364.54
519.127	1373.99
519.558	1385.35
519.988	1394.22
520.418	1407.89
520.848	1427.94
521.278	1439.77
521.708	1468.22
522.138	1484.74
522.567	1518.76
522.997	1548.11
523.427	1567.3
523.857	1588.06
524.286	1601.06
524.716	1619.46
525.145	1642.45
525.575	1657.6
526.004	1676.44
526.433	1666.68
526.863	1669.29
527.292	1661.35
527.721	1669.91
528.15	1678.06
528.579	1680.68
529.008	1694.56
529.437	1719.33
529.866	1734.76
530.295	1753.78
530.724	1767.63
531.152	1798.54
531.581	1815.26
532.01	1836.45
532.438	1845.72
532.867	1862.58
533.295	1883.57
533.723	1891.84
534.152	1890.85
534.58	1891.99
535.008	1877.83
535.436	1881.3
535.865	1888.85
536.293	1904.92
536.721	1921.59
537.149	1948.66
537.576	1952.18
538.004	1966.6
538.432	1974.9
538.86	1974.56
539.287	1982.38
539.715	1996.32
540.143	1999.52
540.57	1996.47
540.998	1993.63
541.425	1970.22
541.852	1949.31
542.28	1947.67
542.707	1930.02
543.134	1916.33
543.561	1912.33
543.988	1904.97
544.415	1905.25
544.842	1901.24
545.269	1894.56
545.696	1896.12
546.123	1910.22
546.549	1899.11
546.976	1886.92
547.403	1887.63
547.829	1890.42
548.256	1893.1
548.682	1891.31
549.108	1883.4
549.535	1883.29
549.961	1886.04
550.387	1873.23
550.813	1867.99
551.24	1875.95
551.666	1877.98
552.092	1868.93
552.518	1862.93
552.943	1857.66
553.369	1864.98
553.795	1872.26
554.221	1873.26
554.646	1869.58
555.072	1880.99
555.498	1887.04
555.923	1896.38
556.349	1912.24
556.774	1921.19
557.199	1922.14
557.625	1927.72
558.05	1922.5
558.475	1933.71
558.9	1932.21
559.325	1924.55
559.75	1918.53
560.175	1910.4
560.6	1903.71
561.025	1900.18
561.449	1900.92
561.874	1907.02
562.299	1911.97
562.723	1917.61
563.148	1906.64
563.572	1909.97
563.997	1919.36
564.421	1923.98
564.846	1923.29
565.27	1925.39
565.694	1921.82
566.118	1932.22
566.542	1937.39
566.966	1927.89
567.39	1920.9
567.814	1907.26
568.238	1905.6
568.662	1909.23
569.086	1909.57
569.509	1914.99
569.933	1897.34
570.357	1888.69
570.78	1864.21
571.204	1849.35
571.627	1837.26
572.05	1833.25
572.474	1831.33
572.897	1815.93
573.32	1805.97
573.743	1794.34
574.166	1774.84
574.589	1774.62
575.012	1765.26
575.435	1763.74
575.858	1753.48
576.281	1740.91
576.704	1724.72
577.126	1710.73
577.549	1698.91
577.972	1687.93
578.394	1676.51
578.817	1668.52
579.239	1647.92
579.661	1632.17
580.084	1615.79
580.506	1602.03
580.928	1597.91
581.35	1586.19
581.772	1581.89
582.194	1568.38
582.616	1554.94
583.038	1540.08
583.46	1528.46
583.882	1524.42
584.303	1528.92
584.725	1523.77
585.147	1524.56
585.568	1534.4
585.99	1546.15
586.411	1551.7
586.833	1565.72
587.254	1565.91
587.675	1579.03
588.096	1590.7
588.518	1585.4
588.939	1568.13
589.36	1565.41
589.781	1553.85
590.202	1524.14
590.623	1513.82
591.043	1510.24
591.464	1496.87
591.885	1493.26
592.305	1485.84
592.726	1472.15
593.147	1471.68
593.567	1465.83
593.987	1458.41
594.408	1452.3
594.828	1450.48
595.248	1444.45
595.669	1426.43
596.089	1419.03
596.509	1411.74
596.929	1398.4
597.349	1398.34
597.769	1387.97
598.189	1381.22
598.608	1380.92
599.028	1382.44
599.448	1381.15
599.867	1368.21
600.287	1363.14
600.706	1358.6
601.126	1348.77
601.545	1347.27
601.965	1344.32
602.384	1338.76
602.803	1341.04
603.222	1335.05
603.641	1328.41
604.061	1324.7
604.48	1320.48
604.898	1326.69
605.317	1329.34
605.736	1330.23
606.155	1327.01
606.574	1317.88
606.992	1322.81
607.411	1317.16
607.829	1313.81
608.248	1309.47
608.666	1305.5
609.085	1303.83
609.503	1293.93
609.921	1287.62
610.339	1288.21
610.758	1286.22
611.176	1280.95
611.594	1270.45
612.012	1264.78
612.43	1261.4
612.847	1265.39
613.265	1265.08
613.683	1267.18
614.101	1268.14
614.518	1263.18
614.936	1252.34
615.353	1236.22
615.771	1231.35
616.188	1231.17
616.606	1227.43
617.023	1219.82
617.44	1206.41
617.857	1198.51
618.274	1189.67
618.691	1182.61
619.108	1172.56
619.525	1165.89
619.942	1171.65
620.359	1173.65
620.776	1166.16
621.192	1162.21
621.609	1159.57
622.026	1165.27
622.442	1170.4
622.859	1172.66
623.275	1165.82
623.691	1171.58
624.108	1182.24
624.524	1194.22
624.94	1194.05
625.356	1203.97
625.772	1215.23
626.188	1226.18
626.604	1225.88
627.02	1221.58
627.436	1219.51
627.852	1225.71
628.268	1235.7
628.683	1226.8
629.099	1219.77
629.514	1214.87
629.93	1217.07
630.345	1220.76
630.761	1215.29
631.176	1218.85
631.591	1212.98
632.007	1206.87
632.422	1203.35
632.837	1192.45
633.252	1189.28
633.667	1177.75
634.082	1168.12
634.497	1155.44
634.911	1136.72
635.326	1132.37
635.741	1114.08
636.155	1103.53
636.57	1102.57
636.984	1100.93
637.399	1099.8
637.813	1096.8
638.228	1093.91
638.642	1095.39
639.056	1083.98
639.47	1080.33
639.884	1069.74
640.298	1061.72
640.712	1057.26
641.126	1042.4
641.54	1031.19
641.954	1023.08
642.368	1010.26
642.781	1001.49
643.195	982.63
643.609	979.3
644.022	971.19
644.436	964.47
644.849	950.68
645.262	937.23
645.676	936.5
646.089	928.71
646.502	913.88
646.915	906.19
647.328	888.47
647.741	884.41
648.154	872.2
648.567	868.67
648.98	856.27
649.393	855.38
649.805	851.63
650.218	843.63
650.631	830.7
651.043	824.44
651.456	817.54
651.868	816.83
652.28	830.26
652.693	840.39
653.105	844.15
653.517	851.04
653.929	849.78
654.341	853.81
654.753	842.9
655.165	845.87
655.577	841.38
655.989	836.72
656.401	828.77
656.813	797.94
657.224	779.46
657.636	753.82
658.047	737.03
658.459	720.31
658.87	711.14
659.282	699.36
659.693	682.36
660.104	670.99
660.515	658.02
660.926	655.39
661.338	651.16
661.749	644.34
662.159	636.79
662.57	632.34
662.981	627.58
663.392	619.93
663.803	621.98
664.213	618.19
664.624	612.62
665.035	615.11
665.445	603.78
665.855	599.02
666.266	592.48
666.676	589.69
667.086	582.14
667.497	581.41
667.907	576.15
668.317	569.92
668.727	568.88
669.137	569.95
669.547	568.04
669.956	569.44
670.366	569.97
670.776	572.2
671.186	575.27
671.595	579.11
672.005	582.05
672.414	583.07
672.824	583.32
673.233	585.49
673.642	587.22
674.052	589.72
674.461	593.18
674.87	598.09
675.279	596.83
675.688	598.65
676.097	600.95
676.506	599.84
676.915	611.78
677.323	614.84
677.732	615.07
678.141	616.74
678.549	610.64
678.958	609.76
679.366	609.7
679.775	613.82
680.183	624.96
680.592	630.55
681	636.83
681.408	632.61
681.816	639.16
682.224	647.82
682.632	658.27
683.04	684.33
683.448	707.34
683.856	735.45
684.264	768.3
684.671	796.09
685.079	831.08
685.487	869.59
685.894	924.79
686.302	971.85
686.709	1011.46
687.116	1057.58
687.524	1096.84
687.931	1132.73
688.338	1162.9
688.745	1189.77
689.152	1222.99
689.559	1267.24
689.966	1310.82
690.373	1334.5
690.78	1376.15
691.187	1438.34
691.593	1487.89
692	1531.54
692.407	1592.32
692.813	1670.09
693.22	1734.68
693.626	1800.85
694.032	1854.26
694.439	1933.47
694.845	1997.73
695.251	2077.19
695.657	2149.14
696.063	2251.32
696.469	2331.17
696.875	2406.97
697.281	2450.8
697.687	2504.19
