Data from N_3_DEC_CT_2N_Splice17_13-01-54-796.txt Node
Date: Sat Mar 14 13:01:54 EDT 2020
User: sa697716
Spectrometer: FLMS03696
Trigger mode: 0
Integration Time (sec): 3.180400E-1
Scans to average: 20
Electric dark correction enabled: true
Nonlinearity correction enabled: true
Boxcar width: 5
XAxis mode: Wavelengths
Number of Pixels in Spectrum: 2048
>>>>>Begin Spectral Data<<<<<
187.83	-247323.54
188.298	1898.31
188.766	1092.2
189.233	1080.59
189.701	1514.52
190.169	2117.12
190.636	782.18
191.104	623.26
191.571	84.3
192.039	-54.05
192.506	-37.42
192.974	494.57
193.441	-643.15
193.908	22.89
194.375	69.04
194.842	118.73
195.31	215.39
195.777	220.94
196.244	418.37
196.711	467.35
197.177	571.35
197.644	782.91
198.111	1364.77
198.578	1909.98
199.045	1514.73
199.511	2494.41
199.978	2891.84
200.445	2486.74
200.911	2747.5
201.378	3071
201.844	2790.05
202.31	4782.01
202.777	5023.4
203.243	2777
203.709	2660.26
204.176	3184.57
204.642	2626.35
205.108	2470.51
205.574	2003.37
206.04	1825.39
206.506	1706.05
206.972	1617.96
207.438	1573.23
207.903	1794.59
208.369	1575.14
208.835	1561.1
209.301	1640.75
209.766	1693.17
210.232	1683.64
210.697	2090.48
211.163	2580.14
211.628	3923.93
212.094	3292.66
212.559	4032.51
213.024	2506.67
213.49	3057.54
213.955	2988.56
214.42	2921.21
214.885	2683.61
215.35	2583.83
215.815	2499.08
216.28	2661.99
216.745	2159.82
217.21	2345.55
217.675	2170.02
218.14	2462.31
218.604	2773.74
219.069	3200.97
219.534	3382.56
219.998	3974.53
220.463	4832.62
220.927	5984.5
221.392	5634.79
221.856	5744.38
222.32	7240.04
222.785	8953.95
223.249	11287.8
223.713	12608.37
224.177	12614.9
224.642	16203.77
225.106	19937.04
225.57	21777.54
226.034	16164.31
226.497	24670.64
226.961	22244.27
227.425	25977.52
227.889	28808.15
228.353	28784.06
228.816	59504.05
229.28	56748.31
229.744	47814.06
230.207	29081.27
230.671	28637.03
231.134	47424.78
231.597	54735.31
232.061	54796.52
232.524	53437.18
232.987	36796.79
233.45	33141.95
233.914	29679.92
234.377	30448.71
234.84	27884.94
235.303	32870.56
235.766	36692.46
236.229	37908.98
236.691	23842.64
237.154	26789.98
237.617	20136.08
238.08	20625.18
238.542	24162.08
239.005	17285.25
239.468	17165.56
239.93	16180.23
240.393	14702.29
240.855	12888.55
241.317	13187.13
241.78	16043.94
242.242	16574.95
242.704	17914.77
243.166	15597.61
243.629	14139.23
244.091	16292.86
244.553	17862.82
245.015	19206.41
245.477	24830.85
245.939	36401.47
246.4	38668.02
246.862	37536.18
247.324	35402.91
247.786	39636.36
248.247	51985.1
248.709	53690.19
249.17	40198.17
249.632	37869.82
250.093	43902.64
250.555	37944.76
251.016	23166.34
251.477	21986.76
251.939	23774.76
252.4	24959.17
252.861	29652
253.322	27612.27
253.783	32904.91
254.244	42666.93
254.705	33663.93
255.166	29946.98
255.627	29534.6
256.088	41686.61
256.549	44304.52
257.009	38184.08
257.47	46354.32
257.931	37754.73
258.391	28271.34
258.852	29159.1
259.312	30583.45
259.773	37809.58
260.233	31973.93
260.694	26974.14
261.154	30631.57
261.614	24591.4
262.074	21995.15
262.534	22860.54
262.994	21574.33
263.455	28764.28
263.915	24231.13
264.374	22843.48
264.834	24951.58
265.294	27665.42
265.754	28680.58
266.214	27151.79
266.673	25467.46
267.133	32157.74
267.593	31932.53
268.052	39100.83
268.512	34035.23
268.971	41090.19
269.431	45064.73
269.89	40359.28
270.349	60515.68
270.809	67493.3
271.268	60643.46
271.727	135880.47
272.186	88024.17
272.645	66026.19
273.104	47625.81
273.563	68980.05
274.022	54282.62
274.481	46189.93
274.94	35589.58
275.399	26480.65
275.857	30852.21
276.316	41788.83
276.775	37237.08
277.233	36709.71
277.692	34384.63
278.15	38917.61
278.609	40064.83
279.067	37076.68
279.525	34479.31
279.984	44539.06
280.442	53463.21
280.9	52728.79
281.358	34678.05
281.816	32327.45
282.274	31625.94
282.732	32650.41
283.19	32828.68
283.648	28345.28
284.106	30157.56
284.564	30623.7
285.021	28441.34
285.479	21206.25
285.937	19277.07
286.394	16911.06
286.852	17429.34
287.309	18330.98
287.767	17729.85
288.224	16857.23
288.682	18482.03
289.139	20304.13
289.596	18595.67
290.053	19309.05
290.511	24374.09
290.968	29558.89
291.425	40170.62
291.882	33389.16
292.339	29076.52
292.796	28840.23
293.252	27217.29
293.709	21619.53
294.166	19360.28
294.623	21410.36
295.079	20552.02
295.536	20645.47
295.992	18750.35
296.449	18511.72
296.905	19237.6
297.362	18432.36
297.818	19390.03
298.274	20103.89
298.731	20488.92
299.187	20289.19
299.643	21769.72
300.099	26319.55
300.555	28866.1
301.011	24106.02
301.467	23216.1
301.923	27162.92
302.379	26534.1
302.835	26044.71
303.291	26045.77
303.746	29646.09
304.202	37453.44
304.658	37602.26
305.113	25291.76
305.569	24810.18
306.024	26430.86
306.479	25217.19
306.935	21251.9
307.39	23186.51
307.845	21421.47
308.301	21549.95
308.756	20965.73
309.211	20202.11
309.666	20684.08
310.121	25674.94
310.576	26028.25
311.031	25821.1
311.486	29541.14
311.94	29510.62
312.395	39483.14
312.85	74202.76
313.305	364472
313.759	1889681.41
314.214	136860.73
314.668	108568.82
315.123	91171.22
315.577	32663.84
316.032	29040.42
316.486	36410.53
316.94	28735.01
317.394	20002.69
317.849	15531.7
318.303	14706.92
318.757	13882.88
319.211	15355.1
319.665	13430.52
320.119	13590.2
320.572	19527.98
321.026	18258.33
321.48	15177.45
321.934	16539.6
322.387	16590.75
322.841	17943.3
323.295	16121.76
323.748	18549.29
324.202	18810.98
324.655	22571.82
325.108	31560.26
325.562	22265.42
326.015	26469.43
326.468	20037.78
326.921	22407.49
327.374	20851.44
327.827	21680.62
328.28	24557.31
328.733	16421.91
329.186	14430.88
329.639	13746.7
330.092	11579.99
330.545	11023.3
330.997	11105.84
331.45	12130.13
331.903	14229.11
332.355	24480.38
332.808	23794.83
333.26	19637.41
333.713	21324.78
334.165	21459.09
334.617	28651.07
335.069	23133.53
335.522	41769.86
335.974	46258.48
336.426	42172.74
336.878	29169.73
337.33	14800.42
337.782	14435.75
338.234	18051.73
338.686	21639.51
339.137	25645.58
339.589	24159.74
340.041	18907.85
340.493	16239.66
340.944	16607.32
341.396	17909.68
341.847	15056.72
342.299	17765.07
342.75	21709.98
343.201	18961.99
343.653	21768.78
344.104	26762.91
344.555	21085.44
345.006	32873.18
345.457	25204.26
345.908	20016.07
346.359	18812.3
346.81	15331.92
347.261	16130.95
347.712	15870.35
348.163	17018.4
348.613	17228.7
349.064	16076.09
349.515	14049.01
349.965	14421.98
350.416	17342.61
350.866	19037.87
351.317	21492.6
351.767	35540.83
352.217	44848.38
352.668	37196.29
353.118	34060.79
353.568	32835.5
354.018	25997.81
354.468	27416.54
354.918	19645.87
355.368	17174.16
355.818	24274.9
356.268	69895.34
356.718	292679.3
357.168	73016.49
357.617	36599.77
358.067	40629.78
358.517	38008.62
358.966	44502.52
359.416	49846.83
359.865	53827.46
360.315	64207.72
360.764	29943.4
361.213	16766.21
361.663	15878.08
362.112	19564.02
362.561	31617.15
363.01	23858.53
363.459	20091.57
363.908	21710.64
364.357	18446.54
364.806	31187.82
365.255	21412.96
365.703	19626.72
366.152	19653.84
366.601	15916.89
367.05	12916.61
367.498	11738.45
367.947	12252.41
368.395	12716.06
368.844	11245.47
369.292	13550.9
369.74	9344.01
370.189	14284.14
370.637	16740.9
371.085	14429.26
371.533	17547.29
371.981	16907.97
372.429	16115.18
372.877	16783.07
373.325	14047.92
373.773	14291.52
374.221	12713.34
374.669	15759.88
375.116	13645.05
375.564	13721.03
376.012	15351.91
376.459	12648.09
376.907	15072.77
377.354	18181
377.801	16941.58
378.249	19458.95
378.696	24915.65
379.143	30130.36
379.591	32025.8
380.038	54016.6
380.485	38958.69
380.932	41911.34
381.379	38314.63
381.826	28237.15
382.273	20050.31
382.72	17515.86
383.166	17059.05
383.613	11056.87
384.06	9945.73
384.506	11503.61
384.953	8427.52
385.4	8471.06
385.846	7409.97
386.292	7222.32
386.739	7060.73
387.185	6968.62
387.631	6952.17
388.078	6731.86
388.524	7169.67
388.97	6619.13
389.416	5525.58
389.862	5867.78
390.308	5556.99
390.754	5639.03
391.2	6102.52
391.645	6223.39
392.091	5950.78
392.537	5744.37
392.983	5744.69
393.428	5654.12
393.874	6040.68
394.319	6035.8
394.765	5726.3
395.21	5872.88
395.655	5495.4
396.101	5139.28
396.546	4633.66
396.991	4655.04
397.436	4324.33
397.881	4167.16
398.326	3933.56
398.771	3718.91
399.216	3244.28
399.661	2915.24
400.106	2903.22
400.551	2966.02
400.995	2652.36
401.44	2620.88
401.885	2459.61
402.329	2477.17
402.774	2376.31
403.218	2304.9
403.663	2213.07
404.107	2270.94
404.551	2283.34
404.995	2087.54
405.44	2008.82
405.884	2033.2
406.328	1961.64
406.772	1954.66
407.216	1778.4
407.66	1715.08
408.104	1618.94
408.547	1517.62
408.991	1467.55
409.435	1410.19
409.879	1388.56
410.322	1370.13
410.766	1325.07
411.209	1259.98
411.653	1205.91
412.096	1181.05
412.54	1178.03
412.983	1170.33
413.426	1172.89
413.869	1170.69
414.312	1150.11
414.756	1108.94
415.199	1056.36
415.642	1022.63
416.085	1022.66
416.527	1015.49
416.97	1028.23
417.413	977.76
417.856	966.48
418.298	954.51
418.741	945.77
419.184	938.57
419.626	974.61
420.069	972.87
420.511	980.09
420.953	956.13
421.396	946.8
421.838	921.56
422.28	940.42
422.722	945.41
423.164	957.07
423.606	942.49
424.048	941.18
424.49	894.03
424.932	887.96
425.374	872.47
425.816	891.01
426.258	905.74
426.699	916.86
427.141	904.44
427.582	915.68
428.024	911.76
428.465	905.48
428.907	883.49
429.348	872.13
429.789	872.6
430.231	857.24
430.672	866.2
431.113	847.05
431.554	830.8
431.995	808.49
432.436	781.4
432.877	763.49
433.318	750.79
433.759	745.95
434.2	745.31
434.64	737.61
435.081	738.34
435.522	701.09
435.962	675.1
436.403	662.48
436.843	671.88
437.284	655.19
437.724	633.66
438.164	632.73
438.604	618.57
439.045	596.81
439.485	573.25
439.925	559.67
440.365	543.48
440.805	535.29
441.245	527.79
441.685	506.9
442.125	502.19
442.564	506.49
443.004	496.02
443.444	493.72
443.883	493.99
444.323	487.65
444.762	485.99
445.202	491.95
445.641	501.54
446.081	498.02
446.52	502.16
446.959	497.92
447.398	487.33
447.837	480.73
448.276	472.27
448.716	475.3
449.154	479.65
449.593	470.21
450.032	468.24
450.471	457.08
450.91	455.9
451.349	455.16
451.787	452.48
452.226	457.93
452.664	456.67
453.103	458.3
453.541	456.7
453.98	455.42
454.418	457.22
454.856	450.75
455.295	450.4
455.733	453.02
456.171	453.99
456.609	454.29
457.047	453.83
457.485	460.59
457.923	460.28
458.361	452.67
458.798	453.66
459.236	451.8
459.674	452.51
460.111	455.29
460.549	453.04
460.987	449.99
461.424	449.01
461.862	446.3
462.299	439.61
462.736	439.62
463.173	441.41
463.611	437.79
464.048	437.48
464.485	442.05
464.922	436.8
465.359	431.46
465.796	430.86
466.233	427.16
466.67	424.27
467.106	423.23
467.543	416.82
467.98	411.02
468.416	399.55
468.853	395.59
469.29	382.65
469.726	378.69
470.162	369.63
470.599	361.1
471.035	357.08
471.471	347.41
471.907	343.62
472.344	341.8
472.78	344.22
473.216	346.52
473.652	341.94
474.088	340.87
474.523	340.04
474.959	343.38
475.395	339.41
475.831	337.79
476.266	339.49
476.702	339.57
477.138	336.65
477.573	333.71
478.008	332.8
478.444	334.63
478.879	338.67
479.314	339.96
479.75	339.24
480.185	340.71
480.62	342.12
481.055	343.3
481.49	345.54
481.925	349.46
482.36	357.65
482.795	367.12
483.229	375.84
483.664	382.55
484.099	382.83
484.534	388.86
484.968	392.1
485.403	393.08
485.837	391.62
486.271	389.66
486.706	389.77
487.14	383.1
487.574	376.86
488.009	373.11
488.443	368.85
488.877	372.52
489.311	372.34
489.745	377.3
490.179	380.74
490.613	388.91
491.046	391.63
491.48	393.91
491.914	393.95
492.348	397.24
492.781	400.42
493.215	401.36
493.648	402.04
494.082	406.13
494.515	405.55
494.948	411.46
495.382	413.58
495.815	416.82
496.248	420.71
496.681	429.23
497.114	435.93
497.547	442.19
497.98	452.27
498.413	458.34
498.846	464.93
499.279	471.86
499.711	474.71
500.144	477.73
500.577	486.51
501.009	494.9
501.442	503.95
501.874	507.46
502.306	511.2
502.739	519.17
503.171	529.63
503.603	534.8
504.036	543.24
504.468	549.72
504.9	559.28
505.332	566.16
505.764	572.77
506.196	580.19
506.627	593.72
507.059	605.72
507.491	613.6
507.923	617.12
508.354	630.23
508.786	641.01
509.217	656.83
509.649	671.31
510.08	688.84
510.512	704.54
510.943	719.18
511.374	731.5
511.805	750.25
512.237	768.94
512.668	795.97
513.099	819.86
513.53	845.89
513.961	866.87
514.391	895.61
514.822	925.72
515.253	957.47
515.684	982.44
516.114	1009.83
516.545	1032.15
516.975	1057.18
517.406	1076.84
517.836	1085.51
518.267	1096.36
518.697	1116.86
519.127	1127.17
519.558	1138.27
519.988	1146.57
520.418	1160.25
520.848	1179.61
521.278	1191.42
521.708	1224.89
522.138	1240.38
522.567	1270.08
522.997	1294.35
523.427	1310.81
523.857	1329.35
524.286	1343.52
524.716	1362
525.145	1381.04
525.575	1394.21
526.004	1410.79
526.433	1397.16
526.863	1400.89
527.292	1396.77
527.721	1406.2
528.15	1413.75
528.579	1416.62
529.008	1427.66
529.437	1448.5
529.866	1464.17
530.295	1481.26
530.724	1494.48
531.152	1519.86
531.581	1534.79
532.01	1551.96
532.438	1560.68
532.867	1576.91
533.295	1595.54
533.723	1603.65
534.152	1603.86
534.58	1604.53
535.008	1592.01
535.436	1595.15
535.865	1603.27
536.293	1615.5
536.721	1631.45
537.149	1655.03
537.576	1658.22
538.004	1670.62
538.432	1678.12
538.86	1677.71
539.287	1684.88
539.715	1698.42
540.143	1700.7
540.57	1697.92
540.998	1696.36
541.425	1676.78
541.852	1658.19
542.28	1656.33
542.707	1641.89
543.134	1630.14
543.561	1626.36
543.988	1620.48
544.415	1620
544.842	1616.93
545.269	1611.31
545.696	1613.61
546.123	1624.49
546.549	1617.01
546.976	1606.23
547.403	1606
547.829	1607.77
548.256	1610.44
548.682	1607.84
549.108	1602.65
549.535	1602.96
549.961	1605.3
550.387	1594.91
550.813	1591.53
551.24	1597.45
551.666	1599.49
552.092	1591.5
552.518	1585.78
552.943	1580.68
553.369	1587.01
553.795	1591.04
554.221	1590.04
554.646	1587.4
555.072	1596.29
555.498	1599.53
555.923	1607.06
556.349	1620.53
556.774	1627.88
557.199	1629.71
557.625	1634.2
558.05	1628.73
558.475	1638.85
558.9	1638.64
559.325	1631.64
559.75	1625.34
560.175	1618.31
560.6	1611.11
561.025	1606.78
561.449	1606.95
561.874	1609.03
562.299	1612.22
562.723	1616.22
563.148	1605.04
563.572	1605.98
563.997	1611.58
564.421	1613.61
564.846	1611.9
565.27	1613.04
565.694	1608.34
566.118	1615.53
566.542	1620.67
566.966	1611.94
567.39	1605.36
567.814	1593.67
568.238	1591.15
568.662	1593.09
569.086	1592.07
569.509	1595.97
569.933	1579.55
570.357	1570.97
570.78	1549.02
571.204	1534.71
571.627	1522.51
572.05	1517.41
572.474	1514.39
572.897	1501.45
573.32	1491.6
573.743	1479.88
574.166	1461.59
574.589	1459.17
575.012	1450.37
575.435	1448.13
575.858	1437.07
576.281	1426.74
576.704	1412.91
577.126	1399.2
577.549	1387.76
577.972	1376.75
578.394	1368.06
578.817	1361.34
579.239	1343.59
579.661	1330.36
580.084	1315.27
580.506	1302.66
580.928	1296.95
581.35	1285.45
581.772	1280.24
582.194	1266.89
582.616	1255.64
583.038	1241.28
583.46	1230.82
583.882	1227.32
584.303	1229.58
584.725	1224.51
585.147	1226.33
585.568	1232.94
585.99	1241.59
586.411	1247.11
586.833	1258.45
587.254	1259.05
587.675	1269.32
588.096	1277.88
588.518	1272.13
588.939	1257.55
589.36	1254.67
589.781	1244.37
590.202	1221.8
590.623	1213.74
591.043	1209.52
591.464	1198.43
591.885	1193.37
592.305	1187.68
592.726	1176.44
593.147	1177.1
593.567	1171.88
593.987	1165.27
594.408	1159.95
594.828	1156.74
595.248	1151
595.669	1135.23
596.089	1129.06
596.509	1124.16
596.929	1112.88
597.349	1112.02
597.769	1103.45
598.189	1098.07
598.608	1098.57
599.028	1099.29
599.448	1098.94
599.867	1089.04
600.287	1085.48
600.706	1081.6
601.126	1072.98
601.545	1071.52
601.965	1070.2
602.384	1064.89
602.803	1066.08
603.222	1061.13
603.641	1055.14
604.061	1051.29
604.48	1046.83
604.898	1051.55
605.317	1053.12
605.736	1053.94
606.155	1051.37
606.574	1042.42
606.992	1045.7
607.411	1040.41
607.829	1037.25
608.248	1033.94
608.666	1031.04
609.085	1029.44
609.503	1021.78
609.921	1015.93
610.339	1015.52
610.758	1012.52
611.176	1007.39
611.594	998.68
612.012	995.09
612.43	991.69
612.847	993.65
613.265	992.13
613.683	993.35
614.101	992.76
614.518	987.46
614.936	978.21
615.353	966.14
615.771	962.6
616.188	960.66
616.606	956.49
617.023	949.43
617.44	938.47
617.857	931.68
618.274	922.69
618.691	917.12
619.108	909.82
619.525	904.56
619.942	908.38
620.359	909.07
620.776	904.73
621.192	900.81
621.609	899.14
622.026	902.9
622.442	906.7
622.859	909.61
623.275	904.41
623.691	907.67
624.108	915.25
624.524	924.97
624.94	924.61
625.356	931.49
625.772	940.32
626.188	947.5
626.604	948.43
627.02	944.92
627.436	943.09
627.852	947.43
628.268	956.16
628.683	949.47
629.099	942.2
629.514	938.26
629.93	940.38
630.345	942
630.761	938.89
631.176	940.58
631.591	936.78
632.007	931.99
632.422	928.94
632.837	919.06
633.252	917.3
633.667	908.93
634.082	900.82
634.497	889.76
634.911	875.77
635.326	871.13
635.741	856.95
636.155	846.67
636.57	845.37
636.984	842.35
637.399	841.83
637.813	836.68
638.228	832.82
638.642	831.92
639.056	822.22
639.47	818.48
639.884	809.49
640.298	801.74
640.712	798.11
641.126	786.08
641.54	776.84
641.954	768.79
642.368	757.49
642.781	751
643.195	736.58
643.609	733.95
644.022	727.58
644.436	721.56
644.849	710.87
645.262	699.63
645.676	698.2
646.089	693.47
646.502	682.38
646.915	677.34
647.328	663.01
647.741	659.36
648.154	648.51
648.567	645.01
648.98	635.59
649.393	634.52
649.805	632.6
650.218	625.32
650.631	613.46
651.043	608.25
651.456	604.34
651.868	603.83
652.28	613.67
652.693	620.98
653.105	623.07
653.517	628.42
653.929	627.24
654.341	628.18
654.753	620.62
655.165	624.2
655.577	621.41
655.989	615.75
656.401	609.15
656.813	586.76
657.224	574.76
657.636	555.71
658.047	544.44
658.459	531.4
658.87	524.34
659.282	516.11
659.693	503.27
660.104	494.19
660.515	485.87
660.926	483.79
661.338	481.45
661.749	475.17
662.159	470.47
662.57	465.26
662.981	462.51
663.392	458.29
663.803	459.36
664.213	456.7
664.624	453.75
665.035	454.98
665.445	446.77
665.855	443.17
666.266	439.94
666.676	437.93
667.086	433.38
667.497	432.43
667.907	428.25
668.317	423.97
668.727	424.75
669.137	424.2
669.547	423.25
669.956	424.52
670.366	425.69
670.776	426.24
671.186	429.1
671.595	432.05
672.005	434.07
672.414	435.16
672.824	435.41
673.233	436.04
673.642	439.34
674.052	442.15
674.461	445.55
674.87	448.75
675.279	449.65
675.688	451.12
676.097	453.2
676.506	453.79
676.915	463.82
677.323	465.73
677.732	466.26
678.141	467.51
678.549	462.6
678.958	462.18
679.366	463.16
679.775	467.11
680.183	475.94
680.592	480.61
681	484.56
681.408	480.85
681.816	486.65
682.224	493.07
682.632	500.47
683.04	519.55
683.448	536
683.856	555.9
684.264	579.03
684.671	599.09
685.079	624.11
685.487	654.15
685.894	694.77
686.302	730.07
686.709	760.03
687.116	795.54
687.524	826.51
687.931	855
688.338	881.52
688.745	903.81
689.152	931.84
689.559	969.45
689.966	1006.21
690.373	1030.16
690.78	1066.81
691.187	1119.29
691.593	1161.07
692	1201.45
692.407	1256.17
692.813	1321.48
693.22	1378.68
693.626	1435.69
694.032	1484.06
694.439	1553.47
694.845	1610.37
695.251	1680.32
695.657	1744.01
696.063	1834.64
696.469	1906.78
696.875	1977.07
697.281	2021.76
697.687	2071.12
698.093	2117.06
698.498	2193.08
698.904	2254.52
699.31	2341.17
699.715	2408.58
700.12	2498.94
700.526	2528.36
700.931	2597.28
701.337	2651.3
