Data from N_3_DEC_OH_4N_Splice17_13-27-02-568.txt Node
Date: Sat Mar 14 13:27:02 EDT 2020
User: sa697716
Spectrometer: FLMS03696
Trigger mode: 0
Integration Time (sec): 3.180400E-1
Scans to average: 20
Electric dark correction enabled: true
Nonlinearity correction enabled: true
Boxcar width: 5
XAxis mode: Wavelengths
Number of Pixels in Spectrum: 2048
>>>>>Begin Spectral Data<<<<<
187.83	-372481.78
188.298	2640.81
188.766	1444.5
189.233	1299.87
189.701	1913.37
190.169	2654.61
190.636	1010.6
191.104	877.7
191.571	148.45
192.039	-54.54
192.506	-125.07
192.974	400.62
193.441	-789.93
193.908	-294.78
194.375	-33.38
194.842	102.24
195.31	182.05
195.777	214.53
196.244	453.92
196.711	453.28
197.177	549.46
197.644	732.47
198.111	1308.43
198.578	1872.99
199.045	1505.01
199.511	2429.4
199.978	2798.73
200.445	2414.84
200.911	2667.2
201.378	2976.34
201.844	2707.16
202.31	4597.41
202.777	4808.43
203.243	2655.78
203.709	2523.58
204.176	3029.68
204.642	2505.98
205.108	2347.68
205.574	1900.13
206.04	1734.24
206.506	1615.21
206.972	1527.79
207.438	1482.98
207.903	1691.28
208.369	1503.74
208.835	1488.23
209.301	1572.01
209.766	1598.49
210.232	1586.42
210.697	1954.54
211.163	2405.44
211.628	3635.1
212.094	3057.46
212.559	3826.69
213.024	2378.65
213.49	2884.95
213.955	2826.06
214.42	2721.98
214.885	2550.74
215.35	2450.63
215.815	2418.44
216.28	2546.91
216.745	2084.96
217.21	2270.15
217.675	2066.23
218.14	2344.86
218.604	2619.24
219.069	3018.95
219.534	3210.47
219.998	3730.3
220.463	4530.85
220.927	5546.93
221.392	5259.1
221.856	5348.86
222.32	6742.97
222.785	8340.89
223.249	10523.24
223.713	11793.66
224.177	11812.91
224.642	15155.74
225.106	18699.82
225.57	20497.67
226.034	15283.36
226.497	23263.48
226.961	20980.86
227.425	24470.84
227.889	27140.18
228.353	27142.76
228.816	56101.04
229.28	53614.87
229.744	45168.3
230.207	27436.02
230.671	26948.66
231.134	44512.96
231.597	51417.07
232.061	51416.51
232.524	50118.03
232.987	34590.49
233.45	31093.99
233.914	27861.83
234.377	28553.47
234.84	26138.42
235.303	30812.33
235.766	34419.55
236.229	35550.28
236.691	22342.15
237.154	25093.44
237.617	18884.86
238.08	19318.95
238.542	22610.5
239.005	16138.57
239.468	16019.59
239.93	15089.92
240.393	13715.81
240.855	12023.88
241.317	12323.91
241.78	14993.09
242.242	15487.65
242.704	16725.42
243.166	14552.36
243.629	13212.51
244.091	15241.04
244.553	16686.62
245.015	17937.18
245.477	23194.1
245.939	33991.34
246.4	36048.36
246.862	35016.42
247.324	33053.04
247.786	36965.69
248.247	48473.05
248.709	50025.74
249.17	37370.47
249.632	35240.62
250.093	40911.33
250.555	35294.3
251.016	21525.63
251.477	20407.35
251.939	22029.89
252.4	23089.34
252.861	27418.9
253.322	25487.35
253.783	30318.75
254.244	39318.41
254.705	30976.16
255.166	27500.64
255.627	27092.09
256.088	38214.76
256.549	40641.57
257.009	35000.22
257.47	42489.84
257.931	34613.87
258.391	25953.72
258.852	26741.18
259.312	28032.15
259.773	34595.96
260.233	29232.38
260.694	24654.38
261.154	27938.25
261.614	22414.37
262.074	20033.97
262.534	20809.89
262.994	19593.97
263.455	26073.31
263.915	21986.33
264.374	20686.38
264.834	22570.91
265.294	25001.45
265.754	25870.23
266.214	24475.87
266.673	22895.65
267.133	28895.88
267.593	28623.3
268.052	35034.51
268.512	30410.16
268.971	36652.13
269.431	40175.72
269.89	35978.65
270.349	53876.72
270.809	60072.07
271.268	54044.01
271.727	121174.28
272.186	78395.33
272.645	58805.2
273.104	42416.13
273.563	61443.21
274.022	48253.78
274.481	41078.07
274.94	31616.14
275.399	23505.22
275.857	27365.5
276.316	36979.17
276.775	32914.29
277.233	32420.57
277.692	30314.37
278.15	34284.6
278.609	35300.56
279.067	32684.78
279.525	30384.18
279.984	39282.36
280.442	47197.93
280.9	46575.35
281.358	30624.12
281.816	28524.02
282.274	27909.01
282.732	28863.53
283.19	28982.55
283.648	24987.61
284.106	26583.7
284.564	26957.7
285.021	24967.41
285.479	18586.16
285.937	16857.81
286.394	14790.43
286.852	15216.47
287.309	15987.02
287.767	15439.58
288.224	14682.76
288.682	16109.14
289.139	17706.43
289.596	16209.57
290.053	16843.01
290.511	21258.08
290.968	25787.62
291.425	34997.72
291.882	29158.65
292.339	25383.5
292.796	25163.82
293.252	23725.81
293.709	18851.08
294.166	16883.1
294.623	18675.25
295.079	17922.96
295.536	18023.56
295.992	16371.8
296.449	16194.98
296.905	16826.75
297.362	16124.1
297.818	16955.3
298.274	17594.88
298.731	17937.46
299.187	17742.52
299.643	19041.5
300.099	22995.65
300.555	25220.7
301.011	21066.08
301.467	20308.83
301.923	23750.49
302.379	23218.49
302.835	22831.61
303.291	22856.8
303.746	26006.75
304.202	32854.6
304.658	33024.86
305.113	22277.51
305.569	21805.77
306.024	23250.78
306.479	22127.66
306.935	18661.44
307.39	20382.03
307.845	18810.2
308.301	18912.34
308.756	18419.3
309.211	17755.78
309.666	18166.77
310.121	22521
310.576	22865.6
311.031	22676.08
311.486	25950.69
311.94	25928.84
312.395	34648.99
312.85	65099.29
313.305	319470.41
313.759	1654533.17
314.214	119885.12
314.668	95189.85
315.123	79970.9
315.577	28722.09
316.032	25534.69
316.486	31999.18
316.94	25226.42
317.394	17558.97
317.849	13644.71
318.303	12893.05
318.757	12159
319.211	13416.56
319.665	11704.54
320.119	11838.13
320.572	16938.87
321.026	15843.66
321.48	13182.8
321.934	14379.35
322.387	14406.88
322.841	15569.03
323.295	14033.55
323.748	16143.74
324.202	16376.12
324.655	19680.57
325.108	27535.98
325.562	19458.98
326.015	23125.2
326.468	17473.64
326.921	19519.36
327.374	18181.59
327.827	18925.97
328.28	21440.77
328.733	14389.28
329.186	12672.51
329.639	12094.19
330.092	10188.65
330.545	9696.58
330.997	9769.03
331.45	10680.96
331.903	12528.13
332.355	21566.7
332.808	20910.47
333.26	17220.43
333.713	18675.05
334.165	18786.26
334.617	25023.17
335.069	20164.82
335.522	36440.92
335.974	40343.64
336.426	36837.5
336.878	25460.28
337.33	12893.21
337.782	12626.9
338.234	15827.87
338.686	18931.68
339.137	22439.65
339.589	21134.78
340.041	16612.03
340.493	14286.54
340.944	14626.66
341.396	15777.16
341.847	13289.01
342.299	15708.66
342.75	19152.55
343.201	16679.07
343.653	19166.51
344.104	23521.36
344.555	18513.09
345.006	28731.09
345.457	22023.09
345.908	17510.21
346.359	16436.7
346.81	13374.15
347.261	14073.03
347.712	13859.58
348.163	14870.61
348.613	15095.26
349.064	14126.2
349.515	12337.76
349.965	12677.92
350.416	15241.48
350.866	16702.11
351.317	18913.46
351.767	31289.81
352.217	39594.32
352.668	32842.89
353.118	30084.86
353.568	28898
354.018	22811.15
354.468	24121.24
354.918	17280.47
355.368	15115.51
355.818	21350.51
356.268	61256.17
356.718	256765.21
357.168	63929.19
357.617	32055.07
358.067	35661.93
358.517	33502.54
358.966	39306.51
359.416	44091.19
359.865	47621.35
360.315	56635.26
360.764	26452.71
361.213	14826.87
361.663	14025.98
362.112	17284.58
362.561	27963.99
363.01	21094.11
363.459	17726.36
363.908	19180.3
364.357	16313.41
364.806	27608.31
365.255	19011.99
365.703	17424.82
366.152	17472.5
366.601	14155.83
367.05	11501.73
367.498	10450.12
367.947	10913.74
368.395	11327.26
368.844	10024.58
369.292	12027.5
369.74	8302.52
370.189	12678.23
370.637	14853.26
371.085	12804
371.533	15602.16
371.981	14996.7
372.429	14286.56
372.877	14877.87
373.325	12470.74
373.773	12667.36
374.221	11273.01
374.669	13956.18
375.116	12068.33
375.564	12133.13
376.012	13512.5
376.459	11127.17
376.907	13250.91
377.354	15957.74
377.801	14848.14
378.249	17053.81
378.696	21758.62
379.143	26274.73
379.591	27926.75
380.038	47144.03
380.485	34118.14
380.932	36837.14
381.379	33707.96
381.826	24841.24
382.273	17625.03
382.72	15386.71
383.166	14970.73
383.613	9721.3
384.06	8762.83
384.506	10144.37
384.953	7438.59
385.4	7455.45
385.846	6500.38
386.292	6309.6
386.739	6167.9
387.185	6098.42
387.631	6080.45
388.078	5899.85
388.524	6300.06
388.97	5823.45
389.416	4858.74
389.862	5163.51
390.308	4894.51
390.754	4989.36
391.2	5419.69
391.645	5548.55
392.091	5328.71
392.537	5157.37
392.983	5165.28
393.428	5108.61
393.874	5482.61
394.319	5528.23
394.765	5269.1
395.21	5430.53
395.655	5101.06
396.101	4788.46
396.546	4334.72
396.991	4368.18
397.436	4079.26
397.881	3953.09
398.326	3752.72
398.771	3565.54
399.216	3118.13
399.661	2817.87
400.106	2825.49
400.551	2911.93
400.995	2627.88
401.44	2613.32
401.885	2475.81
402.329	2520.84
402.774	2435.68
403.218	2370.77
403.663	2296.93
404.107	2375.78
404.551	2409.38
404.995	2218.86
405.44	2152.16
405.884	2201.16
406.328	2141.56
406.772	2148.8
407.216	1966.41
407.66	1910.01
408.104	1825.11
408.547	1717.31
408.991	1672.69
409.435	1616.5
409.879	1606.75
410.322	1592.67
410.766	1547.85
411.209	1483.22
411.653	1430.83
412.096	1409.01
412.54	1416.67
412.983	1413.71
413.426	1426.67
413.869	1432.59
414.312	1414.22
414.756	1366.79
415.199	1309.08
415.642	1273.59
416.085	1278.58
416.527	1275.11
416.97	1300.27
417.413	1238.2
417.856	1229.45
418.298	1221.43
418.741	1216.55
419.184	1215.59
419.626	1267.49
420.069	1272.6
420.511	1283.05
420.953	1258.88
421.396	1250.06
421.838	1221.57
422.28	1253.35
422.722	1263.22
423.164	1279.53
423.606	1258.87
424.048	1258.98
424.49	1199.45
424.932	1192.74
425.374	1177.44
425.816	1198.91
426.258	1222.44
426.699	1236.2
427.141	1215.92
427.582	1235.78
428.024	1230.92
428.465	1221.81
428.907	1194.53
429.348	1179.48
429.789	1183.19
430.231	1159.09
430.672	1174.66
431.113	1145.84
431.554	1129.02
431.995	1101.53
432.436	1060.53
432.877	1038.44
433.318	1025.85
433.759	1019.11
434.2	1023.02
434.64	1010.67
435.081	1013.93
435.522	960.89
435.962	928
436.403	908.54
436.843	922.42
437.284	905.14
437.724	882.99
438.164	885.69
438.604	869.03
439.045	837.42
439.485	807.66
439.925	793.47
440.365	776.68
440.805	768.16
441.245	764.25
441.685	739.33
442.125	736.16
442.564	743.89
443.004	731.51
443.444	735.23
443.883	740.9
444.323	740.8
444.762	747.11
445.202	765
445.641	785.92
446.081	787.05
446.52	800.08
446.959	800.22
447.398	787.48
447.837	783.78
448.276	775.07
448.716	788.81
449.154	798.9
449.593	786.6
450.032	787.48
450.471	777.81
450.91	781.08
451.349	783.04
451.787	782.45
452.226	797.77
452.664	800.9
453.103	804.45
453.541	806.25
453.98	808.83
454.418	815.87
454.856	806.12
455.295	805.61
455.733	814.58
456.171	820.21
456.609	821.82
457.047	823.12
457.485	836.95
457.923	839.29
458.361	828.3
458.798	830.34
459.236	828.41
459.674	832.76
460.111	837.09
460.549	827.93
460.987	824.97
461.424	821.48
461.862	814.98
462.299	799.01
462.736	798.03
463.173	798.6
463.611	789.48
464.048	786.09
464.485	792.73
464.922	784.23
465.359	778.88
465.796	768.36
466.233	763.06
466.67	756.55
467.106	756.03
467.543	746.96
467.98	738.88
468.416	719.01
468.853	713.39
469.29	691.08
469.726	684.45
470.162	668.34
470.599	660.34
471.035	655.39
471.471	640.91
471.907	638.59
472.344	636.75
472.78	638.91
473.216	649.52
473.652	643.92
474.088	643.4
474.523	643.42
474.959	649.78
475.395	644.63
475.831	642.5
476.266	647.56
476.702	647.6
477.138	642.48
477.573	642.41
478.008	640.37
478.444	645.21
478.879	653.49
479.314	657.46
479.75	658.97
480.185	664.15
480.62	671.39
481.055	676.14
481.49	682.78
481.925	693.66
482.36	706.88
482.795	728.87
483.229	749.22
483.664	766.32
484.099	769.63
484.534	782.66
484.968	791.03
485.403	795.26
485.837	796.27
486.271	797.14
486.706	800.16
487.14	793.55
487.574	781.83
488.009	776.71
488.443	772.27
488.877	784.26
489.311	788.82
489.745	800.89
490.179	810.49
490.613	828.55
491.046	836.76
491.48	845.58
491.914	849.63
492.348	860.78
492.781	869.72
493.215	875.38
493.648	879.83
494.082	891.31
494.515	896.71
494.948	909.7
495.382	920.38
495.815	931.91
496.248	944.6
496.681	966.43
497.114	986.4
497.547	1005.62
497.98	1027.67
498.413	1041.15
498.846	1059.86
499.279	1076.23
499.711	1089.15
500.144	1097.3
500.577	1116.28
501.009	1136.59
501.442	1155.33
501.874	1162.47
502.306	1169.65
502.739	1185.96
503.171	1211.37
503.603	1220.87
504.036	1239.37
504.468	1251.39
504.9	1272.2
505.332	1286.83
505.764	1296.56
506.196	1309.05
506.627	1331.87
507.059	1354.5
507.491	1370.53
507.923	1370.73
508.354	1394.22
508.786	1410.17
509.217	1438.31
509.649	1458.93
510.08	1486.75
510.512	1509.74
510.943	1532.62
511.374	1548.65
511.805	1576
512.237	1602.09
512.668	1645.56
513.099	1682.34
513.53	1721.25
513.961	1747.63
514.391	1791.86
514.822	1834.4
515.253	1882.26
515.684	1914.3
516.114	1952.02
516.545	1978.63
516.975	2010.73
517.406	2032.27
517.836	2029.4
518.267	2030.74
518.697	2049.92
519.127	2050.32
519.558	2055.28
519.988	2054.7
520.418	2062.45
520.848	2081.92
521.278	2086.62
521.708	2099.33
522.138	2110.31
522.567	2148.47
522.997	2177.75
523.427	2192.84
523.857	2210.56
524.286	2218.51
524.716	2233.79
525.145	2254.71
525.575	2262.82
526.004	2278.37
526.433	2269.49
526.863	2265.39
527.292	2246.02
527.721	2249.81
528.15	2253.34
528.579	2248.9
529.008	2259.95
529.437	2285.49
529.866	2299.23
530.295	2318.82
530.724	2331.26
531.152	2362.33
531.581	2377.41
532.01	2397.95
532.438	2406.15
532.867	2421.86
533.295	2444.67
533.723	2450.46
534.152	2445.45
534.58	2442.65
535.008	2418.52
535.436	2417.8
535.865	2424.4
536.293	2442.2
536.721	2461.28
537.149	2492.62
537.576	2494.61
538.004	2507.49
538.432	2515.35
538.86	2510.68
539.287	2517.36
539.715	2535.07
540.143	2538.26
540.57	2532.41
540.998	2524.83
541.425	2491.99
541.852	2462.13
542.28	2458.21
542.707	2435.89
543.134	2415.22
543.561	2408.97
543.988	2399.68
544.415	2396.75
544.842	2387.95
545.269	2378.17
545.696	2380.08
546.123	2397.48
546.549	2383.26
546.976	2366.2
547.403	2366.33
547.829	2369.18
548.256	2372.5
548.682	2368.05
549.108	2359.26
549.535	2359.46
549.961	2362.28
550.387	2344.65
550.813	2338.23
551.24	2348.09
551.666	2351.18
552.092	2339.32
552.518	2331.95
552.943	2324.56
553.369	2334.31
553.795	2343.09
554.221	2346.01
554.646	2343.88
555.072	2360.52
555.498	2369.51
555.923	2383.93
556.349	2406.22
556.774	2419.1
557.199	2424.05
557.625	2435.33
558.05	2431.25
558.475	2447.92
558.9	2449.84
559.325	2443.67
559.75	2438.53
560.175	2432.2
560.6	2426.69
561.025	2425.71
561.449	2432.04
561.874	2442.4
562.299	2451.45
562.723	2464.55
563.148	2454.74
563.572	2465.37
563.997	2482.32
564.421	2493.98
564.846	2498.86
565.27	2506.97
565.694	2509.41
566.118	2529.63
566.542	2545.73
566.966	2542.19
567.39	2541.25
567.814	2531.14
568.238	2533.86
568.662	2545.54
569.086	2555.72
569.509	2571.37
569.933	2556.5
570.357	2552.03
570.78	2527.79
571.204	2513.55
571.627	2505.02
572.05	2507.73
572.474	2513.74
572.897	2499.75
573.32	2494.92
573.743	2484.93
574.166	2464.86
574.589	2469.64
575.012	2463.18
575.435	2466.64
575.858	2459.27
576.281	2447.22
576.704	2429.42
577.126	2416.3
577.549	2407.78
577.972	2397.23
578.394	2387.08
578.817	2379.76
579.239	2357.95
579.661	2342.38
580.084	2323.27
580.506	2308.44
580.928	2308.33
581.35	2296.38
581.772	2294.42
582.194	2278.73
582.616	2264.31
583.038	2247.23
583.46	2235.65
583.882	2234.39
584.303	2243.92
584.725	2241.94
585.147	2246.17
585.568	2264.18
585.99	2284.07
586.411	2295.58
586.833	2320.04
587.254	2324.9
587.675	2348.06
588.096	2369.4
588.518	2363.97
588.939	2342.78
589.36	2340.84
589.781	2329.16
590.202	2286.69
590.623	2275.24
591.043	2273.31
591.464	2255.73
591.885	2251.82
592.305	2243.88
592.726	2224.96
593.147	2227.69
593.567	2218.71
593.987	2208.42
594.408	2202.11
594.828	2200.31
595.248	2193.15
595.669	2165.65
596.089	2155.32
596.509	2147.1
596.929	2128.63
597.349	2130.59
597.769	2116.41
598.189	2109.85
598.608	2112.39
599.028	2116.81
599.448	2119.73
599.867	2100.81
600.287	2096.28
600.706	2091.43
601.126	2077.38
601.545	2075.5
601.965	2074.95
602.384	2068.08
602.803	2073.64
603.222	2069
603.641	2061.12
604.061	2056.89
604.48	2053.61
604.898	2068.12
605.317	2078.2
605.736	2083.12
606.155	2082.44
606.574	2071.22
606.992	2081.8
607.411	2077.09
607.829	2067.56
608.248	2065.04
608.666	2064.31
609.085	2066.48
609.503	2055.72
609.921	2048.36
610.339	2054.5
610.758	2056.97
611.176	2053.54
611.594	2043.4
612.012	2040.68
612.43	2048.83
612.847	2062.18
613.265	2066.42
613.683	2076.63
614.101	2082.53
614.518	2080.36
614.936	2069.41
615.353	2049.4
615.771	2047.28
616.188	2050.47
616.606	2048.35
617.023	2039.91
617.44	2019.78
617.857	2012.33
618.274	2002.44
618.691	1995.25
619.108	1983.73
619.525	1975.77
619.942	1989.05
620.359	1995.64
620.776	1989.66
621.192	1986.12
621.609	1984.44
622.026	1996.08
622.442	2006.5
622.859	2011.65
623.275	2002.78
623.691	2011.3
624.108	2029.42
624.524	2052.26
624.94	2052.43
625.356	2069.51
625.772	2090.93
626.188	2110.25
626.604	2113.12
627.02	2106.64
627.436	2104
627.852	2113.03
628.268	2132.39
628.683	2118.28
629.099	2106.08
629.514	2098.61
629.93	2103.75
630.345	2109.53
630.761	2103.48
631.176	2110.23
631.591	2100.32
632.007	2089.56
632.422	2087.53
632.837	2069.46
633.252	2065.07
633.667	2046.42
634.082	2031.14
634.497	2010.29
634.911	1977.93
635.326	1971.01
635.741	1942.9
636.155	1925.51
636.57	1926.35
636.984	1924.24
637.399	1925.85
637.813	1924.69
638.228	1923.1
638.642	1929.55
639.056	1910.87
639.47	1910.45
639.884	1894.65
640.298	1881.85
640.712	1879.73
641.126	1859.79
641.54	1843.87
641.954	1834.88
642.368	1814.57
642.781	1798.44
643.195	1767.81
643.609	1767.23
644.022	1755.87
644.436	1748.37
644.849	1728.97
645.262	1709.12
645.676	1709.67
646.089	1700.96
646.502	1674.14
646.915	1663.62
647.328	1636.81
647.741	1633.21
648.154	1612.83
648.567	1606.77
648.98	1586.43
649.393	1584.66
649.805	1578.11
650.218	1564.94
650.631	1539.97
651.043	1531.14
651.456	1521.78
651.868	1523.22
652.28	1549.4
652.693	1569.99
653.105	1580.9
653.517	1595.55
653.929	1596.68
654.341	1604.51
654.753	1585.32
655.165	1595.46
655.577	1590.18
655.989	1582.83
656.401	1570.48
656.813	1512.94
657.224	1481.09
657.636	1435.87
658.047	1405.34
658.459	1373.77
658.87	1359.12
659.282	1340.38
659.693	1305.69
660.104	1282.13
660.515	1258.12
660.926	1250.53
661.338	1242.22
661.749	1228.15
662.159	1209.45
662.57	1198.79
662.981	1185.53
663.392	1167.7
663.803	1165.95
664.213	1157.28
664.624	1143.76
665.035	1141.11
665.445	1116.45
665.855	1099.81
666.266	1081.43
666.676	1072.28
667.086	1052.11
667.497	1045.18
667.907	1031.04
668.317	1012.09
668.727	999.53
669.137	994.9
669.547	986.61
669.956	984.78
670.366	981.42
670.776	978.55
671.186	977.69
671.595	978.16
672.005	977.39
672.414	971.7
672.824	966.77
673.233	967.9
673.642	967.66
674.052	967.12
674.461	966.05
674.87	968.81
675.279	963.64
675.688	962.95
676.097	962.88
676.506	958.15
676.915	975.64
677.323	978.96
677.732	977.37
678.141	977.26
678.549	966.81
678.958	968.4
679.366	971.09
679.775	981.91
680.183	1000.74
680.592	1014.1
681	1029.44
681.408	1028.55
681.816	1048.17
682.224	1070.87
682.632	1094.81
683.04	1146.95
683.448	1194.43
683.856	1252.23
684.264	1317.06
684.671	1380.9
685.079	1458.23
685.487	1542.12
685.894	1652.84
686.302	1748.56
686.709	1830.67
687.116	1925.96
687.524	2004.24
687.931	2071.88
688.338	2130.73
688.745	2179.09
689.152	2231.47
689.559	2297.06
689.966	2357.39
690.373	2382.22
690.78	2436.52
691.187	2523.19
691.593	2579.02
692	2624.93
692.407	2696.92
692.813	2790.17
693.22	2857.57
693.626	2926.69
694.032	2973.21
694.439	3057.4
694.845	3115.17
