Data from N_3_DIV_OH_2N_Splice17_12-49-56-780.txt Node
Date: Sat Mar 14 12:49:56 EDT 2020
User: sa697716
Spectrometer: FLMS03696
Trigger mode: 0
Integration Time (sec): 3.180400E-1
Scans to average: 20
Electric dark correction enabled: true
Nonlinearity correction enabled: true
Boxcar width: 5
XAxis mode: Wavelengths
Number of Pixels in Spectrum: 2048
>>>>>Begin Spectral Data<<<<<
187.83	-298949.19
188.298	2172.47
188.766	1212.37
189.233	1099.89
189.701	1598.75
190.169	2237.86
190.636	884.98
191.104	733.52
191.571	122.52
192.039	-88.23
192.506	-100.53
192.974	359.44
193.441	-614.25
193.908	5.11
194.375	3.28
194.842	85.51
195.31	198.63
195.777	216.6
196.244	439.3
196.711	503.76
197.177	651.73
197.644	919.46
198.111	1576.55
198.578	2213.96
199.045	1780.72
199.511	2925.22
199.978	3422.99
200.445	2914.2
200.911	3229.61
201.378	3628.14
201.844	3286.44
202.31	5573.66
202.777	5818.03
203.243	3249.33
203.709	3111.64
204.176	3693.51
204.642	3043.49
205.108	2822.38
205.574	2296.54
206.04	2074.5
206.506	1924.76
206.972	1809.07
207.438	1758.26
207.903	1998.64
208.369	1742.16
208.835	1728.6
209.301	1807.81
209.766	1849.97
210.232	1847.98
210.697	2283.91
211.163	2839.42
211.628	4299.43
212.094	3642.01
212.559	4435.14
213.024	2763.3
213.49	3394.23
213.955	3323.55
214.42	3253.99
214.885	3037.7
215.35	2912.62
215.815	2820.3
216.28	2999.24
216.745	2429.43
217.21	2614.69
217.675	2406.88
218.14	2682.64
218.604	2971.81
219.069	3378.59
219.534	3523.32
219.998	4079.13
220.463	4924.62
220.927	6021.45
221.392	5651.6
221.856	5731.61
222.32	7224.26
222.785	8911.75
223.249	11247.01
223.713	12564.52
224.177	12526.87
224.642	16102.14
225.106	19798.43
225.57	21613.71
226.034	16059.1
226.497	24475.44
226.961	22083.08
227.425	25653.54
227.889	28449.99
228.353	28416.24
228.816	58705.45
229.28	56160.89
229.744	47351.29
230.207	28789.61
230.671	28351.79
231.134	46906.33
231.597	54059.16
232.061	53976.28
232.524	52710.58
232.987	36328.35
233.45	32688.32
233.914	29276.61
234.377	29978.59
234.84	27388.13
235.303	32253.05
235.766	35964.01
236.229	37106.2
236.691	23348.38
237.154	26248.75
237.617	19718.17
238.08	20135.89
238.542	23568.22
239.005	16847.33
239.468	16723.74
239.93	15748.85
240.393	14319.46
240.855	12559.18
241.317	12862.95
241.78	15653.89
242.242	16169.27
242.704	17440.29
243.166	15195.31
243.629	13789.13
244.091	15863.05
244.553	17368.48
245.015	18651.69
245.477	24118.31
245.939	35364.56
246.4	37489.48
246.862	36406.72
247.324	34305.08
247.786	38408.69
248.247	50319.47
248.709	51907.02
249.17	38836.54
249.632	36599.19
250.093	42477.71
250.555	36638.41
251.016	22300.63
251.477	21166.87
251.939	22803.24
252.4	23909.02
252.861	28394.74
253.322	26391.55
253.783	31375.29
254.244	40649.3
254.705	32004.74
255.166	28429.46
255.627	27971.97
256.088	39436.58
256.549	41826.76
257.009	35960.13
257.47	43593.04
257.931	35465.49
258.391	26537.99
258.852	27307.85
259.312	28588.9
259.773	35265.27
260.233	29765.42
260.694	25082.35
261.154	28389.5
261.614	22790.48
262.074	20393.9
262.534	21194.03
262.994	19967.43
263.455	26601.79
263.915	22394.63
264.374	21072.48
264.834	23003.46
265.294	25453.91
265.754	26349.45
266.214	24977.94
266.673	23365.12
267.133	29457.28
267.593	29167.9
268.052	35619.04
268.512	30945.84
268.971	37321.56
269.431	40900.8
269.89	36603.37
270.349	54889.88
270.809	61227.59
271.268	54935.24
271.727	123195.18
272.186	79749.64
272.645	59793.74
273.104	43161.58
273.563	62429.65
274.022	49053.64
274.481	41742.23
274.94	32171.57
275.399	23894.31
275.857	27768.64
276.316	37554.94
276.775	33411.75
277.233	32881.19
277.692	30791.98
278.15	34796.9
278.609	35817.45
279.067	33155.71
279.525	30799.15
279.984	39726.75
280.442	47717.51
280.9	47042.83
281.358	30945.99
281.816	28856.62
282.274	28232.97
282.732	29140.42
283.19	29303.27
283.648	25283.27
284.106	26945.91
284.564	27386.02
285.021	25401.62
285.479	18946.31
285.937	17237.58
286.394	15133.29
286.852	15539.39
287.309	16337.88
287.767	15786.2
288.224	14998.68
288.682	16448.72
289.139	18018.37
289.596	16456.26
290.053	17071.82
290.511	21492.23
290.968	26019.55
291.425	35251.7
291.882	29346.6
292.339	25525.52
292.796	25294.11
293.252	23858.14
293.709	18929.28
294.166	16955.79
294.623	18742.03
295.079	17978.26
295.536	18083.2
295.992	16412.37
296.449	16214.67
296.905	16831.86
297.362	16136
297.818	16966.11
298.274	17574.16
298.731	17879.47
299.187	17666.08
299.643	18972.29
300.099	22952.31
300.555	25152.22
301.011	21008.11
301.467	20266.76
301.923	23712.16
302.379	23164.03
302.835	22729.4
303.291	22775.9
303.746	25976.04
304.202	32870.67
304.658	32971.39
305.113	22148.88
305.569	21676.85
306.024	23138.42
306.479	22005.63
306.935	18557.66
307.39	20255.25
307.845	18717.87
308.301	18816.41
308.756	18336.47
309.211	17652.97
309.666	18082.09
310.121	22476.3
310.576	22838.3
311.031	22653.65
311.486	25934.22
311.94	25907.15
312.395	34649.44
312.85	65129.18
313.305	319649.49
313.759	1655481.02
314.214	120035.14
314.668	95056.09
315.123	79980.69
315.577	28651.6
316.032	25504.62
316.486	32000.98
316.94	25273.23
317.394	17586.14
317.849	13688.52
318.303	12954.5
318.757	12211.26
319.211	13496.59
319.665	11833.99
320.119	11966.93
320.572	17159.07
321.026	15989.23
321.48	13305.09
321.934	14495.51
322.387	14503.51
322.841	15639.49
323.295	14098.32
323.748	16245.18
324.202	16467.04
324.655	19746.13
325.108	27611.01
325.562	19530.72
326.015	23222.98
326.468	17549.43
326.921	19632.23
327.374	18357.51
327.827	19160.63
328.28	21682.79
328.733	14505.91
329.186	12775.53
329.639	12196.44
330.092	10280.33
330.545	9790.13
330.997	9891.9
331.45	10822.19
331.903	12705.08
332.355	21834.79
332.808	21190.47
333.26	17450.27
333.713	18956.81
334.165	19087.01
334.617	25503.45
335.069	20600.95
335.522	37243.43
335.974	41266.97
336.426	37764.52
336.878	26105.18
337.33	13247.08
337.782	12928.07
338.234	16211.36
338.686	19439.75
339.137	23042.54
339.589	21712.48
340.041	17007.15
340.493	14618.84
340.944	14966.23
341.396	16109.65
341.847	13574.19
342.299	16032.67
342.75	19590.97
343.201	17107.73
343.653	19644.01
344.104	24155.63
344.555	18964.43
345.006	29523.87
345.457	22597.93
345.908	17946.66
346.359	16889.99
346.81	13758.92
347.261	14479.76
347.712	14242.1
348.163	15311.08
348.613	15505.44
349.064	14464.92
349.515	12659.78
349.965	12978.48
350.416	15658
350.866	17167.93
351.317	19407.06
351.767	32179.55
352.217	40685.13
352.668	33781.1
353.118	30917.73
353.568	29804.26
354.018	23572.57
354.468	24897.79
354.918	17891.56
355.368	15652.6
355.818	22143.41
356.268	63548.2
356.718	265844.76
357.168	66142.87
357.617	33253.94
358.067	36933.51
358.517	34584.47
358.966	40636.57
359.416	45713.25
359.865	49445.5
360.315	58775.51
360.764	27464.49
361.213	15414.77
361.663	14573.99
362.112	17981.37
362.561	29005.94
363.01	21885.35
363.459	18444.74
363.908	19931.75
364.357	16917.41
364.806	28550.3
365.255	19650.09
365.703	18024.59
366.152	18047.21
366.601	14642.98
367.05	11918.28
367.498	10840.09
367.947	11332.85
368.395	11768.78
368.844	10433.38
369.292	12550.38
369.74	8678.31
370.189	13267.96
370.637	15506.76
371.085	13377.05
371.533	16277.28
371.981	15700.57
372.429	14996.45
372.877	15645.08
373.325	13120.33
373.773	13365.94
374.221	11901.73
374.669	14718.42
375.116	12742.09
375.564	12838.63
376.012	14361.27
376.459	11858.53
376.907	14140.35
377.354	17042.3
377.801	15881.21
378.249	18271.36
378.696	23319.81
379.143	28273.75
379.591	30174.04
380.038	51269.6
380.485	37218.6
380.932	40230.34
381.379	36860.76
381.826	27210.64
382.273	19413.11
382.72	16991.23
383.166	16591.05
383.613	10799.71
384.06	9754.08
384.506	11333.3
384.953	8317.04
385.4	8381.87
385.846	7364.32
386.292	7183.31
386.739	7050.69
387.185	6994.22
387.631	7013.55
388.078	6831.16
388.524	7319.44
388.97	6777.12
389.416	5672.34
389.862	6044.25
390.308	5730.46
390.754	5833.59
391.2	6350.21
391.645	6502.49
392.091	6234.56
392.537	6038.81
392.983	6059.98
393.428	5984.67
393.874	6433.11
394.319	6465.22
394.765	6147.02
395.21	6344.15
395.655	5942.01
396.101	5565.58
396.546	5035.28
396.991	5074.04
397.436	4719.32
397.881	4557.8
398.326	4310.93
398.771	4077.71
399.216	3562.94
399.661	3207.73
400.106	3194.91
400.551	3272.9
400.995	2937.81
401.44	2901.84
401.885	2727.85
402.329	2752.15
402.774	2635.7
403.218	2555.65
403.663	2458.92
404.107	2525.33
404.551	2540.77
404.995	2321.69
405.44	2236.66
405.884	2266.14
406.328	2185.38
406.772	2172.98
407.216	1975.33
407.66	1904.06
408.104	1801.82
408.547	1683.58
408.991	1627.22
409.435	1563.51
409.879	1541.11
410.322	1520.64
410.766	1468.79
411.209	1396.18
411.653	1339.91
412.096	1313.74
412.54	1314.4
412.983	1304.71
413.426	1308.14
413.869	1306.45
414.312	1280.6
414.756	1231.47
415.199	1170.99
415.642	1135.19
416.085	1137.01
416.527	1125.98
416.97	1140.72
417.413	1083.08
417.856	1070.78
418.298	1057.03
418.741	1045.2
419.184	1040.86
419.626	1081.88
420.069	1081.03
420.511	1085.95
420.953	1061.5
421.396	1051.53
421.838	1022.4
422.28	1042.41
422.722	1047.17
423.164	1060.16
423.606	1041.94
424.048	1038.03
424.49	987.02
424.932	980.07
425.374	963.55
425.816	978.97
426.258	997.85
426.699	1005.85
427.141	993.28
427.582	1002.48
428.024	994.77
428.465	987.5
428.907	963.51
429.348	951.1
429.789	951.28
430.231	932.79
430.672	945.31
431.113	921.02
431.554	909.12
431.995	883.41
432.436	856.54
432.877	839.1
433.318	828.68
433.759	825.27
434.2	823.73
434.64	815.44
435.081	817.25
435.522	776.27
435.962	749.09
436.403	734.92
436.843	744.97
437.284	727.13
437.724	709.31
438.164	708.27
438.604	693.39
439.045	670.14
439.485	644.62
439.925	631.98
440.365	616.07
440.805	607.58
441.245	599.93
441.685	579.95
442.125	576.72
442.564	579.78
443.004	569.18
443.444	569.15
443.883	571.61
444.323	567.44
444.762	567.64
445.202	576.66
445.641	591.57
446.081	589.22
446.52	595.56
446.959	592.9
447.398	581.87
447.837	576.53
448.276	567.65
448.716	573.3
449.154	581.23
449.593	571.29
450.032	569.8
450.471	558.65
450.91	560.36
451.349	560.77
451.787	557.23
452.226	565.99
452.664	565.79
453.103	567.17
453.541	567.98
453.98	567.54
454.418	570.66
454.856	563.88
455.295	563.3
455.733	568.66
456.171	570.39
456.609	571.8
457.047	572.84
457.485	582.25
457.923	583.66
458.361	575.68
458.798	578.17
459.236	577.82
459.674	581.01
460.111	583.64
460.549	577.69
460.987	575.52
461.424	575.16
461.862	571.61
462.299	563.26
462.736	563.67
463.173	564.43
463.611	558.83
464.048	558.42
464.485	562.32
464.922	557.27
465.359	554.06
465.796	551.8
466.233	547.04
466.67	542.36
467.106	541.94
467.543	535.27
467.98	529.09
468.416	514.41
468.853	509.05
469.29	493.81
469.726	487.91
470.162	475.13
470.599	465.84
471.035	461.6
471.471	450.56
471.907	446.29
472.344	443.91
472.78	446.62
473.216	451.63
473.652	445.85
474.088	444.11
474.523	443.25
474.959	448.18
475.395	443.92
475.831	441.82
476.266	443.84
476.702	443.38
477.138	439.44
477.573	436.72
478.008	435.42
478.444	438.11
478.879	443.77
479.314	446.28
479.75	446.2
480.185	447.9
480.62	451.35
481.055	453.59
481.49	456.88
481.925	464.04
482.36	474.06
482.795	487.02
483.229	500.67
483.664	512.18
484.099	514.08
484.534	522.98
484.968	529.43
485.403	531.66
485.837	531.72
486.271	531.65
486.706	532.45
487.14	526.45
487.574	519.21
488.009	515.12
488.443	510.87
488.877	518.06
489.311	519.88
489.745	527.17
490.179	534.22
490.613	547.25
491.046	553.08
491.48	559.38
491.914	562.38
492.348	569.06
492.781	575.29
493.215	578.58
493.648	581.09
494.082	588.69
494.515	592.37
494.948	601.79
495.382	608.63
495.815	615.57
496.248	623.75
496.681	638.67
497.114	652.55
497.547	666.41
497.98	683.21
498.413	695.11
498.846	709.23
499.279	721.81
499.711	729.64
500.144	736.67
500.577	752.91
501.009	768.56
501.442	783.43
501.874	790.67
502.306	798.06
502.739	811.75
503.171	831.08
503.603	839.52
504.036	854.27
504.468	866.97
504.9	883.69
505.332	895.91
505.764	906.4
506.196	919.49
506.627	940.07
507.059	960.33
507.491	974.47
507.923	977.67
508.354	999.85
508.786	1017.21
509.217	1042.2
509.649	1063.7
510.08	1090.72
510.512	1114.05
510.943	1135.61
511.374	1153.54
511.805	1178.96
512.237	1206.07
512.668	1247.59
513.099	1282.21
513.53	1317.47
513.961	1344.76
514.391	1385.05
514.822	1425.51
515.253	1469.43
515.684	1502.79
516.114	1540.3
516.545	1569.46
516.975	1602.06
517.406	1626.44
517.836	1632.52
518.267	1642.32
518.697	1665.45
519.127	1673.46
519.558	1684.99
519.988	1691.71
520.418	1706.07
520.848	1729.25
521.278	1741.5
521.708	1750
522.138	1764.98
522.567	1803.39
522.997	1835.28
523.427	1855.05
523.857	1876.56
524.286	1889.87
524.716	1910.87
525.145	1932.96
525.575	1946.26
526.004	1964.38
526.433	1972.64
526.863	1974.48
527.292	1963.56
527.721	1970.68
528.15	1978.51
528.579	1980
529.008	1992.63
529.437	2019.33
529.866	2036.61
530.295	2057.07
530.724	2071.57
531.152	2103.68
531.581	2121.55
532.01	2142.67
532.438	2153.19
532.867	2171.02
533.295	2192.16
533.723	2201.13
534.152	2198.18
534.58	2198.23
535.008	2180.21
535.436	2182.5
535.865	2191.57
536.293	2207.86
536.721	2226.88
537.149	2257.05
537.576	2261.25
538.004	2276.93
538.432	2284.67
538.86	2282.49
539.287	2290.79
539.715	2307.01
540.143	2310.53
540.57	2304.89
540.998	2300.65
541.425	2271.55
541.852	2246.31
542.28	2243.22
542.707	2221.86
543.134	2204.41
543.561	2199.7
543.988	2190.74
544.415	2189.21
544.842	2182.18
545.269	2174.88
545.696	2177.74
546.123	2193.03
546.549	2179.71
546.976	2164.58
547.403	2165.14
547.829	2168.43
548.256	2170.39
548.682	2167.08
549.108	2158.94
549.535	2158.03
549.961	2160.2
550.387	2143.5
550.813	2136.85
551.24	2145.8
551.666	2146.84
552.092	2135.99
552.518	2128.5
552.943	2121.3
553.369	2128.8
553.795	2135.21
554.221	2137.54
554.646	2133.49
555.072	2146.59
555.498	2153.45
555.923	2163.19
556.349	2180.9
556.774	2192.08
557.199	2193.76
557.625	2201.3
558.05	2194.87
558.475	2205.82
558.9	2203.87
559.325	2194.81
559.75	2187.46
560.175	2179.76
560.6	2172.22
561.025	2170.09
561.449	2171.1
561.874	2178.19
562.299	2183.29
562.723	2190.63
563.148	2179.12
563.572	2184.28
563.997	2195
564.421	2201.93
564.846	2202.37
565.27	2207.52
565.694	2203.86
566.118	2216.57
566.542	2224.9
566.966	2217.13
567.39	2211.81
567.814	2198.41
568.238	2197.36
568.662	2203.67
569.086	2206.19
569.509	2213.54
569.933	2193.54
570.357	2182.42
570.78	2156.59
571.204	2139.21
571.627	2124.67
572.05	2122.78
572.474	2121.16
572.897	2104.88
573.32	2094.49
573.743	2081.58
574.166	2059.87
574.589	2059.16
575.012	2050.89
575.435	2049.25
575.858	2039.24
576.281	2026.62
576.704	2006.45
577.126	1991.81
577.549	1978.83
577.972	1967.04
578.394	1954.61
578.817	1945.48
579.239	1923.38
579.661	1906.64
580.084	1887.08
580.506	1869.36
580.928	1863.98
581.35	1851.22
581.772	1846.4
582.194	1830.88
582.616	1814.78
583.038	1796.29
583.46	1782.77
583.882	1777.52
584.303	1781.98
584.725	1776.92
585.147	1779.71
585.568	1791.83
585.99	1805.05
586.411	1811.87
586.833	1828
587.254	1829.65
587.675	1847.24
588.096	1861.5
588.518	1855.33
588.939	1836.61
589.36	1834.29
589.781	1822.06
590.202	1788.25
590.623	1777.66
591.043	1775.07
591.464	1758.97
591.885	1754.16
592.305	1746.31
592.726	1730.7
593.147	1732.2
593.567	1725.49
593.987	1716.58
594.408	1709.69
594.828	1706.01
595.248	1697.56
595.669	1675.21
596.089	1667.14
596.509	1659.51
596.929	1643.04
597.349	1644.56
597.769	1633.23
598.189	1624.87
598.608	1624.88
599.028	1627.22
599.448	1627.6
599.867	1612.83
600.287	1607.68
600.706	1602.54
601.126	1590.65
601.545	1589.46
601.965	1586.84
602.384	1579.78
602.803	1583.65
603.222	1577.5
603.641	1569.56
604.061	1564.86
604.48	1560.48
604.898	1569.22
605.317	1573.75
605.736	1575.16
606.155	1571.52
606.574	1560.46
606.992	1566.04
607.411	1559.63
607.829	1550.56
608.248	1545.97
608.666	1542.35
609.085	1541.19
609.503	1531.2
609.921	1523.42
610.339	1525.22
610.758	1523.52
611.176	1516.95
611.594	1505.77
612.012	1501.07
612.43	1503.68
612.847	1509.32
613.265	1509.77
613.683	1512.73
614.101	1513.13
614.518	1508.3
614.936	1495.69
615.353	1476.83
615.771	1471.83
616.188	1471.1
616.606	1465.14
617.023	1456.29
617.44	1439.42
617.857	1430.4
618.274	1419.91
618.691	1411.08
619.108	1399.5
619.525	1391.33
619.942	1399.1
620.359	1401.28
620.776	1394.46
621.192	1389.17
621.609	1385.72
622.026	1391.81
622.442	1397.31
622.859	1400.18
623.275	1391.7
623.691	1397.4
624.108	1410.38
624.524	1424.61
624.94	1424.16
625.356	1434.53
625.772	1449.02
626.188	1461.7
626.604	1463.36
627.02	1457.78
627.436	1455.45
627.852	1462.91
628.268	1475.67
628.683	1464.36
629.099	1455.04
629.514	1448.71
629.93	1452.51
630.345	1456.32
630.761	1450.58
631.176	1453.57
631.591	1447.61
632.007	1439.31
632.422	1435.96
632.837	1421.58
633.252	1418.48
633.667	1405.47
634.082	1394.89
634.497	1378.98
634.911	1356.53
635.326	1351.17
635.741	1330.72
636.155	1316.49
636.57	1316.27
636.984	1314.19
637.399	1315.2
637.813	1311.37
638.228	1307.61
638.642	1308.74
639.056	1294.73
639.47	1291.15
639.884	1279.16
640.298	1269.53
640.712	1265.51
641.126	1248.78
641.54	1236.15
641.954	1225.83
642.368	1209.63
642.781	1198.88
643.195	1177.48
643.609	1174.48
644.022	1165.48
644.436	1157.41
644.849	1141.21
645.262	1125.27
645.676	1124.22
646.089	1116.11
646.502	1097.85
646.915	1089.84
647.328	1068.84
647.741	1064.49
648.154	1048.59
648.567	1041.79
648.98	1025.63
649.393	1023.29
649.805	1018.81
650.218	1007.98
650.631	989.77
651.043	982.01
651.456	974.35
651.868	973.78
652.28	988.13
652.693	999.5
653.105	1004.52
653.517	1011.67
653.929	1010.1
654.341	1012.27
654.753	997.96
655.165	1001.47
655.577	996.17
655.989	989.22
656.401	977.58
656.813	939.96
657.224	917.77
657.636	886.67
658.047	867.97
658.459	846.59
658.87	834.17
659.282	820.83
659.693	797.5
660.104	780.63
660.515	762.98
660.926	758.31
661.338	750.73
661.749	739.99
662.159	728.9
662.57	718.93
662.981	709.93
663.392	699.33
663.803	697.32
664.213	691.24
664.624	682.65
665.035	681.57
665.445	664.72
665.855	655.21
666.266	645.34
666.676	637.92
667.086	626.22
667.497	622.04
667.907	614.53
668.317	603.66
668.727	599.91
669.137	597.57
669.547	593.73
669.956	593.01
670.366	592.44
670.776	591.59
671.186	593.49
671.595	596.76
672.005	599.24
672.414	598.05
672.824	597.42
673.233	596.87
673.642	597.74
674.052	600.35
674.461	602.41
674.87	606.26
675.279	604.95
675.688	606.37
676.097	607
676.506	604.34
676.915	614.99
677.323	616.37
677.732	616.99
678.141	617.49
678.549	610.02
678.958	610.94
679.366	612.09
679.775	618.1
680.183	630.24
680.592	637.73
681	645.78
681.408	645.05
681.816	656.01
682.224	667.96
682.632	682.64
683.04	712.36
683.448	738.79
683.856	772.36
684.264	809.77
684.671	845.52
685.079	890.12
685.487	939.68
685.894	1004.11
686.302	1062.22
686.709	1112.18
687.116	1169.64
687.524	1221.61
687.931	1269.2
688.338	1310.34
688.745	1347.62
689.152	1389.2
689.559	1442.29
689.966	1494.63
690.373	1526.12
690.78	1576.3
691.187	1651.76
691.593	1710.41
692	1762.35
692.407	1835.49
692.813	1925.9
693.22	1999.26
693.626	2072.42
694.032	2132.4
694.439	2220.76
694.845	2291.29
695.251	2379.83
695.657	2456.18
696.063	2570.49
696.469	2657.5
696.875	2736.72
697.281	2781.72
