Data from N_3_DIV_PA_2N_Splice17_13-16-57-076.txt Node
Date: Sat Mar 14 13:16:57 EDT 2020
User: sa697716
Spectrometer: FLMS03696
Trigger mode: 0
Integration Time (sec): 3.180400E-1
Scans to average: 20
Electric dark correction enabled: true
Nonlinearity correction enabled: true
Boxcar width: 5
XAxis mode: Wavelengths
Number of Pixels in Spectrum: 2048
>>>>>Begin Spectral Data<<<<<
187.83	-314780.37
188.298	2374.77
188.766	1292.92
189.233	1182.89
189.701	1636.54
190.169	2156.08
190.636	840.3
191.104	677.63
191.571	98.2
192.039	-50.74
192.506	-54.43
192.974	335.68
193.441	-426.06
193.908	110.03
194.375	61.43
194.842	64.52
195.31	126.44
195.777	214.47
196.244	386.54
196.711	234.83
197.177	206.53
197.644	201.66
198.111	283.35
198.578	378.83
199.045	273.96
199.511	395.87
199.978	401.45
200.445	370.73
200.911	374.96
201.378	317.93
201.844	349.33
202.31	541.89
202.777	511.15
203.243	266.14
203.709	219.47
204.176	274.88
204.642	231.75
205.108	243.56
205.574	154.65
206.04	87.89
206.506	82.98
206.972	39.27
207.438	55.94
207.903	65.15
208.369	95.52
208.835	135.8
209.301	141.61
209.766	129.94
210.232	125.16
210.697	140.27
211.163	172.88
211.628	221.97
212.094	255.77
212.559	438.31
213.024	297.7
213.49	372.43
213.955	331.32
214.42	294.06
214.885	296.35
215.35	304.05
215.815	430.46
216.28	481.34
216.745	392.3
217.21	460.55
217.675	385.04
218.14	455.42
218.604	511.85
219.069	619.91
219.534	733.31
219.998	867.97
220.463	1081.36
220.927	1251.74
221.392	1197.71
221.856	1279.22
222.32	1583.43
222.785	2031.59
223.249	2585.91
223.713	2933.86
224.177	2984.72
224.642	3790.6
225.106	4728.06
225.57	5199.31
226.034	4002.08
226.497	6211.19
226.961	5708.72
227.425	6803.92
227.889	7571.01
228.353	7654.5
228.816	15890.22
229.28	15304.68
229.744	12954.47
230.207	8019.19
230.671	7948.74
231.134	13062.28
231.597	15168.1
232.061	15138.84
232.524	14711.92
232.987	10151.12
233.45	9208.5
233.914	8305.9
234.377	8518.74
234.84	7831.81
235.303	9166.6
235.766	10279.3
236.229	10678.29
236.691	6734.2
237.154	7577.93
237.617	5738.91
238.08	5894.21
238.542	6881.51
239.005	4941.72
239.468	4946.8
239.93	4690.59
240.393	4291.79
240.855	3771.47
241.317	3858.07
241.78	4687.53
242.242	4895.54
242.704	5337
243.166	4670.04
243.629	4304.31
244.091	4982.42
244.553	5465.09
245.015	5890.13
245.477	7613.76
245.939	11196.12
246.4	11941.03
246.862	11690.37
247.324	11072.64
247.786	12418.73
248.247	16293.18
248.709	16699.32
249.17	12547.36
249.632	11940.02
250.093	13984.55
250.555	12131.75
251.016	7463.18
251.477	7126.15
251.939	7728.43
252.4	8092.37
252.861	9601
253.322	8992.95
253.783	10727.34
254.244	13899.6
254.705	10932.75
255.166	9693.63
255.627	9587.74
256.088	13578.14
256.549	14439.75
257.009	12443.97
257.47	15140.84
257.931	12366.13
258.391	9297.65
258.852	9640.84
259.312	10148.95
259.773	12583.33
260.233	10701.42
260.694	9084.54
261.154	10321.41
261.614	8370.63
262.074	7505.64
262.534	7852.63
262.994	7431.35
263.455	9920.55
263.915	8400.55
264.374	7921.39
264.834	8673.39
265.294	9613.02
265.754	9990.12
266.214	9465.88
266.673	8853.11
267.133	11174.77
267.593	11063.73
268.052	13628.22
268.512	11877.38
268.971	14405.47
269.431	15887.59
269.89	14235.42
270.349	21405.74
270.809	23887.59
271.268	21524.58
271.727	48228.69
272.186	31341.26
272.645	23573.13
273.104	16937.72
273.563	24551.64
274.022	19270.06
274.481	16449.7
274.94	12748.12
275.399	9508.48
275.857	11104.61
276.316	15065.52
276.775	13487.99
277.233	13336.73
277.692	12577.72
278.15	14309.12
278.609	14812.46
279.067	13741.43
279.525	12796.31
279.984	16496.91
280.442	19871.73
280.9	19693.44
281.358	12976.4
281.816	12128.16
282.274	11889.29
282.732	12228.61
283.19	12279.51
283.648	10606.36
284.106	11287.04
284.564	11468.5
285.021	10686.6
285.479	7955.71
285.937	7198.1
286.394	6350.61
286.852	6530.42
287.309	6863.11
287.767	6695.8
288.224	6402.02
288.682	7041.83
289.139	7796.08
289.596	7193.61
290.053	7521.28
290.511	9552.36
290.968	11691.87
291.425	15937.14
291.882	13425.38
292.339	11791.18
292.796	11747.9
293.252	11124.18
293.709	8913.77
294.166	8010.25
294.623	8862.47
295.079	8507.17
295.536	8575.57
295.992	7805.47
296.449	7733.07
296.905	8052.11
297.362	7776.8
297.818	8180.73
298.274	8542.32
298.731	8682.52
299.187	8591.27
299.643	9243.84
300.099	11210.76
300.555	12297.45
301.011	10297.39
301.467	9983.6
301.923	11636.76
302.379	11320.83
302.835	11112.31
303.291	11111.18
303.746	12668.4
304.202	16030.67
304.658	16090.28
305.113	10799.17
305.569	10576.56
306.024	11226.46
306.479	10622.28
306.935	8970.32
307.39	9777.17
307.845	9022.58
308.301	9081.35
308.756	8828.69
309.211	8519.13
309.666	8703.77
310.121	10858.64
310.576	11011.45
311.031	10927.72
311.486	12476.74
311.94	12425.66
312.395	16563.99
312.85	31101.73
313.305	151518.84
313.759	786169.5
314.214	56734.45
314.668	45089.34
315.123	37938.91
315.577	13649.42
316.032	12170.1
316.486	15262.02
316.94	12091.83
317.394	8460.03
317.849	6595.9
318.303	6264.92
318.757	5926.52
319.211	6575.49
319.665	5760.57
320.119	5846.51
320.572	8381.21
321.026	7832.86
321.48	6546.4
321.934	7116.06
322.387	7124.49
322.841	7705.42
323.295	6982.47
323.748	7992.54
324.202	8115.18
324.655	9753.13
325.108	13627.94
325.562	9635.61
326.015	11426.43
326.468	8613.86
326.921	9662.85
327.374	9041.92
327.827	9434.82
328.28	10633.08
328.733	7162.26
329.186	6275.88
329.639	5971.19
330.092	5025.91
330.545	4780.23
330.997	4835.21
331.45	5315.43
331.903	6236.99
332.355	10647.93
332.808	10303.78
333.26	8474.44
333.713	9206.63
334.165	9281.44
334.617	12380.95
335.069	9931.01
335.522	17901.68
335.974	19819.11
336.426	17954.36
336.878	12351.24
337.33	6309.25
337.782	6159.39
338.234	7762.62
338.686	9242.87
339.137	10985.71
339.589	10336.15
340.041	8149.38
340.493	7032.88
340.944	7234.18
341.396	7858.36
341.847	6675.75
342.299	7930.27
342.75	9765.81
343.201	8492.56
343.653	9785.48
344.104	12067.51
344.555	9556.21
345.006	14807.25
345.457	11439.65
345.908	9071.1
346.359	8545.7
346.81	6963.36
347.261	7322.61
347.712	7178.16
348.163	7709.8
348.613	7870.07
349.064	7338.37
349.515	6427.36
349.965	6636.9
350.416	7966.83
350.866	8763.06
351.317	9912.76
351.767	16417.73
352.217	20717.9
352.668	17265.93
353.118	15933.42
353.568	15277.58
354.018	12118.01
354.468	12774.12
354.918	9172.86
355.368	8028.68
355.818	11314.46
356.268	32475.19
356.718	135940.62
357.168	33948.3
357.617	17050.93
358.067	18884.71
358.517	17768.74
358.966	20888.46
359.416	23589.05
359.865	25518.07
360.315	30372.92
360.764	14283.06
361.213	8026.27
361.663	7580.06
362.112	9353.88
362.561	15151.37
363.01	11451.74
363.459	9642.34
363.908	10441.59
364.357	8899.16
364.806	14998.93
365.255	10297.29
365.703	9428.06
366.152	9447.03
366.601	7685.88
367.05	6256.7
367.498	5689.17
367.947	5935.36
368.395	6157.13
368.844	5456.65
369.292	6513.36
369.74	4504.85
370.189	6908.26
370.637	8110.71
371.085	6994.84
371.533	8513.16
371.981	8148.02
372.429	7757.23
372.877	8077.1
373.325	6779.14
373.773	6872.55
374.221	6116.91
374.669	7596.94
375.116	6583.31
375.564	6624.02
376.012	7378.81
376.459	6082.41
376.907	7261.05
377.354	8762.41
377.801	8195.69
378.249	9399.31
378.696	11985.66
379.143	14467.02
379.591	15337.67
380.038	25909.84
380.485	18700.65
380.932	20171.95
381.379	18532.23
381.826	13731.56
382.273	9732.2
382.72	8417.45
383.166	8218.13
383.613	5350.53
384.06	4819
384.506	5612.13
384.953	4107.73
385.4	4122.66
385.846	3615.84
386.292	3491.61
386.739	3382.42
387.185	3320.98
387.631	3328.28
388.078	3230.17
388.524	3434.15
388.97	3172.23
389.416	2631.25
389.862	2795.67
390.308	2638.69
390.754	2667.87
391.2	2880.31
391.645	2940.75
392.091	2838.47
392.537	2737.74
392.983	2710.02
393.428	2683.08
393.874	2856.51
394.319	2857.09
394.765	2698.75
395.21	2764.59
395.655	2580.65
396.101	2412.94
396.546	2178.8
396.991	2164.82
397.436	1995.09
397.881	1920.22
398.326	1782.94
398.771	1692.6
399.216	1462.33
399.661	1307.12
400.106	1300.18
400.551	1328.74
400.995	1188.4
401.44	1167.43
401.885	1092.84
402.329	1102.77
402.774	1057.59
403.218	1039.26
403.663	996.21
404.107	1027.04
404.551	1033.63
404.995	938.48
405.44	896.91
405.884	905.86
406.328	865.99
406.772	863.88
407.216	785.03
407.66	755.21
408.104	703.1
408.547	652.25
408.991	628.73
409.435	603.12
409.879	594.4
410.322	586.78
410.766	566.92
411.209	541.07
411.653	514.63
412.096	505.54
412.54	498.73
412.983	496.57
413.426	501.35
413.869	498.19
414.312	486.47
414.756	465.29
415.199	436.37
415.642	421.41
416.085	423.23
416.527	418.75
416.97	419.89
417.413	400.81
417.856	392.79
418.298	385.21
418.741	377.45
419.184	374.81
419.626	387.31
420.069	391.42
420.511	396.39
420.953	386.91
421.396	384.21
421.838	374.03
422.28	383.04
422.722	387.15
423.164	390.02
423.606	387.45
424.048	385.21
424.49	368.92
424.932	364.47
425.374	351.75
425.816	352.26
426.258	356.4
426.699	361.65
427.141	358.74
427.582	361.53
428.024	355.88
428.465	348.46
428.907	339.43
429.348	333.36
429.789	337.17
430.231	335.64
430.672	343.65
431.113	335.88
431.554	329.31
431.995	316.64
432.436	306.37
432.877	302.95
433.318	300.7
433.759	296.32
434.2	295.82
434.64	290.22
435.081	288.8
435.522	274.01
435.962	261.3
436.403	256.26
436.843	255.63
437.284	247.78
437.724	236.65
438.164	232.32
438.604	226.05
439.045	216.28
439.485	208.36
439.925	201.55
440.365	194.1
440.805	191.09
441.245	188.56
441.685	183.4
442.125	179.11
442.564	178.98
443.004	176.01
443.444	174.68
443.883	176
444.323	169.47
444.762	165.09
445.202	164.61
445.641	166.09
446.081	161.09
446.52	160.86
446.959	160.88
447.398	157.05
447.837	154.33
448.276	151.48
448.716	150.25
449.154	149.41
449.593	148.12
450.032	147.89
450.471	143.96
450.91	142.3
451.349	142.99
451.787	140.92
452.226	142.32
452.664	141.18
453.103	140.45
453.541	138.61
453.98	142.66
454.418	143.52
454.856	142.89
455.295	144.03
455.733	147.09
456.171	146.65
456.609	145.77
457.047	146.55
457.485	151
457.923	153.64
458.361	151.39
458.798	150.73
459.236	150.49
459.674	148.82
460.111	148.58
460.549	146.64
460.987	144.68
461.424	143.8
461.862	142.61
462.299	139.75
462.736	139.47
463.173	140.56
463.611	142.59
464.048	143.19
464.485	145.86
464.922	144.51
465.359	142.61
465.796	151.01
466.233	150.67
466.67	151.96
467.106	152.59
467.543	149.76
467.98	147.02
468.416	139.31
468.853	135.46
469.29	129.52
469.726	127.11
470.162	123.11
470.599	112.9
471.035	111.15
471.471	106.7
471.907	103.67
472.344	101.93
472.78	102.59
473.216	103.28
473.652	103.2
474.088	103.24
474.523	104.93
474.959	106.82
475.395	105.71
475.831	105.93
476.266	106.64
476.702	105.93
477.138	105.21
477.573	104.61
478.008	104.36
478.444	105.51
478.879	108.28
479.314	108.91
479.75	109.01
480.185	109.9
480.62	110.39
481.055	111.24
481.49	112.76
481.925	114.9
482.36	119.7
482.795	122.18
483.229	123.78
483.664	125.53
484.099	124.76
484.534	126.65
484.968	127.85
485.403	127.84
485.837	126.08
486.271	125.68
486.706	125.15
487.14	121.1
487.574	119.75
488.009	118.78
488.443	117.07
488.877	119.29
489.311	118.69
489.745	119.39
490.179	120.75
490.613	125.35
491.046	125.43
491.48	125.28
491.914	125.19
492.348	125.03
492.781	125.64
493.215	124.59
493.648	122.58
494.082	122.47
494.515	121.76
494.948	122.01
495.382	119.23
495.815	118.01
496.248	118.66
496.681	118.97
497.114	118.65
497.547	118.81
497.98	120.7
498.413	121.53
498.846	121.96
499.279	121.88
499.711	120.17
500.144	118.45
500.577	120.51
501.009	119.86
501.442	121.28
501.874	121.19
502.306	119.14
502.739	121.56
503.171	121.13
503.603	119.91
504.036	119.05
504.468	118.34
504.9	118.61
505.332	116.28
505.764	115.39
506.196	113.52
506.627	113.45
507.059	113.21
507.491	107.51
507.923	105.49
508.354	105.65
508.786	104.68
509.217	104.85
509.649	104.72
510.08	104.4
510.512	104.89
510.943	104.63
511.374	103.03
511.805	102.88
512.237	103.38
512.668	103.36
513.099	102.54
513.53	102.49
513.961	102.71
514.391	103.23
514.822	106.35
515.253	106.91
515.684	106.49
516.114	107.09
516.545	107.79
516.975	108.55
517.406	108.16
517.836	106.73
518.267	106.41
518.697	106.31
519.127	104.92
519.558	102.02
519.988	99.88
520.418	97.93
520.848	96.65
521.278	94.3
521.708	122.64
522.138	123.13
522.567	123.07
522.997	122.63
523.427	121.38
523.857	121.69
524.286	120.89
524.716	121.03
525.145	122.25
525.575	123.25
526.004	122.63
526.433	92.26
526.863	90.33
527.292	90.77
527.721	91.59
528.15	90.89
528.579	89.82
529.008	90.13
529.437	89.62
529.866	88.82
530.295	88.03
530.724	90.01
531.152	90.81
531.581	91.87
532.01	91.58
532.438	90.19
532.867	89.95
533.295	90.28
533.723	89.37
534.152	89.48
534.58	89.81
535.008	88.57
535.436	88.69
535.865	88.35
536.293	87.26
536.721	86.87
537.149	88.45
537.576	89.83
538.004	90.51
538.432	90.46
538.86	90.95
539.287	90.56
539.715	91.53
540.143	89.56
540.57	89.39
540.998	89.67
541.425	90.69
541.852	88.9
542.28	87.29
542.707	85.92
543.134	85.66
543.561	84.8
543.988	84.65
544.415	84.2
544.842	84.03
545.269	84.32
545.696	85.07
546.123	85.28
546.549	85.05
546.976	84.87
547.403	84.81
547.829	83.75
548.256	83.16
548.682	82.79
549.108	83.7
549.535	83.66
549.961	82.83
550.387	81.79
550.813	82.45
551.24	82.24
551.666	82.12
552.092	81.59
552.518	81.94
552.943	82.67
553.369	82.62
553.795	81.94
554.221	82.29
554.646	82.22
555.072	84.08
555.498	81.65
555.923	81.76
556.349	82.61
556.774	83.32
557.199	83.03
557.625	82.22
558.05	82.86
558.475	83.34
558.9	84.19
559.325	85.15
559.75	84.63
560.175	84.58
560.6	85.19
561.025	84.65
561.449	84.89
561.874	85.47
562.299	87.55
562.723	87.66
563.148	87.38
563.572	86.85
563.997	87.1
564.421	86.26
564.846	86.59
565.27	87.28
565.694	88.02
566.118	88.9
566.542	90.94
566.966	90.49
567.39	91.23
567.814	92.36
568.238	93.44
568.662	93.18
569.086	94.5
569.509	94.97
569.933	96.2
570.357	96.3
570.78	95.96
571.204	97.37
571.627	97.31
572.05	97.3
572.474	97.89
572.897	97.8
573.32	100.34
573.743	99.68
574.166	100.79
574.589	99.82
575.012	100.21
575.435	99.94
575.858	98.91
576.281	98.84
576.704	98.55
577.126	97.05
577.549	96.54
577.972	94.38
578.394	95.01
578.817	97.55
579.239	97.05
579.661	97.51
580.084	98.9
580.506	98.6
580.928	98.13
581.35	97.5
581.772	98.16
582.194	97.67
582.616	97.14
583.038	95.39
583.46	92.2
583.882	92.66
584.303	91.79
584.725	90.53
585.147	96.41
585.568	98.71
585.99	100.67
586.411	101.82
586.833	104.4
587.254	105.78
587.675	107.3
588.096	108.54
588.518	108.32
588.939	107.59
589.36	108.3
589.781	100.36
590.202	101.41
590.623	100.46
591.043	99.59
591.464	98.03
591.885	98.15
592.305	98.17
592.726	97.17
593.147	98.13
593.567	98.73
593.987	97.58
594.408	97.05
594.828	93.67
595.248	94.95
595.669	95.35
596.089	95.45
596.509	94.14
596.929	93.44
597.349	93.87
597.769	92.54
598.189	91.96
598.608	92.32
599.028	93.55
599.448	93.11
599.867	91.37
600.287	90.59
600.706	90.67
601.126	91.45
601.545	92.55
601.965	92.54
602.384	92.33
602.803	92.25
603.222	93.27
603.641	92.93
604.061	93.61
604.48	93.75
604.898	94.12
605.317	94.71
605.736	94.51
606.155	95.23
606.574	94.86
606.992	95.46
607.411	95.98
607.829	94.11
608.248	94.13
608.666	93.6
609.085	94.62
609.503	94.91
609.921	95.58
610.339	97.02
610.758	95.92
611.176	96.29
611.594	96.54
612.012	96.75
612.43	99.04
612.847	99.85
613.265	102.34
613.683	102.64
614.101	102.85
614.518	101.51
614.936	101.03
615.353	101.36
615.771	102.5
616.188	103.33
616.606	103.71
617.023	103.82
617.44	103.26
617.857	101.34
618.274	100.85
618.691	101.66
619.108	101.34
619.525	100.45
619.942	101.53
620.359	102.06
620.776	101.28
621.192	102.48
621.609	102.25
622.026	103.85
622.442	105.39
622.859	105.24
623.275	104.14
623.691	105.14
624.108	106.41
624.524	107.14
624.94	106.73
625.356	107.91
625.772	108.34
626.188	108.84
626.604	108.87
627.02	108.51
627.436	109.72
627.852	111.69
628.268	113.16
628.683	111.9
629.099	111.32
629.514	110.56
629.93	111.01
630.345	111.56
630.761	111.28
631.176	111.53
631.591	113.4
632.007	113.55
632.422	111.69
632.837	109.96
633.252	111.53
633.667	110.85
634.082	110.61
634.497	111.27
634.911	111.88
635.326	112.35
635.741	111.38
636.155	108.93
636.57	109.91
636.984	111.65
637.399	115.31
637.813	115.36
638.228	116.36
638.642	116.94
639.056	115.74
639.47	114.98
639.884	114.94
640.298	115.38
640.712	117.18
641.126	117.1
641.54	116.31
641.954	113.54
642.368	113.86
642.781	117.72
643.195	117.76
643.609	119.37
644.022	119.85
644.436	120.26
644.849	119.47
645.262	118.86
645.676	118.58
646.089	120.06
646.502	122.58
646.915	121.78
647.328	118.68
647.741	119.53
648.154	119.24
648.567	123.08
648.98	122.55
649.393	123.13
649.805	123.86
650.218	124.1
650.631	123.27
651.043	122.12
651.456	122.71
651.868	122.13
652.28	123.51
652.693	124.24
653.105	122.77
653.517	124
653.929	125.2
654.341	126.96
654.753	126.49
655.165	127.32
655.577	126.84
655.989	127.16
656.401	125.94
656.813	125.94
657.224	124.37
657.636	120.28
658.047	120.96
658.459	120.42
658.87	118.27
659.282	117.24
659.693	117.35
660.104	116.85
660.515	115.43
660.926	116.14
661.338	114.68
661.749	115.11
662.159	116.35
662.57	115.14
662.981	115.09
663.392	115.76
663.803	117.88
664.213	116.92
664.624	117.45
665.035	118.78
665.445	117.95
665.855	119.66
666.266	120.45
666.676	120.63
667.086	119.69
667.497	121.18
667.907	121.27
668.317	120.32
668.727	124.59
669.137	123.98
669.547	124.78
669.956	124.74
670.366	123.93
670.776	124.89
671.186	125.83
671.595	127.63
672.005	126.93
672.414	127.69
672.824	127.87
673.233	123.71
673.642	124.98
674.052	126.15
674.461	128.74
674.87	129.09
675.279	128.64
675.688	126.66
676.097	127.59
676.506	126.9
676.915	127.83
677.323	127.56
677.732	128.06
678.141	126.72
678.549	123.49
678.958	120.61
679.366	118.8
679.775	116.73
680.183	121.06
680.592	120.36
681	120.38
681.408	117.36
681.816	116.94
682.224	114.95
682.632	116.63
683.04	119.47
683.448	121.7
683.856	125.45
684.264	129.9
684.671	129.4
685.079	130.73
685.487	132.69
685.894	137.42
686.302	139.78
686.709	142.18
687.116	143.74
687.524	146.33
687.931	147.07
688.338	146.44
688.745	142.96
689.152	140.92
689.559	141.15
689.966	142.25
690.373	140.11
690.78	138.94
691.187	139.12
691.593	137.91
692	133.45
692.407	132.3
692.813	135.32
693.22	134.93
693.626	133.02
694.032	131.69
694.439	131.43
694.845	130.1
695.251	129.81
695.657	130.62
696.063	129.7
696.469	130.05
696.875	129.95
697.281	125.3
697.687	123.97
698.093	123.33
698.498	123.06
698.904	120.53
699.31	121.56
699.715	125.64
700.12	125.44
700.526	126.17
700.931	126.41
701.337	127.78
701.742	128.02
702.147	129.34
702.552	128.82
702.957	128.08
703.362	127.78
703.767	126.36
704.172	121.93
704.577	117.69
704.981	115.8
705.386	114.68
705.791	112.8
706.195	111.3
706.6	110.17
707.004	109.48
707.408	106.61
707.813	107.85
708.217	106.73
708.621	105.04
709.025	107.91
709.43	108.68
709.834	110.08
710.237	110.13
710.641	109.42
711.045	109.87
711.449	110.98
711.853	117.98
712.256	116.66
712.66	117.62
713.064	120.16
713.467	121.32
713.87	122.91
714.274	123
714.677	125.6
715.08	130.2
715.484	134.32
715.887	143.46
716.29	140.11
716.693	146.56
717.096	151.77
717.499	154.25
717.901	152.55
718.304	152.06
718.707	151.16
719.109	146.18
