Data from N_3_DEC_ON_6N_Splice17_13-37-46-646.txt Node
Date: Sat Mar 14 13:37:46 EDT 2020
User: sa697716
Spectrometer: FLMS03696
Trigger mode: 0
Integration Time (sec): 3.180400E-1
Scans to average: 20
Electric dark correction enabled: true
Nonlinearity correction enabled: true
Boxcar width: 5
XAxis mode: Wavelengths
Number of Pixels in Spectrum: 2048
>>>>>Begin Spectral Data<<<<<
187.83	-375788.54
188.298	2701.48
188.766	1497.42
189.233	1380.4
189.701	1913.86
190.169	2625.25
190.636	959.25
191.104	814.1
191.571	89.38
192.039	-143.36
192.506	-190.79
192.974	503.96
193.441	-1029.61
193.908	-260.88
194.375	-6.33
194.842	10.05
195.31	86.99
195.777	176.39
196.244	449.03
196.711	500.82
197.177	640.93
197.644	921.98
198.111	1614.98
198.578	2319.81
199.045	1852.61
199.511	2996.6
199.978	3509.11
200.445	3002.06
200.911	3290.81
201.378	3661.75
201.844	3327.59
202.31	5701.22
202.777	5884.19
203.243	3284.59
203.709	3109.11
204.176	3717.53
204.642	3054.2
205.108	2876.44
205.574	2315.08
206.04	2116.84
206.506	1991.59
206.972	1874.72
207.438	1808.47
207.903	2065.95
208.369	1800.89
208.835	1798.3
209.301	1882
209.766	1920.29
210.232	1873.13
210.697	2320.22
211.163	2838.95
211.628	4274.59
212.094	3576.08
212.559	4387.2
213.024	2694.1
213.49	3252.8
213.955	3132.71
214.42	3009.56
214.885	2800.45
215.35	2682.09
215.815	2604.34
216.28	2742.26
216.745	2185.66
217.21	2325.23
217.675	2064.19
218.14	2278.7
218.604	2480.6
219.069	2770.48
219.534	2876.47
219.998	3262.77
220.463	3864.91
220.927	4575.15
221.392	4245.02
221.856	4270.75
222.32	5302.7
222.785	6514.18
223.249	8111.78
223.713	8994.06
224.177	8963.78
224.642	11364.14
225.106	13925.99
225.57	15150.62
226.034	11306.3
226.497	17142.21
226.961	15440.86
227.425	17979.03
227.889	19813.41
228.353	19765.11
228.816	40739.27
229.28	38851.47
229.744	32709.35
230.207	19875.86
230.671	19499.55
231.134	32068.11
231.597	36982.3
232.061	36854.91
232.524	35798.67
232.987	24643.24
233.45	22254.13
233.914	19952.36
234.377	20364.11
234.84	18637.97
235.303	21878.83
235.766	24421.41
236.229	25173.64
236.691	15816.83
237.154	17738.49
237.617	13363.45
238.08	13682.53
238.542	15934.1
239.005	11384.71
239.468	11319.94
239.93	10675.74
240.393	9723.86
240.855	8539.34
241.317	8758.41
241.78	10642.78
242.242	11013.32
242.704	11898.43
243.166	10357.73
243.629	9438.8
244.091	10860.02
244.553	11872.49
245.015	12722.57
245.477	16413.16
245.939	24001.37
246.4	25462.02
246.862	24718.84
247.324	23294.62
247.786	26022.41
248.247	34078.51
248.709	34991.38
249.17	26165.02
249.632	24763.12
250.093	28811.06
250.555	24891.34
251.016	15228.15
251.477	14447.77
251.939	15608.41
252.4	16344.58
252.861	19417.04
253.322	18098.88
253.783	21551.16
254.244	27972.33
254.705	21977.83
255.166	19500.13
255.627	19195.83
256.088	27103.5
256.549	28768.11
257.009	24744.6
257.47	30083.55
257.931	24476
258.391	18322.73
258.852	18902.25
259.312	19793.91
259.773	24486.28
260.233	20743.74
260.694	17512.74
261.154	19812.41
261.614	15946.09
262.074	14268.58
262.534	14823.07
262.994	13989.66
263.455	18637.91
263.915	15725.22
264.374	14794.1
264.834	16128.53
265.294	17816.65
265.754	18451.18
266.214	17445.06
266.673	16310.21
267.133	20559.17
267.593	20370.94
268.052	24917.99
268.512	21644.43
268.971	26134.35
269.431	28681.67
269.89	25670.29
270.349	38526.05
270.809	42984.53
271.268	38671.5
271.727	86686.09
272.186	56167.44
272.645	42067.87
273.104	30322.03
273.563	43938.53
274.022	34423.94
274.481	29314.32
274.94	22605.06
275.399	16791.53
275.857	19520.7
276.316	26367.53
276.775	23472.58
277.233	23139.85
277.692	21725.42
278.15	24591.19
278.609	25330.12
279.067	23500.59
279.525	21857.62
279.984	28212.1
280.442	33939.71
280.9	33565.77
281.358	22139.77
281.816	20668.09
282.274	20256.02
282.732	20911.28
283.19	21026.03
283.648	18139.86
284.106	19336.87
284.564	19645.44
285.021	18291.48
285.479	13609.42
285.937	12351.28
286.394	10855.44
286.852	11184.64
287.309	11767.11
287.767	11405.57
288.224	10870.89
288.682	11933.61
289.139	13117.72
289.596	12025.7
290.053	12461.51
290.511	15742.69
290.968	19126.69
291.425	25879.47
291.882	21557.32
292.339	18758.23
292.796	18590.91
293.252	17499.47
293.709	13926.95
294.166	12477.55
294.623	13782.92
295.079	13206.56
295.536	13288.18
295.992	12064.61
296.449	11943.93
296.905	12408.39
297.362	11940.06
297.818	12544.86
298.274	13032.94
298.731	13262.71
299.187	13078.83
299.643	14030.85
300.099	17017.99
300.555	18635.5
301.011	15574.79
301.467	15078.96
301.923	17657.45
302.379	17210.99
302.835	16918.47
303.291	16963.92
303.746	19324.73
304.202	24491.84
304.658	24627.86
305.113	16563.26
305.569	16267.56
306.024	17333.74
306.479	16474.64
306.935	13893.99
307.39	15159.79
307.845	14029.41
308.301	14118.29
308.756	13740.73
309.211	13241.84
309.666	13576.62
310.121	16903.41
310.576	17153.94
311.031	17030.64
311.486	19472.78
311.94	19450.25
312.395	26031.44
312.85	48973.59
313.305	240212.79
313.759	1251255.41
314.214	90828.7
314.668	72051.15
315.123	60630.19
315.577	21811.29
316.032	19448.66
316.486	24381.51
316.94	19293.22
317.394	13441.92
317.849	10437.95
318.303	9870.34
318.757	9291.93
319.211	10258.6
319.665	8985.33
320.119	9079.66
320.572	12968.77
321.026	12134
321.48	10115.38
321.934	10993.62
322.387	11010.05
322.841	11898.88
323.295	10786.92
323.748	12392.49
324.202	12597.84
324.655	15146.71
325.108	21235.26
325.562	15055.07
326.015	17861.55
326.468	13491.9
326.921	15120.49
327.374	14123.32
327.827	14754.62
328.28	16621.19
328.733	11183.1
329.186	9840.8
329.639	9394.88
330.092	7921.88
330.545	7542.79
330.997	7625.44
331.45	8391.06
331.903	9842.13
332.355	16940.93
332.808	16419.32
333.26	13565.07
333.713	14767.14
334.165	14891.17
334.617	19852.11
335.069	15986.12
335.522	28920.17
335.974	32069.36
336.426	29093.91
336.878	20164.99
337.33	10233.85
337.782	10003.99
338.234	12585.88
338.686	15036.73
339.137	17832.7
339.589	16797.79
340.041	13212.14
340.493	11379.07
340.944	11639.15
341.396	12590.45
341.847	10620.18
342.299	12557.4
342.75	15396.57
343.201	13391.7
343.653	15358.06
344.104	18868.66
344.555	14849.83
345.006	23061.62
345.457	17694.08
345.908	14052.85
346.359	13220.46
346.81	10732.57
347.261	11312.3
347.712	11107.02
348.163	11916.92
348.613	12141.35
349.064	11315.5
349.515	9890.38
349.965	10149.31
350.416	12205.1
350.866	13393.14
351.317	15125.23
351.767	25095.45
352.217	31755.43
352.668	26361.32
353.118	24174.76
353.568	23242.87
354.018	18433.81
354.468	19561.24
354.918	14065.17
355.368	12302.98
355.818	17433.32
356.268	50250.92
356.718	211196.84
357.168	52632.07
357.617	26426.79
358.067	29379.05
358.517	27555.58
358.966	32360.88
359.416	36315.85
359.865	39229.37
360.315	46827.82
360.764	21909.08
361.213	12279.59
361.663	11628.15
362.112	14337.47
362.561	23269.26
363.01	17640.63
363.459	14884.19
363.908	16151.79
364.357	13769.81
364.806	23367.66
365.255	16126.31
365.703	14884.98
366.152	15020.07
366.601	12245.89
367.05	10041.57
367.498	9200.87
367.947	9664.02
368.395	10154.86
368.844	9090.21
369.292	11024.36
369.74	7707.68
370.189	11923.33
370.637	14070.84
371.085	12273.95
371.533	15118.88
371.981	14758.68
372.429	14248.54
372.877	15043.72
373.325	12791.85
373.773	13223.66
374.221	11985.75
374.669	15099.31
375.116	13273.65
375.564	13648.9
376.012	15540.87
376.459	13083.71
376.907	15936.4
377.354	19666.06
377.801	18788.82
378.249	21974.23
378.696	28713.54
379.143	35545.73
379.591	38844.1
380.038	67385.17
380.485	49905.95
380.932	55124.6
381.379	51610.5
381.826	38852.75
382.273	28284.84
382.72	25280.43
383.166	25233.28
383.613	16733.26
384.06	15415.35
384.506	18236.18
384.953	13686.74
385.4	14075.03
385.846	12619.68
386.292	12593.75
386.739	12604.52
387.185	12693.78
387.631	12953.69
388.078	12829.41
388.524	14006.2
388.97	13207.18
389.416	11227.52
389.862	12176.22
390.308	11750.79
390.754	12124.5
391.2	13364.22
391.645	13895.74
392.091	13488.16
392.537	13231.22
392.983	13457.05
393.428	13393.79
393.874	14563.44
394.319	14786.61
394.765	14180.66
395.21	14777.4
395.655	14045.53
396.101	13311.69
396.546	12139.55
396.991	12407.67
397.436	11636.06
397.881	11352.02
398.326	10881.46
398.771	10366.95
399.216	9158.14
399.661	8322.31
400.106	8345.31
400.551	8598.09
400.995	7766.79
401.44	7738.49
401.885	7317.83
402.329	7449.23
402.774	7183.7
403.218	6963.17
403.663	6745.28
404.107	6957.35
404.551	7028.59
404.995	6478.12
405.44	6268.96
405.884	6398.31
406.328	6223.26
406.772	6230.8
407.216	5685.2
407.66	5520.36
408.104	5280.63
408.547	4960.93
408.991	4818.11
409.435	4657.41
409.879	4600.81
410.322	4552.24
410.766	4397.8
411.209	4182.41
411.653	4016.11
412.096	3939.46
412.54	3945.59
412.983	3922.87
413.426	3932.84
413.869	3937.23
414.312	3864.35
414.756	3726.87
415.199	3558.13
415.642	3451.54
416.085	3459.09
416.527	3441.26
416.97	3500.94
417.413	3323.88
417.856	3299.51
418.298	3274.6
418.741	3259.17
419.184	3259.49
419.626	3408.28
420.069	3416.13
420.511	3439.37
420.953	3362.98
421.396	3334.97
421.838	3257.32
422.28	3332.82
422.722	3339.51
423.164	3387.92
423.606	3329.26
424.048	3326.56
424.49	3157.71
424.932	3144.65
425.374	3107.44
425.816	3167.55
426.258	3226.79
426.699	3259.9
427.141	3210.41
427.582	3263.37
428.024	3245.23
428.465	3229.93
428.907	3145.78
429.348	3104.73
429.789	3096.17
430.231	3019.42
430.672	3058.92
431.113	2984.34
431.554	2934.27
431.995	2859.07
432.436	2747.75
432.877	2681.12
433.318	2625.1
433.759	2610.85
434.2	2609.45
434.64	2580.34
435.081	2589.89
435.522	2447.78
435.962	2358.22
436.403	2304.67
436.843	2336.65
437.284	2292.03
437.724	2237.43
438.164	2251.74
438.604	2204.89
439.045	2119.14
439.485	2030.04
439.925	1990.79
440.365	1946.5
440.805	1924.22
441.245	1902.11
441.685	1836.58
442.125	1829.56
442.564	1844.96
443.004	1805.96
443.444	1809.36
443.883	1819.58
444.323	1819.17
444.762	1832.54
445.202	1863.87
445.641	1900.68
446.081	1900.37
446.52	1920.24
446.959	1904.31
447.398	1858.77
447.837	1841.49
448.276	1812.56
448.716	1833.55
449.154	1856.05
449.593	1815.21
450.032	1814.57
450.471	1789.46
450.91	1796.96
451.349	1795.74
451.787	1793.5
452.226	1828.52
452.664	1833.17
453.103	1842.14
453.541	1845.96
453.98	1840.5
454.418	1858.23
454.856	1829.37
455.295	1828.31
455.733	1841.89
456.171	1857.8
456.609	1860.42
457.047	1862.57
457.485	1887.2
457.923	1889.33
458.361	1867.08
458.798	1876.73
459.236	1871.19
459.674	1886.03
460.111	1893.34
460.549	1874.98
460.987	1867.55
461.424	1864.58
461.862	1852.19
462.299	1824.71
462.736	1819.82
463.173	1823.13
463.611	1795.11
464.048	1786.88
464.485	1799.94
464.922	1784.92
465.359	1775.54
465.796	1737.07
466.233	1719.01
466.67	1697.5
467.106	1689.42
467.543	1673.85
467.98	1654.39
468.416	1616.98
468.853	1607.24
469.29	1559.27
469.726	1542.85
470.162	1503.26
470.599	1497.09
471.035	1487.67
471.471	1457.19
471.907	1454.28
472.344	1447.66
472.78	1450.98
473.216	1473.45
473.652	1458.06
474.088	1457.5
474.523	1455.23
474.959	1472.4
475.395	1461.33
475.831	1454.13
476.266	1464.59
476.702	1464.49
477.138	1451.51
477.573	1450.37
478.008	1446.24
478.444	1454.63
478.879	1468.31
479.314	1476.2
479.75	1478.25
480.185	1488.93
480.62	1506.53
481.055	1517.81
481.49	1529.39
481.925	1554.13
482.36	1580.67
482.795	1629.34
483.229	1677.02
483.664	1715.46
484.099	1726.29
484.534	1752.87
484.968	1769.42
485.403	1776.52
485.837	1777.05
486.271	1778.11
486.706	1782.07
487.14	1765.39
487.574	1736.16
488.009	1720.56
488.443	1707.93
488.877	1723.26
489.311	1730.82
489.745	1752.38
490.179	1768.14
490.613	1797.4
491.046	1811.15
491.48	1824.75
491.914	1826.63
492.348	1840.65
492.781	1851.31
493.215	1855.07
493.648	1858.88
494.082	1872.19
494.515	1871.57
494.948	1890.04
495.382	1904.58
495.815	1914.77
496.248	1925.48
496.681	1957.49
497.114	1985.97
497.547	2009.59
497.98	2038.72
498.413	2049.4
498.846	2069.31
499.279	2088.11
499.711	2093.97
500.144	2094.43
500.577	2113.42
501.009	2135.01
501.442	2149.89
501.874	2141.82
502.306	2137.05
502.739	2142.06
503.171	2169.84
503.603	2166.31
504.036	2177.45
504.468	2179.24
504.9	2193.07
505.332	2195.19
505.764	2189.91
506.196	2191.1
506.627	2210
507.059	2224.17
507.491	2231.24
507.923	2207.3
508.354	2222.01
508.786	2225.35
509.217	2244.82
509.649	2257.04
510.08	2279.31
510.512	2294.01
510.943	2305.16
511.374	2307.59
511.805	2329.5
512.237	2347.32
512.668	2392.2
513.099	2426.09
513.53	2456.72
513.961	2471.95
514.391	2509.15
514.822	2545.89
515.253	2587.92
515.684	2610.3
516.114	2639.17
516.545	2650.9
516.975	2671.63
517.406	2677.44
517.836	2654.11
518.267	2639.97
518.697	2646.74
519.127	2628.72
519.558	2617.55
519.988	2600.68
520.418	2594.51
520.848	2602.13
521.278	2594.61
521.708	2587.34
522.138	2586.36
522.567	2617.52
522.997	2638.71
523.427	2643.87
523.857	2651.77
524.286	2649.14
524.716	2655.66
525.145	2669.39
525.575	2668.57
526.004	2676.06
526.433	2658.05
526.863	2643.62
527.292	2613.67
527.721	2609.17
528.15	2605.29
528.579	2594.05
529.008	2599.28
529.437	2623.13
529.866	2632.88
530.295	2650.11
530.724	2658.08
531.152	2691.59
531.581	2705.29
532.01	2722.05
532.438	2727.36
532.867	2742.81
533.295	2762.8
533.723	2765.94
534.152	2756.93
534.58	2751.08
535.008	2721.63
535.436	2718.08
535.865	2723.84
536.293	2740.38
536.721	2760.74
537.149	2793.32
537.576	2793.33
538.004	2808.29
538.432	2814.79
538.86	2807.87
539.287	2813.46
539.715	2831.31
540.143	2833.2
540.57	2823.84
540.998	2813.9
541.425	2777.45
541.852	2744.54
542.28	2739.97
542.707	2714.08
543.134	2693.01
543.561	2685.84
543.988	2673.99
544.415	2670.67
544.842	2661.69
545.269	2651.86
545.696	2654.34
546.123	2672.51
546.549	2658.27
546.976	2638.86
547.403	2639.82
547.829	2641.79
548.256	2645.65
548.682	2641.14
549.108	2630.44
549.535	2630.65
549.961	2633.21
550.387	2615.18
550.813	2608.97
551.24	2618.93
551.666	2621.93
552.092	2609.15
552.518	2602.56
552.943	2595
553.369	2608.33
553.795	2620.2
554.221	2623.76
554.646	2622.53
555.072	2641.98
555.498	2652.89
555.923	2671.26
556.349	2697.71
556.774	2716.1
557.199	2722.61
557.625	2736.7
558.05	2734.56
558.475	2755.28
558.9	2761.47
559.325	2756.84
559.75	2754.03
560.175	2751.3
560.6	2745.76
561.025	2750.88
561.449	2757.98
561.874	2774.22
562.299	2789.32
562.723	2808.25
563.148	2803.46
563.572	2819.68
563.997	2843.41
564.421	2862.43
564.846	2872.88
565.27	2889.71
565.694	2897.57
566.118	2929.67
566.542	2952.9
566.966	2954.41
567.39	2957.47
567.814	2950.26
568.238	2959.72
568.662	2982.02
569.086	2999.74
569.509	3026.29
569.933	3014.82
570.357	3014.27
570.78	2991.77
571.204	2982.95
571.627	2978.93
572.05	2990.99
572.474	3004.07
572.897	2995.93
573.32	2994.33
573.743	2989.81
574.166	2969.7
574.589	2984.52
575.012	2985.75
575.435	2997.35
575.858	2994.76
576.281	2988.5
576.704	2972.73
577.126	2964.79
577.549	2958.56
577.972	2955.4
578.394	2950.31
578.817	2949.21
579.239	2925.43
579.661	2910.98
580.084	2891.39
580.506	2878.55
580.928	2881.69
581.35	2872
581.772	2873.94
582.194	2858.84
582.616	2845.51
583.038	2827.02
583.46	2817.79
583.882	2820.92
584.303	2838.89
584.725	2841.4
585.147	2849.61
585.568	2877.5
585.99	2908.87
586.411	2927.65
586.833	2964.17
587.254	2973.1
587.675	3008.84
588.096	3040.65
588.518	3037.5
588.939	3011.08
589.36	3013.25
589.781	3003.79
590.202	2951.77
590.623	2940.77
591.043	2942.33
591.464	2921.46
591.885	2918.76
592.305	2911.19
592.726	2889.18
593.147	2896.93
593.567	2892.06
593.987	2882.12
594.408	2877.32
594.828	2881.68
595.248	2872.21
595.669	2840.07
596.089	2831.14
596.509	2822.17
596.929	2800.19
597.349	2804.56
597.769	2788.97
598.189	2779.56
598.608	2785.2
599.028	2793.25
599.448	2794.76
599.867	2774.63
600.287	2770.59
600.706	2765.84
601.126	2749.91
601.545	2750.53
601.965	2752.29
602.384	2744.87
602.803	2755.12
603.222	2749.6
603.641	2741.41
604.061	2739.17
604.48	2737.37
604.898	2758.65
605.317	2775.28
605.736	2787.33
606.155	2788.61
606.574	2778.04
606.992	2796.49
607.411	2794.57
607.829	2786.48
608.248	2787.64
608.666	2793.61
609.085	2800.82
609.503	2793.75
609.921	2789.87
610.339	2804.05
610.758	2813.29
611.176	2814.02
611.594	2805.21
612.012	2807.78
612.43	2825.06
612.847	2850.57
613.265	2861.05
613.683	2881.88
614.101	2893.98
614.518	2896.18
614.936	2884.53
615.353	2862.2
615.771	2863.24
616.188	2872.67
616.606	2874.7
617.023	2867.46
617.44	2843.99
617.857	2838.4
618.274	2825.84
618.691	2818.84
619.108	2804.8
619.525	2797.75
619.942	2819.01
620.359	2830.78
620.776	2827.21
621.192	2823.65
621.609	2823.41
622.026	2842.27
622.442	2859.84
622.859	2873.39
623.275	2862.83
623.691	2879.23
624.108	2908.34
624.524	2943.32
624.94	2945.81
625.356	2970.37
625.772	3002.95
626.188	3033.67
626.604	3039.21
627.02	3031.13
627.436	3028.15
627.852	3043.15
628.268	3072.33
628.683	3053.98
629.099	3037.13
629.514	3030.64
629.93	3040.77
630.345	3052.59
630.761	3047.42
631.176	3058.87
631.591	3048.1
632.007	3036.62
632.422	3038.85
632.837	3018.28
633.252	3016.31
633.667	2997.4
634.082	2980.03
634.497	2955.12
634.911	2914.33
635.326	2912.16
635.741	2877.31
636.155	2863.27
636.57	2874.05
636.984	2880.49
637.399	2892.29
637.813	2902.48
638.228	2911.26
638.642	2933.62
639.056	2921.44
639.47	2935.71
639.884	2925.98
640.298	2924.54
640.712	2932.91
641.126	2914.22
641.54	2906.69
641.954	2909.48
642.368	2891.11
642.781	2878.86
643.195	2848.41
643.609	2861.31
644.022	2857.58
644.436	2859.81
644.849	2842.66
645.262	2825.87
645.676	2843.99
646.089	2843.3
646.502	2813.6
646.915	2811.83
647.328	2780.68
647.741	2782.8
648.154	2757.69
648.567	2754.76
648.98	2727.81
649.393	2734.65
649.805	2730.49
650.218	2715.18
650.631	2677.38
651.043	2665.34
651.456	2653.86
651.868	2662.39
652.28	2716.16
652.693	2761.98
653.105	2789.04
653.517	2821.85
653.929	2829.35
654.341	2850.76
654.753	2825.67
655.165	2851.43
655.577	2853.99
655.989	2851.24
656.401	2841.29
656.813	2746.55
657.224	2698.51
657.636	2630.85
658.047	2588.85
658.459	2543.17
658.87	2531.45
659.282	2509.1
659.693	2457.99
660.104	2425.12
660.515	2395.46
660.926	2396.79
661.338	2399.01
661.749	2388.96
662.159	2368.23
662.57	2363.19
662.981	2356.74
663.392	2339.65
663.803	2354.08
664.213	2353.34
664.624	2344.92
665.035	2354.48
665.445	2317.7
665.855	2295.57
666.266	2271.05
666.676	2263.7
667.086	2237.69
667.497	2232.63
667.907	2210.42
668.317	2183.21
668.727	2163.25
669.137	2163.73
669.547	2155.51
669.956	2161.16
670.366	2163.33
670.776	2163.89
671.186	2171.25
671.595	2175.7
672.005	2182.98
672.414	2176.57
672.824	2164.81
673.233	2179.73
673.642	2179.68
674.052	2180.12
674.461	2175.82
674.87	2182.93
675.279	2168.23
675.688	2169.93
676.097	2165.24
676.506	2150.59
676.915	2187.65
677.323	2190.43
677.732	2180.84
678.141	2175.55
678.549	2144.75
678.958	2143.07
679.366	2141.32
679.775	2159.49
680.183	2182.74
680.592	2203.53
681	2221.58
681.408	2204.53
681.816	2230.95
682.224	2260.78
682.632	2289.77
683.04	2377.39
683.448	2450.19
683.856	2536.3
684.264	2633.3
684.671	2726.58
685.079	2836.29
685.487	2953.11
685.894	3116.6
686.302	3242.27
686.709	3334.72
687.116	3445.71
687.524	3519.78
687.931	3568.24
688.338	3601.37
688.745	3616.06
689.152	3635.16
689.559	3674.34
689.966	3706.24
