Data from N_3_DEC_ON_6N_Splice17_13-37-55-548.txt Node
Date: Sat Mar 14 13:37:55 EDT 2020
User: sa697716
Spectrometer: FLMS03696
Trigger mode: 0
Integration Time (sec): 3.180400E-1
Scans to average: 20
Electric dark correction enabled: true
Nonlinearity correction enabled: true
Boxcar width: 5
XAxis mode: Wavelengths
Number of Pixels in Spectrum: 2048
>>>>>Begin Spectral Data<<<<<
187.83	-518044.1
188.298	3598.44
188.766	1934.26
189.233	1736.32
189.701	2452.62
190.169	3470.67
190.636	1283.89
191.104	973.79
191.571	157.28
192.039	-61.38
192.506	-5.72
192.974	710.25
193.441	-902.75
193.908	-17.29
194.375	-82.57
194.842	48.06
195.31	162.7
195.777	205.86
196.244	489.62
196.711	581.32
197.177	708.32
197.644	1035.73
198.111	1822.91
198.578	2497.99
199.045	2007.4
199.511	3295.16
199.978	3832.29
200.445	3290.4
200.911	3616.23
201.378	4015.65
201.844	3655.1
202.31	6323.28
202.777	6575.58
203.243	3628.62
203.709	3438.41
204.176	4060.49
204.642	3338.91
205.108	3112.91
205.574	2505.67
206.04	2268.87
206.506	2129.79
206.972	2004.25
207.438	1914.53
207.903	2165.67
208.369	1896.86
208.835	1894.85
209.301	1984.22
209.766	2035.47
210.232	2004.55
210.697	2477.86
211.163	3068.07
211.628	4593.14
212.094	3844.2
212.559	4726.64
213.024	2922.28
213.49	3563.88
213.955	3481.23
214.42	3393.28
214.885	3136.39
215.35	3000.47
215.815	2899.6
216.28	3060.03
216.745	2469.21
217.21	2646.44
217.675	2381.73
218.14	2655.43
218.604	2909.45
219.069	3251.89
219.534	3360.96
219.998	3839.91
220.463	4582.2
220.927	5536.93
221.392	5166.33
221.856	5200.16
222.32	6478.93
222.785	7962.92
223.249	9940.56
223.713	11052.67
224.177	11015.54
224.642	14053.71
225.106	17327.71
225.57	18830.24
226.034	13993.76
226.497	21284.85
226.961	19228.21
227.425	22382.17
227.889	24772.77
228.353	24728.62
228.816	50926.37
229.28	48589.72
229.744	40939.58
230.207	24835.52
230.671	24471.52
231.134	40352.6
231.597	46464.28
232.061	46262.34
232.524	45005.29
232.987	30992.61
233.45	27890.93
233.914	24988.55
234.377	25584.92
234.84	23401.42
235.303	27521.21
235.766	30686.97
236.229	31671.42
236.691	19911.93
237.154	22382.16
237.617	16874.98
238.08	17289.08
238.542	20210.65
239.005	14449.04
239.468	14345.84
239.93	13521.92
240.393	12305.76
240.855	10808.36
241.317	11073.07
241.78	13469.23
242.242	13936.71
242.704	15042.07
243.166	13075.98
243.629	11890.51
244.091	13706.88
244.553	15032.28
245.015	16143.77
245.477	20845
245.939	30509.29
246.4	32437.99
246.862	31484.37
247.324	29649.9
247.786	33137.36
248.247	43449.88
248.709	44816.91
249.17	33517.95
249.632	31587.44
250.093	36661.27
250.555	31677.39
251.016	19322.94
251.477	18305.56
251.939	19804.49
252.4	20781.65
252.861	24707.25
253.322	22995.83
253.783	27344.77
254.244	35468.3
254.705	27979.17
255.166	24872.07
255.627	24524.57
256.088	34678.36
256.549	36850.7
257.009	31707.72
257.47	38466.44
257.931	31316.18
258.391	23464.59
258.852	24192.71
259.312	25325.82
259.773	31248.57
260.233	26423.4
260.694	22268.62
261.154	25200.39
261.614	20243.03
262.074	18079.92
262.534	18803.37
262.994	17719.07
263.455	23569.24
263.915	19853.7
264.374	18710.93
264.834	20401.06
265.294	22576.99
265.754	23381.91
266.214	22127.92
266.673	20721.88
267.133	26167.17
267.593	25908.91
268.052	31741.84
268.512	27613.68
268.971	33337.99
269.431	36576.58
269.89	32771.93
270.349	49182.6
270.809	54867.56
271.268	49425.88
271.727	110797.23
272.186	71738.78
272.645	53874.91
273.104	38809.14
273.563	56158.82
274.022	44107.13
274.481	37519.72
274.94	28923.95
275.399	21472.15
275.857	25005.41
276.316	33760.14
276.775	30041.44
277.233	29597.47
277.692	27742.1
278.15	31427.45
278.609	32423.7
279.067	30059.71
279.525	27940.84
279.984	36090.85
280.442	43406.4
280.9	42863.19
281.358	28233.62
281.816	26328.44
282.274	25811.84
282.732	26624.76
283.19	26749.89
283.648	23061.99
284.106	24563.72
284.564	24981.28
285.021	23187.82
285.479	17295.67
285.937	15690.83
286.394	13781.48
286.852	14206.81
287.309	14925.88
287.767	14449.52
288.224	13743.54
288.682	15086.45
289.139	16552.48
289.596	15151.77
290.053	15735.27
290.511	19854.87
290.968	24095.82
291.425	32628.12
291.882	27150.58
292.339	23637.89
292.796	23419.58
293.252	22042.4
293.709	17541.84
294.166	15720.31
294.623	17365.97
295.079	16663.92
295.536	16749.44
295.992	15220.73
296.449	15061.11
296.905	15664.27
297.362	15029.33
297.818	15804.19
298.274	16424.54
298.731	16683.12
299.187	16499.17
299.643	17710.2
300.099	21412.98
300.555	23450.31
301.011	19595.54
301.467	18934.52
301.923	22113.41
302.379	21597.9
302.835	21236.49
303.291	21270.04
303.746	24256.71
304.202	30670.59
304.658	30831.73
305.113	20741.64
305.569	20361.87
306.024	21699.67
306.479	20623.13
306.935	17415.04
307.39	19020.62
307.845	17567.63
308.301	17707.61
308.756	17258.05
309.211	16665.23
309.666	17054.98
310.121	21242.08
310.576	21598.4
311.031	21446.4
311.486	24565.73
311.94	24563.94
312.395	32851.68
312.85	61768.06
313.305	302897.26
313.759	1570039.09
314.214	113703.4
314.668	90440.26
315.123	76166.49
315.577	27302.48
316.032	24302.37
316.486	30455.84
316.94	24034.5
317.394	16727.44
317.849	13020.93
318.303	12335.55
318.757	11654.12
319.211	12874.43
319.665	11245.9
320.119	11359.27
320.572	16284.56
321.026	15228.68
321.48	12689.84
321.934	13847.06
322.387	13886.01
322.841	15004.88
323.295	13516.97
323.748	15542.66
324.202	15778.48
324.655	18996.69
325.108	26598.91
325.562	18791.05
326.015	22347.62
326.468	16906.22
326.921	18902.47
327.374	17661.97
327.827	18392.82
328.28	20821.46
328.733	13979.18
329.186	12309.99
329.639	11725.56
330.092	9869.05
330.545	9409.46
330.997	9492.48
331.45	10381.57
331.903	12191.42
332.355	20957.04
332.808	20374.68
333.26	16790.67
333.713	18247.86
334.165	18348.35
334.617	24496.42
335.069	19805.67
335.522	35841.39
335.974	39716.67
336.426	36317.7
336.878	25097.65
337.33	12736.86
337.782	12440.8
338.234	15597.8
338.686	18600.52
339.137	22112.66
339.589	20854.06
340.041	16350.3
340.493	14044.42
340.944	14392.85
341.396	15492.46
341.847	13075.76
342.299	15454.17
342.75	18911.98
343.201	16498.11
343.653	19011.33
344.104	23303.71
344.555	18304.98
345.006	28453.4
345.457	21855.59
345.908	17343.16
346.359	16336.63
346.81	13272.78
347.261	13966.95
347.712	13720.42
348.163	14730.5
348.613	14939.97
349.064	13967.95
349.515	12239
349.965	12544.61
350.416	15081.85
350.866	16571.36
351.317	18705.93
351.767	31024.15
352.217	39247.92
352.668	32559.57
353.118	29864.62
353.568	28780.08
354.018	22810.41
354.468	24101.49
354.918	17316.32
355.368	15165.13
355.818	21447.05
356.268	61794.5
356.718	259175.56
357.168	64648.61
357.617	32463.44
358.067	36155.52
358.517	33909.6
358.966	39824.25
359.416	44748.37
359.865	48496.02
360.315	57822.81
360.764	27035.44
361.213	15177.62
361.663	14379.59
362.112	17776.98
362.561	28872.5
363.01	21886.8
363.459	18463.31
363.908	19998.76
364.357	17059.15
364.806	28886.46
365.255	19927.88
365.703	18379.49
366.152	18490.71
366.601	15080.22
367.05	12328.19
367.498	11247.1
367.947	11768.68
368.395	12327.47
368.844	11016.3
369.292	13357.55
369.74	9330.55
370.189	14427.93
370.637	17044.42
371.085	14859.99
371.533	18266.39
371.981	17772.04
372.429	17180.41
372.877	18185.42
373.325	15453.48
373.773	15968.26
374.221	14444.01
374.669	18142.96
375.116	15912.25
375.564	16308.43
376.012	18582
376.459	15618.3
376.907	19013.87
377.354	23426.35
377.801	22255.37
378.249	26075.44
378.696	34011.33
379.143	41996.32
379.591	45825.17
380.038	79289.98
380.485	58563.64
380.932	64595.75
381.379	60373.62
381.826	45417.37
382.273	32999.78
382.72	29519.45
383.166	29424.49
383.613	19524.96
384.06	18019.05
384.506	21330
384.953	16014.37
385.4	16495.29
385.846	14775.99
386.292	14734
386.739	14745.47
387.185	14894.07
387.631	15201.09
388.078	15016.72
388.524	16377.76
388.97	15403.57
389.416	13075
389.862	14158.05
390.308	13648.51
390.754	14077.82
391.2	15542.23
391.645	16143.51
392.091	15630.91
392.537	15318.72
392.983	15585.43
393.428	15498.71
393.874	16842.77
394.319	17111.56
394.765	16423.44
395.21	17112.34
395.655	16244.12
396.101	15374.67
396.546	14014.23
396.991	14317.97
397.436	13427.01
397.881	13103.53
398.326	12548
398.771	11954.2
399.216	10551.89
399.661	9577.72
400.106	9596.69
400.551	9890.61
400.995	8926.33
401.44	8888.21
401.885	8395.65
402.329	8531.94
402.774	8216.08
403.218	7973.36
403.663	7724.07
404.107	7967.8
404.551	8052.21
404.995	7420.88
405.44	7187.5
405.884	7326.5
406.328	7126.84
406.772	7134.84
407.216	6518.37
407.66	6325.77
408.104	6043.47
408.547	5677.48
408.991	5504.53
409.435	5320.08
409.879	5250.06
410.322	5183.6
410.766	5013
411.209	4766.51
411.653	4580.94
412.096	4480.31
412.54	4490.88
412.983	4460.78
413.426	4466.62
413.869	4476.61
414.312	4389.31
414.756	4234.45
415.199	4043.75
415.642	3923.77
416.085	3930.31
416.527	3907.94
416.97	3981.67
417.413	3777.99
417.856	3750.2
418.298	3723.16
418.741	3708.25
419.184	3710.41
419.626	3882.29
420.069	3888.24
420.511	3913.81
420.953	3830.32
421.396	3796.78
421.838	3706.12
422.28	3788.39
422.722	3798.54
423.164	3855.31
423.606	3782.62
424.048	3782.42
424.49	3585.42
424.932	3571.04
425.374	3524.08
425.816	3591.35
426.258	3659.88
426.699	3701.11
427.141	3641.96
427.582	3704.32
428.024	3686.94
428.465	3669.74
428.907	3567.54
429.348	3524.27
429.789	3514.91
430.231	3432.7
430.672	3473.15
431.113	3387.4
431.554	3330.02
431.995	3248.9
432.436	3121.36
432.877	3040.28
433.318	2977.66
433.759	2963.24
434.2	2958.91
434.64	2925.78
435.081	2932.23
435.522	2775.54
435.962	2674.14
436.403	2611.66
436.843	2649.34
437.284	2596.48
437.724	2536.23
438.164	2552.28
438.604	2501.93
439.045	2405.27
439.485	2304.05
439.925	2261.62
440.365	2211.03
440.805	2186.97
441.245	2164.63
441.685	2088.75
442.125	2080.23
442.564	2099.33
443.004	2052.68
443.444	2052.88
443.883	2061.8
444.323	2060.5
444.762	2076.8
445.202	2110.75
445.641	2151.98
446.081	2152.83
446.52	2176.02
446.959	2159.12
447.398	2106.78
447.837	2089.48
448.276	2059.13
448.716	2086.97
449.154	2113.55
449.593	2067.1
450.032	2066.89
450.471	2037.06
450.91	2041.06
451.349	2040.26
451.787	2039.82
452.226	2076.92
452.664	2081.89
453.103	2089.52
453.541	2093.22
453.98	2086.36
454.418	2104.15
454.856	2070.69
455.295	2069.58
455.733	2088.67
456.171	2104.47
456.609	2105.09
457.047	2107.52
457.485	2135.25
457.923	2137.15
458.361	2109.87
458.798	2121.08
459.236	2115.22
459.674	2133.93
460.111	2143.09
460.549	2119.37
460.987	2111.54
461.424	2107.98
461.862	2096.39
462.299	2063.96
462.736	2057.95
463.173	2061.78
463.611	2030.6
464.048	2021.26
464.485	2033.52
464.922	2013.06
465.359	2003.94
465.796	1958.4
466.233	1938.76
466.67	1913.59
467.106	1905.73
467.543	1890.12
467.98	1868.12
468.416	1824.83
468.853	1813.89
469.29	1759.82
469.726	1743.57
470.162	1699.76
470.599	1693.69
471.035	1682.28
471.471	1646.36
471.907	1642.59
472.344	1635.06
472.78	1640.68
473.216	1665.43
473.652	1648.28
474.088	1649.82
474.523	1644.93
474.959	1662.49
475.395	1650.67
475.831	1643.24
476.266	1657.12
476.702	1656.23
477.138	1640.23
477.573	1637.3
478.008	1632.13
478.444	1640.3
478.879	1655.04
479.314	1664.7
479.75	1667.21
480.185	1679.68
480.62	1699.2
481.055	1711.12
481.49	1725.49
481.925	1753.36
482.36	1781.83
482.795	1837.76
483.229	1892.37
483.664	1936.19
484.099	1949.14
484.534	1981.48
484.968	2002.07
485.403	2010.51
485.837	2011.62
486.271	2009.98
486.706	2015.04
487.14	1998.31
487.574	1965.62
488.009	1948.84
488.443	1933.85
488.877	1950.2
489.311	1956.49
489.745	1978.38
490.179	1995.37
490.613	2027.62
491.046	2044.31
491.48	2058.63
491.914	2060.43
492.348	2075.08
492.781	2085.67
493.215	2089.79
493.648	2094.46
494.082	2109.94
494.515	2108.81
494.948	2128.56
495.382	2142.86
495.815	2154.17
496.248	2166.62
496.681	2201.64
497.114	2233.92
497.547	2260.52
497.98	2292.85
498.413	2304.46
498.846	2325.65
499.279	2345.54
499.711	2352.64
500.144	2353.05
500.577	2373.63
501.009	2397.92
501.442	2413.79
501.874	2404.98
502.306	2399.19
502.739	2403.66
503.171	2432.3
503.603	2428.01
504.036	2441.32
504.468	2441.92
504.9	2457.55
505.332	2460.4
505.764	2452.71
506.196	2454.34
506.627	2474.54
507.059	2490.32
507.491	2496.37
507.923	2470.21
508.354	2486.12
508.786	2489.55
509.217	2510.52
509.649	2522.71
510.08	2545.49
510.512	2561.01
510.943	2572.15
511.374	2572.71
511.805	2594.83
512.237	2615.11
512.668	2663.99
513.099	2699.38
513.53	2733.56
513.961	2751.78
514.391	2794
514.822	2834.06
515.253	2881.95
515.684	2906.23
516.114	2937.83
516.545	2948.37
516.975	2970.13
517.406	2975.43
517.836	2950.37
518.267	2932.36
518.697	2935.42
519.127	2913.87
519.558	2899.43
519.988	2878.56
520.418	2871.46
520.848	2878.33
521.278	2869.94
521.708	2855.28
522.138	2854.15
522.567	2887.81
522.997	2910.51
523.427	2916.41
523.857	2924.85
524.286	2921.59
524.716	2928.2
525.145	2940.95
525.575	2939.54
526.004	2945.98
526.433	2932.31
526.863	2916.24
527.292	2880.94
527.721	2875.72
528.15	2870.93
528.579	2857.14
529.008	2862.93
529.437	2889.19
529.866	2900.66
530.295	2918.12
530.724	2928.6
531.152	2962.84
531.581	2975.82
532.01	2996.36
532.438	3000.33
532.867	3017.48
533.295	3039.66
533.723	3042.31
534.152	3030.4
534.58	3021.64
535.008	2990.41
535.436	2987.43
535.865	2995
536.293	3013.35
536.721	3033.98
537.149	3070.42
537.576	3070.65
538.004	3086.53
538.432	3095.78
538.86	3089.93
539.287	3098.94
539.715	3118.88
540.143	3119.64
540.57	3111.03
540.998	3102.65
541.425	3062.63
541.852	3027.43
542.28	3021.88
542.707	2994.67
543.134	2969.9
543.561	2960.71
543.988	2946.88
544.415	2943.42
544.842	2932.95
545.269	2919.33
545.696	2922.08
546.123	2942.56
546.549	2925.82
546.976	2903.05
547.403	2901.83
547.829	2904.13
548.256	2908.02
548.682	2902.7
549.108	2891.14
549.535	2890.43
549.961	2894.83
550.387	2874.86
550.813	2867.17
551.24	2878.04
551.666	2882.34
552.092	2868.78
552.518	2860.94
552.943	2853.54
553.369	2868.64
553.795	2880.53
554.221	2885.9
554.646	2882.29
555.072	2901.34
555.498	2913.35
555.923	2931.89
556.349	2962.87
556.774	2982.02
557.199	2990.92
557.625	3007.33
558.05	3003.46
558.475	3027.58
558.9	3032.83
559.325	3028.64
559.75	3025.76
560.175	3022.38
560.6	3021.45
561.025	3025.4
561.449	3036.57
561.874	3054.11
562.299	3069.64
562.723	3092.41
563.148	3085.85
563.572	3104.33
563.997	3131.03
564.421	3152.98
564.846	3165.62
565.27	3181.78
565.694	3189.12
566.118	3221.3
566.542	3245.93
566.966	3247.93
567.39	3252.22
567.814	3244.72
568.238	3256.92
568.662	3281.75
569.086	3300.88
569.509	3328.31
569.933	3314.25
570.357	3315.4
570.78	3292.43
571.204	3283.48
571.627	3279.37
572.05	3291.01
572.474	3306.01
572.897	3297.78
573.32	3296.43
573.743	3293.33
574.166	3273.38
574.589	3289.1
575.012	3289.67
575.435	3302.27
575.858	3300.64
576.281	3292.31
576.704	3276.77
577.126	3268.66
577.549	3260.75
577.972	3255.3
578.394	3248.42
578.817	3247.2
579.239	3224.47
579.661	3210.61
580.084	3190.22
580.506	3175.63
580.928	3181.69
581.35	3171.62
581.772	3174.02
582.194	3158.67
582.616	3145.65
583.038	3127.35
583.46	3117.03
583.882	3118.48
584.303	3138.54
584.725	3140.72
585.147	3151.06
585.568	3182.02
585.99	3215.26
586.411	3237.64
586.833	3276.39
587.254	3287.17
587.675	3325.11
588.096	3362.07
588.518	3360.84
588.939	3331.78
589.36	3335.08
589.781	3324.31
590.202	3266.67
590.623	3255.06
591.043	3257.06
591.464	3237.13
591.885	3235.62
592.305	3228.51
592.726	3203.14
593.147	3210.52
593.567	3203.53
593.987	3191.71
594.408	3185.85
594.828	3191.24
595.248	3181.36
595.669	3141.73
596.089	3129.47
596.509	3119.31
596.929	3094.14
597.349	3099.2
597.769	3081.91
598.189	3072.79
598.608	3080.87
599.028	3089.89
599.448	3093.21
599.867	3071.35
600.287	3069.45
600.706	3064.35
601.126	3046.16
601.545	3047.18
601.965	3049.92
602.384	3043.78
602.803	3055.57
603.222	3048.39
603.641	3038.97
604.061	3037.08
604.48	3033.38
604.898	3056.93
605.317	3075.63
605.736	3089.47
606.155	3090.76
606.574	3077.73
606.992	3096.84
607.411	3094.77
607.829	3086.37
608.248	3088.98
608.666	3093.56
609.085	3103.07
609.503	3094.57
609.921	3090.2
610.339	3106.47
610.758	3117.19
611.176	3118.09
611.594	3109.81
612.012	3111.62
612.43	3129.88
612.847	3157.35
613.265	3171.07
613.683	3193.23
614.101	3207.61
614.518	3211.77
614.936	3197.52
615.353	3172.79
615.771	3175.51
616.188	3185.64
616.606	3191.09
617.023	3184.79
617.44	3159
617.857	3152.5
618.274	3141.03
618.691	3135.7
619.108	3121.03
619.525	3113.94
619.942	3137.42
620.359	3152.22
620.776	3147.34
621.192	3141.21
621.609	3140.82
622.026	3162.55
622.442	3181
622.859	3195.49
623.275	3182.1
623.691	3199.71
624.108	3231.44
624.524	3272.45
624.94	3275.46
625.356	3303.88
625.772	3342.08
626.188	3377.24
626.604	3383.5
627.02	3376.43
627.436	3372.63
627.852	3389.4
628.268	3422.38
628.683	3403.93
629.099	3385.36
629.514	3374.78
629.93	3387.99
630.345	3400.41
630.761	3392.53
631.176	3405.91
631.591	3389.95
632.007	3375.93
632.422	3376.84
632.837	3352.88
633.252	3349.72
633.667	3328.23
634.082	3311.3
634.497	3282.02
634.911	3238.25
635.326	3236.53
635.741	3198.07
636.155	3183.85
636.57	3197.2
636.984	3206.66
637.399	3220.67
637.813	3233.25
638.228	3241.93
638.642	3266.05
639.056	3253.27
639.47	3268.85
639.884	3259.5
640.298	3258.27
640.712	3268.75
641.126	3250.38
641.54	3242.47
641.954	3247.73
642.368	3228.02
642.781	3216.98
643.195	3182.48
643.609	3198.93
644.022	3197.52
644.436	3202.73
644.849	3183.51
645.262	3167.12
645.676	3185.57
646.089	3184.51
646.502	3148.33
646.915	3146.54
647.328	3110.74
647.741	3114.82
648.154	3084.72
648.567	3079.5
648.98	3046.41
649.393	3055.07
649.805	3048.22
650.218	3034.35
650.631	2993.06
651.043	2981.21
651.456	2967.35
651.868	2977.48
652.28	3039.17
652.693	3089.9
653.105	3123.19
653.517	3163.42
653.929	3172.18
654.341	3199.91
654.753	3168.03
655.165	3197.78
655.577	3202.28
655.989	3199.17
656.401	3188.58
656.813	3082.49
657.224	3031.2
657.636	2953.94
658.047	2905.43
658.459	2854.64
658.87	2839.09
659.282	2816.65
659.693	2760.35
660.104	2724.23
660.515	2693.19
660.926	2695.46
661.338	2696.59
661.749	2685.25
662.159	2660.54
662.57	2656.47
662.981	2648.51
663.392	2630.45
663.803	2648.17
664.213	2647.2
664.624	2637.96
665.035	2651.46
665.445	2609.88
665.855	2587.06
666.266	2560.69
666.676	2554.23
667.086	2525.62
667.497	2522.21
667.907	2500.99
668.317	2468.32
668.727	2446.52
669.137	2446.96
669.547	2434.77
669.956	2440.59
670.366	2442.86
670.776	2442.3
671.186	2449.89
671.595	2454.66
672.005	2462.99
672.414	2451.67
672.824	2440.17
673.233	2455.91
673.642	2455.63
674.052	2456.5
674.461	2452.51
674.87	2459.7
675.279	2443.59
675.688	2444.11
676.097	2437.34
676.506	2420.38
676.915	2462.26
677.323	2464.48
677.732	2452.49
678.141	2446.97
678.549	2412.86
678.958	2409.69
679.366	2407.62
679.775	2426.08
680.183	2453.4
680.592	2475.24
681	2494.36
681.408	2475.88
681.816	2504.72
682.224	2536.95
682.632	2567.5
683.04	2664.38
683.448	2745.45
683.856	2841.55
684.264	2948.92
684.671	3052.52
685.079	3173.56
685.487	3302.85
685.894	3482.01
686.302	3621.2
686.709	3725
687.116	3846.15
687.524	3923.66
687.931	3979.04
688.338	4014.81
688.745	4029.17
689.152	4046.55
689.559	4089.92
689.966	4124.02
