Data from N_3_DEC_ON_6N_Splice17_13-37-32-662.txt Node
Date: Sat Mar 14 13:37:32 EDT 2020
User: sa697716
Spectrometer: FLMS03696
Trigger mode: 0
Integration Time (sec): 3.180400E-1
Scans to average: 20
Electric dark correction enabled: true
Nonlinearity correction enabled: true
Boxcar width: 5
XAxis mode: Wavelengths
Number of Pixels in Spectrum: 2048
>>>>>Begin Spectral Data<<<<<
187.83	-535259.17
188.298	3773.54
188.766	1944.82
189.233	1768.42
189.701	2435.54
190.169	3304.17
190.636	1247.67
191.104	972.57
191.571	144.31
192.039	-63.72
192.506	-118.93
192.974	479.23
193.441	-778.62
193.908	-80.8
194.375	-46.48
194.842	16.12
195.31	73.17
195.777	188.15
196.244	400.53
196.711	480.61
197.177	640
197.644	894.72
198.111	1585.86
198.578	2226.24
199.045	1775.03
199.511	2916.59
199.978	3377.25
200.445	2887.28
200.911	3165.97
201.378	3527.83
201.844	3200.88
202.31	5398.94
202.777	5661.65
203.243	3123.83
203.709	2950.63
204.176	3495.75
204.642	2887.52
205.108	2706.93
205.574	2200.64
206.04	1989.94
206.506	1874.35
206.972	1756.88
207.438	1701.5
207.903	1925.44
208.369	1699.68
208.835	1696.61
209.301	1769.35
209.766	1803.66
210.232	1779.28
210.697	2176.58
211.163	2685.8
211.628	4033.67
212.094	3398.68
212.559	4162.38
213.024	2577.09
213.49	3118.27
213.955	3035.06
214.42	2946.87
214.885	2739.9
215.35	2633.62
215.815	2582.55
216.28	2741.22
216.745	2224.11
217.21	2372.81
217.675	2154.38
218.14	2408.3
218.604	2646.09
219.069	2982.16
219.534	3116.05
219.998	3560.17
220.463	4246.44
220.927	5120.69
221.392	4771.37
221.856	4808.16
222.32	6017.36
222.785	7388.85
223.249	9240.47
223.713	10260.94
224.177	10219.77
224.642	13029.24
225.106	15980.55
225.57	17393.88
226.034	12934.06
226.497	19675.24
226.961	17772.61
227.425	20692.01
227.889	22877.47
228.353	22862.56
228.816	47198.56
229.28	45209.51
229.744	38103.32
230.207	23188.47
230.671	22825.47
231.134	37640.96
231.597	43383.54
232.061	43281.96
232.524	42134.48
232.987	29016.11
233.45	26122.87
233.914	23429.57
234.377	23961.4
234.84	21924.41
235.303	25846.49
235.766	28875.24
236.229	29827.26
236.691	18757.52
237.154	21053.84
237.617	15857.47
238.08	16228.76
238.542	18961.54
239.005	13540.75
239.468	13438.86
239.93	12674.76
240.393	11510.42
240.855	10091.64
241.317	10323.72
241.78	12557.06
242.242	12986.24
242.704	14043.84
243.166	12253.28
243.629	11152.5
244.091	12858.97
244.553	14100.49
245.015	15153.27
245.477	19592.81
245.939	28724.31
246.4	30572.45
246.862	29702.97
247.324	28010.43
247.786	31322.05
248.247	41084.57
248.709	42307.57
249.17	31702.86
249.632	29899.78
250.093	34716.72
250.555	30011.34
251.016	18327.76
251.477	17396.76
251.939	18824.92
252.4	19788.32
252.861	23517.32
253.322	21891.37
253.783	26087.66
254.244	33856.16
254.705	26699.37
255.166	23755.66
255.627	23428.82
256.088	33119.04
256.549	35179.78
257.009	30288.65
257.47	36754.76
257.931	29931.75
258.391	22435.85
258.852	23155.51
259.312	24251.67
259.773	29971.98
260.233	25358.85
260.694	21411.95
261.154	24269.87
261.614	19537.26
262.074	17476.56
262.534	18179.13
262.994	17178.15
263.455	22901.43
263.915	19300.65
264.374	18197.75
264.834	19877.39
265.294	22044.31
265.754	22852.41
266.214	21637.19
266.673	20248.4
267.133	25589.78
267.593	25378.76
268.052	31069.66
268.512	27029.71
268.971	32667.86
269.431	35893.98
269.89	32212.58
270.349	48305.46
270.809	53895.74
271.268	48533.22
271.727	109065.99
272.186	70672.82
272.645	53041.86
273.104	38233.61
273.563	55411.99
274.022	43596.05
274.481	37136.88
274.94	28603.05
275.399	21272.04
275.857	24778.15
276.316	33493.65
276.775	29801.61
277.233	29378.94
277.692	27564.54
278.15	31245.51
278.609	32199.95
279.067	29800.98
279.525	27692.6
279.984	35818.6
280.442	43046.05
280.9	42510.84
281.358	28015.15
281.816	26095
282.274	25555.99
282.732	26393.01
283.19	26544.73
283.648	22919.44
284.106	24449.42
284.564	24868.26
285.021	23065.94
285.479	17196.36
285.937	15626.68
286.394	13725.22
286.852	14151.49
287.309	14888.81
287.767	14426.8
288.224	13737.04
288.682	15089.64
289.139	16579.49
289.596	15182.85
290.053	15790.7
290.511	19940.38
290.968	24240.88
291.425	32907.39
291.882	27448.89
292.339	23950.66
292.796	23721.03
293.252	22347.15
293.709	17764.38
294.166	15919.33
294.623	17603.54
295.079	16897.46
295.536	16999.64
295.992	15435.54
296.449	15270.44
296.905	15851.3
297.362	15199
297.818	16010.36
298.274	16648.28
298.731	16967.88
299.187	16803.7
299.643	18056.45
300.099	21852.98
300.555	23979.28
301.011	20050.37
301.467	19379.95
301.923	22691.89
302.379	22172.1
302.835	21773.1
303.291	21775.05
303.746	24794.93
304.202	31352.98
304.658	31472
305.113	21171.34
305.569	20767.08
306.024	22145.45
306.479	21059.66
306.935	17796.44
307.39	19436.75
307.845	17974.91
308.301	18128.49
308.756	17667.56
309.211	17007.73
309.666	17430.74
310.121	21681.06
310.576	21990.83
311.031	21815.45
311.486	24967.4
311.94	24943.87
312.395	33343.17
312.85	62694.92
313.305	307426.23
313.759	1596204.07
314.214	115918.27
314.668	91982.24
315.123	77375.32
315.577	27778.57
316.032	24737.65
316.486	31070.68
316.94	24512.73
317.394	17133.06
317.849	13318.07
318.303	12623.85
318.757	11897.27
319.211	13169.02
319.665	11537.25
320.119	11694.93
320.572	16782.15
321.026	15695.66
321.48	13065.09
321.934	14255.3
322.387	14234.48
322.841	15397.4
323.295	13882.99
323.748	15981.74
324.202	16203.11
324.655	19488.62
325.108	27252.39
325.562	19267.44
326.015	22895.21
326.468	17280.17
326.921	19345.67
327.374	18074.73
327.827	18832.76
328.28	21337.64
328.733	14348.57
329.186	12623.35
329.639	12032.01
330.092	10137.09
330.545	9661.74
330.997	9749
331.45	10690.66
331.903	12541.11
332.355	21596.07
332.808	20991.31
333.26	17288.96
333.713	18740.71
334.165	18888.2
334.617	25184.34
335.069	20351.24
335.522	36785.72
335.974	40775.64
336.426	37229.37
336.878	25777.16
337.33	13083.33
337.782	12774.41
338.234	16003.22
338.686	19155.2
339.137	22703.5
339.589	21427.93
340.041	16798.58
340.493	14442.89
340.944	14787.49
341.396	15946.83
341.847	13430.2
342.299	15880.77
342.75	19410.8
343.201	16956.29
343.653	19491.55
344.104	23976.28
344.555	18859.44
345.006	29342.41
345.457	22512.81
345.908	17911.77
346.359	16875.48
346.81	13759.76
347.261	14491.21
347.712	14259.09
348.163	15316.42
348.613	15525.68
349.064	14495.32
349.515	12684.83
349.965	13042.23
350.416	15710.68
350.866	17223.84
351.317	19461.5
351.767	32210.98
352.217	40664.74
352.668	33818.78
353.118	31041.06
353.568	29945.69
354.018	23717.66
354.468	25090.4
354.918	18004.28
355.368	15779.18
355.818	22322.21
356.268	64159.72
356.718	268752.42
357.168	67007.76
357.617	33558.12
358.067	37302.54
358.517	34986.39
358.966	41081.51
359.416	46205.97
359.865	49947.87
360.315	59464.41
360.764	27832.93
361.213	15652.17
361.663	14847.48
362.112	18348.95
362.561	29813.3
363.01	22531.49
363.459	18968.64
363.908	20565.77
364.357	17494.73
364.806	29563.35
365.255	20364.52
365.703	18729.48
366.152	18786.73
366.601	15300.08
367.05	12477.49
367.498	11355.75
367.947	11908.28
368.395	12457.26
368.844	11111.65
369.292	13435.42
369.74	9348.84
370.189	14422.12
370.637	17020.39
371.085	14770.86
371.533	18092.43
371.981	17580.19
372.429	16952.45
372.877	17795.9
373.325	15061.76
373.773	15449.86
374.221	13954.09
374.669	17508.71
375.116	15304.65
375.564	15580.16
376.012	17696.17
376.459	14782.42
376.907	17836.07
377.354	21807.67
377.801	20641.13
378.249	24055.57
378.696	31181.21
379.143	38168
379.591	41295.99
380.038	70914.8
380.485	52129.11
380.932	57218.73
381.379	53233
381.826	39907.48
382.273	28811.07
382.72	25596.93
383.166	25335.25
383.613	16706.59
384.06	15332.89
384.506	18027.48
384.953	13463.3
385.4	13765.67
385.846	12221.52
386.292	12101.1
386.739	12033.54
387.185	12082.2
387.631	12250.49
388.078	12050.15
388.524	13074.65
388.97	12230.53
389.416	10337.15
389.862	11123.77
390.308	10665.21
390.754	10967.86
391.2	12052.84
391.645	12462.14
392.091	12028.86
392.537	11751.16
392.983	11906.78
393.428	11809.37
393.874	12783.5
394.319	12935.54
394.765	12377.17
395.21	12851.59
395.655	12155.1
396.101	11453.64
396.546	10413.58
396.991	10595.32
397.436	9899.61
397.881	9624.64
398.326	9173.77
398.771	8716.51
399.216	7680.21
399.661	6957.54
400.106	6959.85
400.551	7155.84
400.995	6449.85
401.44	6401.32
401.885	6039.47
402.329	6126.05
402.774	5886.21
403.218	5705.24
403.663	5510.19
404.107	5667.92
404.551	5711.31
404.995	5245.47
405.44	5062.27
405.884	5152.51
406.328	5002.91
406.772	4996.45
407.216	4552.82
407.66	4410.71
408.104	4203.5
408.547	3942.96
408.991	3816.36
409.435	3680.86
409.879	3630.15
410.322	3582.89
410.766	3455.39
411.209	3281.27
411.653	3148.96
412.096	3082.95
412.54	3084.34
412.983	3062.16
413.426	3066.51
413.869	3067.38
414.312	3007.35
414.756	2896.94
415.199	2763.44
415.642	2681.11
416.085	2680.98
416.527	2664.12
416.97	2708.48
417.413	2568.87
417.856	2544.95
418.298	2519.18
418.741	2504.24
419.184	2501.85
419.626	2615.25
420.069	2615.43
420.511	2631.4
420.953	2576.81
421.396	2549.8
421.838	2487.3
422.28	2545.02
422.722	2553.65
423.164	2591.66
423.606	2546.23
424.048	2538.54
424.49	2402.93
424.932	2388.73
425.374	2353.69
425.816	2395.98
426.258	2441.85
426.699	2468.44
427.141	2429
427.582	2466.39
428.024	2451.82
428.465	2435.78
428.907	2371.05
429.348	2341.42
429.789	2336.15
430.231	2281.78
430.672	2307.22
431.113	2245.65
431.554	2203.64
431.995	2141.33
432.436	2056.4
432.877	2004.91
433.318	1962.68
433.759	1954.02
434.2	1950.83
434.64	1929.4
435.081	1932.93
435.522	1827.46
435.962	1759.71
436.403	1718.07
436.843	1743.28
437.284	1706.47
437.724	1660.77
438.164	1669.53
438.604	1631.62
439.045	1568.95
439.485	1505.1
439.925	1474.26
440.365	1439.47
440.805	1424.43
441.245	1408.96
441.685	1358.72
442.125	1353.39
442.564	1366.02
443.004	1336.61
443.444	1336.97
443.883	1341.52
444.323	1336.31
444.762	1345.15
445.202	1367.99
445.641	1392.34
446.081	1391.12
446.52	1406.21
446.959	1394.15
447.398	1361.8
447.837	1348.33
448.276	1327.36
448.716	1344.14
449.154	1362.32
449.593	1332.01
450.032	1330.54
450.471	1313.01
450.91	1317.17
451.349	1314.09
451.787	1312.15
452.226	1336.26
452.664	1340.89
453.103	1348.18
453.541	1352
453.98	1348.6
454.418	1360.69
454.856	1340.86
455.295	1339.23
455.733	1352.48
456.171	1362.1
456.609	1362.8
457.047	1363.86
457.485	1383.04
457.923	1383.61
458.361	1363.17
458.798	1367.27
459.236	1363.03
459.674	1374.19
460.111	1378.78
460.549	1362.9
460.987	1359.34
461.424	1357.26
461.862	1348.44
462.299	1325.62
462.736	1322.03
463.173	1325.8
463.611	1307.88
464.048	1303.47
464.485	1310.84
464.922	1300.76
465.359	1294.15
465.796	1269.92
466.233	1258.21
466.67	1242.8
467.106	1238.87
467.543	1228.91
467.98	1214.25
468.416	1185.23
468.853	1178.03
469.29	1143.78
469.726	1130.8
470.162	1101.21
470.599	1092.11
471.035	1084.38
471.471	1061.13
471.907	1057.59
472.344	1051.9
472.78	1054.93
473.216	1070.47
473.652	1058.06
474.088	1057.82
474.523	1057.2
474.959	1069.15
475.395	1062.06
475.831	1058.58
476.266	1067.46
476.702	1066.41
477.138	1055.51
477.573	1054.86
478.008	1052.2
478.444	1059.36
478.879	1070.75
479.314	1075.53
479.75	1076.9
480.185	1084.79
480.62	1095.99
481.055	1103.92
481.49	1114.04
481.925	1133.23
482.36	1153.19
482.795	1188.55
483.229	1223.39
483.664	1251.12
484.099	1259.71
484.534	1281.19
484.968	1295.07
485.403	1300.94
485.837	1302.62
486.271	1302.79
486.706	1306.57
487.14	1295.14
487.574	1275.35
488.009	1264.08
488.443	1254.25
488.877	1268.17
489.311	1272.92
489.745	1289.04
490.179	1302
490.613	1325.45
491.046	1337.88
491.48	1349.21
491.914	1352.4
492.348	1363.39
492.781	1373.29
493.215	1378.79
493.648	1383.11
494.082	1396.3
494.515	1397.75
494.948	1413.25
495.382	1424.02
495.815	1433.23
496.248	1444.16
496.681	1470.32
497.114	1494.81
497.547	1515.05
497.98	1538.62
498.413	1548.85
498.846	1566.51
499.279	1585.17
499.711	1593.02
500.144	1596.09
500.577	1614.89
501.009	1634.42
501.442	1649.34
501.874	1648.35
502.306	1648.38
502.739	1658.59
503.171	1683.37
503.603	1683.99
504.036	1694.42
504.468	1699.63
504.9	1716.27
505.332	1723.19
505.764	1723.88
506.196	1730.64
506.627	1749.86
507.059	1766.75
507.491	1775.75
507.923	1761.62
508.354	1780.25
508.786	1790.73
509.217	1813.05
509.649	1829.06
510.08	1851.22
510.512	1869.11
510.943	1883.44
511.374	1890.44
511.805	1913.48
512.237	1934.8
512.668	1979.61
513.099	2012.77
513.53	2043.11
513.961	2062.11
514.391	2098.66
514.822	2136.4
515.253	2178.53
515.684	2202.42
516.114	2233.06
516.545	2249.93
516.975	2273.84
517.406	2283.16
517.836	2268.74
518.267	2262.11
518.697	2273.3
519.127	2263.9
519.558	2260.77
519.988	2250.78
520.418	2251.13
520.848	2262.29
521.278	2259.98
521.708	2266.39
522.138	2271.41
522.567	2304.42
522.997	2328.36
523.427	2338.22
523.857	2349.43
524.286	2351.36
524.716	2360.95
525.145	2377.56
525.575	2382.44
526.004	2391.48
526.433	2372.65
526.863	2362.07
527.292	2338.32
527.721	2338.16
528.15	2337.81
528.579	2331.44
529.008	2337.86
529.437	2362.05
529.866	2373.24
530.295	2391.03
530.724	2402.27
531.152	2432.71
531.581	2447.33
532.01	2466.61
532.438	2472.06
532.867	2486.23
533.295	2506.78
533.723	2511.18
534.152	2504.03
534.58	2499.72
535.008	2474.21
535.436	2472.52
535.865	2480.27
536.293	2497.28
536.721	2515.34
537.149	2546.9
537.576	2547.98
538.004	2561.92
538.432	2571.29
538.86	2566.95
539.287	2575.06
539.715	2590.49
540.143	2592.74
540.57	2586.54
540.998	2579.56
541.425	2545.53
541.852	2514.72
542.28	2510.88
542.707	2487.37
543.134	2465.59
543.561	2459.03
543.988	2447.71
544.415	2446.25
544.842	2438.7
545.269	2428.83
545.696	2429.94
546.123	2447.63
546.549	2434.6
546.976	2418.63
547.403	2418.7
547.829	2421.3
548.256	2424.11
548.682	2419.66
549.108	2410.25
549.535	2410.27
549.961	2412.6
550.387	2396.75
550.813	2390.5
551.24	2399.83
551.666	2401.49
552.092	2389.54
552.518	2382.2
552.943	2376.05
553.369	2388.83
553.795	2397.78
554.221	2400.82
554.646	2398.02
555.072	2414.72
555.498	2424.69
555.923	2441.64
556.349	2464.5
556.774	2481.49
557.199	2488.56
557.625	2501.11
558.05	2495.78
558.475	2514.69
558.9	2517.44
559.325	2513.55
559.75	2509.31
560.175	2505.91
560.6	2502.42
561.025	2506.34
561.449	2512.26
561.874	2525.88
562.299	2539.11
562.723	2555.66
563.148	2549.03
563.572	2563.08
563.997	2584.02
564.421	2599.03
564.846	2606.76
565.27	2618.7
565.694	2622.73
566.118	2648.3
566.542	2666.67
566.966	2664.66
567.39	2666.38
567.814	2658.87
568.238	2665.84
568.662	2681.22
569.086	2694.36
569.509	2714.62
569.933	2700.08
570.357	2698.27
570.78	2676.24
571.204	2665.32
571.627	2658.36
572.05	2665.57
572.474	2674.19
572.897	2665.03
573.32	2663.31
573.743	2657.65
574.166	2638.91
574.589	2649.5
575.012	2647.77
575.435	2655.59
575.858	2652.21
576.281	2644.53
576.704	2629.29
577.126	2619.19
577.549	2611.97
577.972	2605.07
578.394	2598.03
578.817	2593.92
579.239	2572.23
579.661	2557.93
580.084	2538.95
580.506	2524.53
580.928	2525.58
581.35	2514.4
581.772	2515.29
582.194	2499.93
582.616	2485.87
583.038	2469.08
583.46	2458.24
583.882	2458.39
584.303	2473.29
584.725	2472.71
585.147	2479.69
585.568	2503.1
585.99	2529.17
586.411	2544.77
586.833	2574.5
587.254	2581.79
587.675	2609.43
588.096	2636.44
588.518	2633.58
588.939	2608.29
589.36	2609.85
589.781	2599.78
590.202	2555.87
590.623	2545.57
591.043	2545.76
591.464	2528.52
591.885	2525.53
592.305	2519.37
592.726	2499.67
593.147	2505.69
593.567	2499.79
593.987	2489.18
594.408	2483.78
594.828	2483.45
595.248	2475.74
595.669	2446.5
596.089	2436.52
596.509	2428.99
596.929	2408.62
597.349	2411.95
597.769	2396.9
598.189	2389.27
598.608	2393.98
599.028	2399.45
599.448	2403.03
599.867	2383.4
600.287	2379.94
600.706	2375.02
601.126	2361.26
601.545	2362.97
601.965	2361.77
602.384	2356.35
602.803	2365.46
603.222	2361.89
603.641	2352.92
604.061	2348.66
604.48	2346.85
604.898	2364.76
605.317	2379.02
605.736	2387.23
606.155	2386.98
606.574	2377.61
606.992	2390.99
607.411	2387.41
607.829	2377.16
608.248	2378.41
608.666	2380.91
609.085	2384.49
609.503	2375.32
609.921	2368.89
610.339	2378.26
610.758	2382.73
611.176	2381.63
611.594	2372.52
612.012	2371.4
612.43	2384.27
612.847	2401.47
613.265	2409.52
613.683	2425.96
614.101	2434.44
614.518	2435.32
614.936	2424.15
615.353	2404.16
615.771	2403.52
616.188	2408.46
616.606	2409.77
617.023	2402.87
617.44	2382.9
617.857	2376.52
618.274	2365.13
618.691	2358.85
619.108	2345.44
619.525	2338.67
619.942	2355.45
620.359	2366.26
620.776	2360.75
621.192	2355.77
621.609	2354.28
622.026	2370.07
622.442	2383
622.859	2392.1
623.275	2381.01
623.691	2393.8
624.108	2416.76
624.524	2445.22
624.94	2446.18
625.356	2468.24
625.772	2495.08
626.188	2519.68
626.604	2523.87
627.02	2517.77
627.436	2514.31
627.852	2529.61
628.268	2554.69
628.683	2540.43
629.099	2524.97
629.514	2517.9
629.93	2526.38
630.345	2537.04
630.761	2531.43
631.176	2539.12
631.591	2528.42
632.007	2519.09
632.422	2516.11
632.837	2497.16
633.252	2493.42
633.667	2477.08
634.082	2462.37
634.497	2439.82
634.911	2404.7
635.326	2401.68
635.741	2373.63
636.155	2359.67
636.57	2365.48
636.984	2369.55
637.399	2376.22
637.813	2380.86
638.228	2384.57
638.642	2397.93
639.056	2385.63
639.47	2393.15
639.884	2382.53
640.298	2377.69
640.712	2383
641.126	2365.25
641.54	2354.66
641.954	2354.28
642.368	2336.34
642.781	2324.15
643.195	2295.7
643.609	2301.36
644.022	2295.34
644.436	2293.66
644.849	2274.41
645.262	2256.05
645.676	2265.85
646.089	2262.85
646.502	2235.17
646.915	2230.77
647.328	2203.61
647.741	2202.39
648.154	2178.63
648.567	2174.91
648.98	2150.74
649.393	2154.47
649.805	2148.92
650.218	2135.59
650.631	2104.95
651.043	2093.59
651.456	2081.49
651.868	2085.79
652.28	2127.42
652.693	2162.12
653.105	2179.76
653.517	2203.12
653.929	2207.53
654.341	2223.18
654.753	2201.15
655.165	2218.94
655.577	2218.62
655.989	2214.7
656.401	2204.14
656.813	2128.39
657.224	2088.3
657.636	2030.95
658.047	1994.88
658.459	1957.74
658.87	1942.32
659.282	1920.56
659.693	1878.09
660.104	1848.93
660.515	1824.04
660.926	1820.19
661.338	1816.59
661.749	1805.11
662.159	1785.96
662.57	1778.84
662.981	1768.4
663.392	1752.26
663.803	1760.66
664.213	1754.97
664.624	1743.69
665.035	1747.34
665.445	1716.66
665.855	1697.95
666.266	1676.85
666.676	1669.64
667.086	1647.91
667.497	1641.39
667.907	1625.34
668.317	1602.5
668.727	1586.91
669.137	1586.37
669.547	1575.73
669.956	1577.33
670.366	1577.27
670.776	1575.65
671.186	1579.25
671.595	1580.16
672.005	1583.67
672.414	1577.55
672.824	1569.71
673.233	1578.3
673.642	1577.16
674.052	1577.85
674.461	1576.32
674.87	1582.5
675.279	1573.55
675.688	1574.79
676.097	1574.3
676.506	1564.36
676.915	1589.74
677.323	1590.86
677.732	1584.65
678.141	1582.42
678.549	1562.44
678.958	1562.23
679.366	1561.5
679.775	1573.66
680.183	1592.55
680.592	1608.47
681	1623.23
681.408	1614.94
681.816	1637.71
682.224	1662.79
682.632	1689.64
683.04	1757.14
683.448	1815.09
683.856	1885.57
684.264	1965.55
684.671	2045.09
685.079	2134.44
685.487	2234.16
685.894	2368.08
686.302	2477.63
686.709	2563.04
687.116	2661.58
687.524	2736.67
687.931	2792.63
688.338	2833.8
688.745	2863.72
689.152	2891.89
689.559	2942.21
689.966	2984.36
