Data from N_3_HIR_IL_4N_Splice17_13-40-32-844.txt Node
Date: Sat Mar 14 13:40:32 EDT 2020
User: sa697716
Spectrometer: FLMS03696
Trigger mode: 0
Integration Time (sec): 3.180400E-1
Scans to average: 20
Electric dark correction enabled: true
Nonlinearity correction enabled: true
Boxcar width: 5
XAxis mode: Wavelengths
Number of Pixels in Spectrum: 2048
>>>>>Begin Spectral Data<<<<<
187.83	-438510.01
188.298	3145.46
188.766	1656.2
189.233	1460.24
189.701	2019.21
190.169	2785.67
190.636	1026.36
191.104	808.75
191.571	80.02
192.039	-151.02
192.506	-204.16
192.974	503.92
193.441	-799.56
193.908	-226.95
194.375	-88.77
194.842	-88.21
195.31	-26.19
195.777	129.76
196.244	411.07
196.711	492.46
197.177	627.17
197.644	904.89
198.111	1557.52
198.578	2221.12
199.045	1786.88
199.511	2893.35
199.978	3384.82
200.445	2891.72
200.911	3203.83
201.378	3526.44
201.844	3183.31
202.31	5452.73
202.777	5664.37
203.243	3162.63
203.709	3003.02
204.176	3556.32
204.642	2948.26
205.108	2741.79
205.574	2218.63
206.04	1993.84
206.506	1850.89
206.972	1741.96
207.438	1694.03
207.903	1918.7
208.369	1686.32
208.835	1687.78
209.301	1771.47
209.766	1802.69
210.232	1796.33
210.697	2221.72
211.163	2740.17
211.628	4172.3
212.094	3505.03
212.559	4291.02
213.024	2685.77
213.49	3285.14
213.955	3182.86
214.42	3101.5
214.885	2894.45
215.35	2778.31
215.815	2720.1
216.28	2900.82
216.745	2348.99
217.21	2530.48
217.675	2311.86
218.14	2583.46
218.604	2867.46
219.069	3248.46
219.534	3424.81
219.998	3963.88
220.463	4786.05
220.927	5826.99
221.392	5464.79
221.856	5560.32
222.32	6997.5
222.785	8639.55
223.249	10868.1
223.713	12112.34
224.177	12136.4
224.642	15505.4
225.106	19026.36
225.57	20827.54
226.034	15535.71
226.497	23716.01
226.961	21439.05
227.425	24953.05
227.889	27632.8
228.353	27619.8
228.816	57014.01
229.28	54527.92
229.744	45935.99
230.207	27990.73
230.671	27483.35
231.134	45308.69
231.597	52199.43
232.061	52070.14
232.524	50781.03
232.987	35008.68
233.45	31541.97
233.914	28314.05
234.377	28972.24
234.84	26568.37
235.303	31315.55
235.766	34946.46
236.229	36155.86
236.691	22737.13
237.154	25542.91
237.617	19225.8
238.08	19684.05
238.542	23028.68
239.005	16439.58
239.468	16310.12
239.93	15375.3
240.393	13960.12
240.855	12254.6
241.317	12538.95
241.78	15260.84
242.242	15774.91
242.704	17049.57
243.166	14844.79
243.629	13493.61
244.091	15572.33
244.553	17065.68
245.015	18325.4
245.477	23715.67
245.939	34782.76
246.4	36922.61
246.862	35899.37
247.324	33833.21
247.786	37819.36
248.247	49543.61
248.709	51086.2
249.17	38227.93
249.632	36068.6
250.093	41809.64
250.555	36137
251.016	22050.43
251.477	20940.35
251.939	22610.41
252.4	23754.9
252.861	28254.99
253.322	26321.54
253.783	31345.41
254.244	40674.4
254.705	32098.7
255.166	28574.24
255.627	28136.35
256.088	39718.46
256.549	42222.72
257.009	36386.7
257.47	44127.46
257.931	35937.57
258.391	26954.27
258.852	27771.35
259.312	29107.98
259.773	35957.03
260.233	30411.74
260.694	25680.18
261.154	29130.39
261.614	23398.32
262.074	20936.14
262.534	21782.39
262.994	20543.34
263.455	27368.66
263.915	23087.54
264.374	21749.32
264.834	23756.62
265.294	26318.87
265.754	27283.58
266.214	25833.32
266.673	24205.17
267.133	30513.2
267.593	30262.86
268.052	37054.28
268.512	32236.97
268.971	38940.32
269.431	42694.3
269.89	38249.41
270.349	57426.54
270.809	64014.68
271.268	57548.22
271.727	129081.51
272.186	83674.09
272.645	62746.87
273.104	45221.02
273.563	65462.88
274.022	51371.17
274.481	43783.38
274.94	33744.08
275.399	25063.45
275.857	29199.88
276.316	39507.02
276.775	35121.37
277.233	34610.59
277.692	32456.82
278.15	36773.37
278.609	37838.94
279.067	35065.73
279.525	32576.56
279.984	42066
280.442	50543.63
280.9	49820.73
281.358	32777.01
281.816	30577.24
282.274	29885.5
282.732	30822.01
283.19	30976.75
283.648	26724.33
284.106	28436.33
284.564	28849.96
285.021	26754.32
285.479	19909.8
285.937	18080.79
286.394	15862.04
286.852	16314.83
287.309	17175.07
287.767	16604.42
288.224	15773.06
288.682	17295.16
289.139	19007.25
289.596	17390.59
290.053	18045.53
290.511	22771.67
290.968	27654.87
291.425	37524.79
291.882	31243.01
292.339	27175.2
292.796	26950.79
293.252	25401.34
293.709	20216.29
294.166	18109.36
294.623	20004.97
295.079	19198.74
295.536	19305.25
295.992	17505.98
296.449	17288.63
296.905	17940.68
297.362	17193.08
297.818	18075.99
298.274	18737.13
298.731	19056.7
299.187	18817.6
299.643	20184.94
300.099	24377.18
300.555	26682.2
301.011	22257.99
301.467	21485.89
301.923	25127.35
302.379	24531.29
302.835	24057.55
303.291	24082.02
303.746	27365.06
304.202	34584.36
304.658	34771.11
305.113	23380.24
305.569	22931.77
306.024	24421.94
306.479	23194.64
306.935	19551.75
307.39	21336.89
307.845	19699.86
308.301	19784.19
308.756	19272.19
309.211	18548.51
309.666	18943.34
310.121	23512.94
310.576	23824.11
311.031	23639.59
311.486	27012.62
311.94	26947.46
312.395	35994.27
312.85	67610.44
313.305	332104.43
313.759	1719466.55
314.214	124420.36
314.668	98686.32
315.123	83030.62
315.577	29770.36
316.032	26465.02
316.486	33193.06
316.94	26199.41
317.394	18250.97
317.849	14174.89
318.303	13414.04
318.757	12677.28
319.211	14028.69
319.665	12273.06
320.119	12400.69
320.572	17764.41
321.026	16597.74
321.48	13815.42
321.934	15049.46
322.387	15068.16
322.841	16255.05
323.295	14625.62
323.748	16794.38
324.202	17023.74
324.655	20442.08
325.108	28612.2
325.562	20195.78
326.015	23988.11
326.468	18097.68
326.921	20246.81
327.374	18855.36
327.827	19660.34
328.28	22232.56
328.733	14892.91
329.186	13079.26
329.639	12457.54
330.092	10480.09
330.545	9979.4
330.997	10054.55
331.45	11011.32
331.903	12898.38
332.355	22196.57
332.808	21534.16
333.26	17719.24
333.713	19240.52
334.165	19366.19
334.617	25825.01
335.069	20792.08
335.522	37578.83
335.974	41645.4
336.426	37963.98
336.878	26247
337.33	13286.43
337.782	12964.14
338.234	16284.54
338.686	19444.83
339.137	23077.61
339.589	21710.07
340.041	17032.79
340.493	14625.63
340.944	14963.05
341.396	16099.62
341.847	13555.43
342.299	16034.37
342.75	19592.84
343.201	17074.96
343.653	19589.34
344.104	24008.36
344.555	18891.43
345.006	29363.94
345.457	22544.09
345.908	17906.81
346.359	16859.41
346.81	13690.28
347.261	14402.33
347.712	14155.59
348.163	15161.94
348.613	15381.74
349.064	14366.55
349.515	12564.3
349.965	12890.97
350.416	15486.16
350.866	16961.96
351.317	19124.16
351.767	31677.99
352.217	39953.58
352.668	33147.43
353.118	30382.24
353.568	29253.84
354.018	23132.21
354.468	24404.17
354.918	17509.28
355.368	15318.43
355.818	21663
356.268	62276.14
356.718	261305.9
357.168	65013.27
357.617	32579.07
358.067	36187.28
358.517	33895.16
358.966	39736.2
359.416	44656.34
359.865	48182.94
360.315	57194.77
360.764	26672.69
361.213	14940.38
361.663	14106.09
362.112	17350.96
362.561	28032.52
363.01	21181.72
363.459	17823.03
363.908	19234.35
364.357	16313.41
364.806	27518.21
365.255	18922.89
365.703	17335.69
366.152	17361.37
366.601	14082.93
367.05	11496.75
367.498	10437.06
367.947	10859.71
368.395	11272.54
368.844	9989.23
369.292	12000.24
369.74	8308.78
370.189	12726.43
370.637	14879.03
371.085	12823.44
371.533	15601.82
371.981	14985.69
372.429	14298.65
372.877	14874.41
373.325	12449.82
373.773	12648.4
374.221	11257.63
374.669	13920.33
375.116	12018.55
375.564	12096
376.012	13534.4
376.459	11146.93
376.907	13290.39
377.354	16034.69
377.801	14950.91
378.249	17193.96
378.696	21986.9
379.143	26582.87
379.591	28347.27
380.038	47877.97
380.485	34661.64
380.932	37317.42
381.379	34126.33
381.826	25101.54
382.273	17835.7
382.72	15558.12
383.166	15122.71
383.613	9789.53
384.06	8811.16
384.506	10181.02
384.953	7474.79
385.4	7510.18
385.846	6584.72
386.292	6395.58
386.739	6253
387.185	6160.64
387.631	6171.17
388.078	6005.19
388.524	6424.06
388.97	5934.35
389.416	4946.9
389.862	5247.46
390.308	4975.59
390.754	5056.25
391.2	5492.95
391.645	5606.11
392.091	5391.09
392.537	5214.7
392.983	5209.01
393.428	5143.95
393.874	5516.71
394.319	5559.85
394.765	5288.25
395.21	5430.25
395.655	5073.17
396.101	4755.04
396.546	4314.4
396.991	4345.26
397.436	4033.82
397.881	3900.06
398.326	3679.51
398.771	3481.92
399.216	3031.23
399.661	2732.84
400.106	2727.43
400.551	2810.22
400.995	2525.01
401.44	2498.4
401.885	2348.29
402.329	2379.67
402.774	2286.91
403.218	2228.52
403.663	2152.92
404.107	2224.66
404.551	2248.14
404.995	2064.62
405.44	1988.22
405.884	2016
406.328	1950.44
406.772	1951.37
407.216	1776.75
407.66	1716.12
408.104	1626.8
408.547	1523.79
408.991	1473.18
409.435	1417.39
409.879	1400.42
410.322	1384.1
410.766	1341.38
411.209	1279.33
411.653	1227.7
412.096	1207.74
412.54	1212.59
412.983	1208.4
413.426	1214.3
413.869	1212.93
414.312	1193.94
414.756	1150.09
415.199	1095.58
415.642	1066.23
416.085	1070.05
416.527	1062.38
416.97	1076.1
417.413	1022.34
417.856	1009.79
418.298	1000.77
418.741	994.27
419.184	988.8
419.626	1029.48
420.069	1033.55
420.511	1041.59
420.953	1020.04
421.396	1012.16
421.838	985.91
422.28	1007.33
422.722	1016.51
423.164	1030.75
423.606	1016.67
424.048	1016.82
424.49	966.26
424.932	959.49
425.374	942.87
425.816	955.27
426.258	975.34
426.699	989.68
427.141	978.18
427.582	988.02
428.024	980.16
428.465	972.52
428.907	945.58
429.348	934.15
429.789	936.41
430.231	918.67
430.672	930.85
431.113	906.88
431.554	889.93
431.995	862.4
432.436	834.65
432.877	819.72
433.318	806.59
433.759	804.36
434.2	803.81
434.64	793.56
435.081	796.15
435.522	755.06
435.962	725.53
436.403	713.29
436.843	723.6
437.284	707.07
437.724	683.38
438.164	680.59
438.604	664.72
439.045	639.82
439.485	614.83
439.925	599.84
440.365	584.82
440.805	576.23
441.245	568.36
441.685	547.34
442.125	541.52
442.564	544.9
443.004	533.56
443.444	533.92
443.883	535.55
444.323	527.66
444.762	526.54
445.202	533.86
445.641	547.94
446.081	542.68
446.52	547.81
446.959	541.52
447.398	530.49
447.837	525.51
448.276	515.12
448.716	519.87
449.154	524.96
449.593	514.48
450.032	513.15
450.471	500.3
450.91	500.88
451.349	499.66
451.787	497.35
452.226	504.3
452.664	503.88
453.103	502.77
453.541	500.25
453.98	503.13
454.418	505.57
454.856	497.87
455.295	496.96
455.733	500.83
456.171	502.12
456.609	502.4
457.047	501.44
457.485	509.43
457.923	511.85
458.361	505.22
458.798	504.51
459.236	501.89
459.674	504.11
460.111	505.49
460.549	500.31
460.987	498.06
461.424	496.23
461.862	494.46
462.299	485.54
462.736	484.2
463.173	484.78
463.611	481.77
464.048	481.7
464.485	486.64
464.922	481.37
465.359	477.85
465.796	480.38
466.233	478.81
466.67	475.05
467.106	476.76
467.543	472.2
467.98	467.04
468.416	452.76
468.853	447.95
469.29	431.97
469.726	428.78
470.162	416.84
470.599	403.7
471.035	397.54
471.471	386.37
471.907	381.06
472.344	378.3
472.78	379.51
473.216	382.44
473.652	378.17
474.088	378.31
474.523	378.06
474.959	382.74
475.395	380.68
475.831	380.11
476.266	383.09
476.702	382.54
477.138	378.21
477.573	376.84
478.008	377.32
478.444	381.01
478.879	385.72
479.314	387.68
479.75	387.59
480.185	388.71
480.62	391.55
481.055	393.94
481.49	397.19
481.925	403.32
482.36	412.52
482.795	423.07
483.229	432.23
483.664	441.26
484.099	441.82
484.534	448.91
484.968	453.66
485.403	455.13
485.837	453.47
486.271	452.56
486.706	452.17
487.14	445.29
487.574	438.13
488.009	434.57
488.443	430.03
488.877	435.7
489.311	436.39
489.745	441.45
490.179	446.09
490.613	456.38
491.046	459.36
491.48	463.54
491.914	464.89
492.348	468.89
492.781	472.61
493.215	473.64
493.648	473.59
494.082	478.53
494.515	479.42
494.948	485.85
495.382	488.03
495.815	492.14
496.248	496.79
496.681	506.1
497.114	515.02
497.547	523.75
497.98	535.81
498.413	542.84
498.846	551.11
499.279	558.51
499.711	562.45
500.144	566.44
500.577	577.1
501.009	587.99
501.442	598.1
501.874	602.22
502.306	605.81
502.739	615.8
503.171	628.59
503.603	633.51
504.036	643.39
504.468	650.56
504.9	662.13
505.332	669.5
505.764	675
506.196	682.59
506.627	696.5
507.059	709.53
507.491	717.08
507.923	718.97
508.354	734.38
508.786	746.7
509.217	764.52
509.649	780.4
510.08	799.45
510.512	817.7
510.943	833.69
511.374	846.56
511.805	867.17
512.237	886.49
512.668	916.4
513.099	942.11
513.53	968.42
513.961	989.9
514.391	1019.55
514.822	1052.8
515.253	1086.87
515.684	1111.81
516.114	1141.93
516.545	1165.62
516.975	1192.73
517.406	1213.54
517.836	1221.23
518.267	1231.99
518.697	1252.69
519.127	1262.14
519.558	1272
519.988	1279.81
520.418	1295.05
520.848	1314.36
521.278	1325.91
521.708	1367.29
522.138	1382.71
522.567	1413.66
522.997	1440.99
523.427	1458.06
523.857	1476.48
524.286	1489.6
524.716	1507.01
525.145	1528.07
525.575	1540.65
526.004	1557.64
526.433	1534.61
526.863	1538.78
527.292	1534.57
527.721	1542.34
528.15	1551.09
528.579	1554.72
529.008	1568.24
529.437	1592.44
529.866	1607.19
530.295	1626.41
530.724	1639.63
531.152	1667.33
531.581	1682.44
532.01	1699.75
532.438	1708.99
532.867	1723.77
533.295	1743.54
533.723	1750.44
534.152	1749.58
534.58	1751.27
535.008	1737.7
535.436	1741.61
535.865	1750.06
536.293	1764.08
536.721	1780.27
537.149	1806.22
537.576	1810.32
538.004	1823.48
538.432	1831.04
538.86	1830.59
539.287	1837.86
539.715	1851.3
540.143	1855.41
540.57	1852.51
540.998	1849.03
541.425	1828.34
541.852	1807.98
542.28	1808.02
542.707	1792.9
543.134	1781.13
543.561	1777.8
543.988	1771.57
544.415	1772.6
544.842	1767.04
545.269	1761.78
545.696	1766.26
546.123	1778.79
546.549	1770.49
546.976	1758.27
547.403	1758.2
547.829	1760.51
548.256	1763.1
548.682	1760.38
549.108	1754.94
549.535	1755
549.961	1757.77
550.387	1745.62
550.813	1742.58
551.24	1749.95
551.666	1752.67
552.092	1745.13
552.518	1739.83
552.943	1735.32
553.369	1743.68
553.795	1749.97
554.221	1752.46
554.646	1750.04
555.072	1762.31
555.498	1767.65
555.923	1777.05
556.349	1792.86
556.774	1802.5
557.199	1805.28
557.625	1810.85
558.05	1805.5
558.475	1815.92
558.9	1816.65
559.325	1810.75
559.75	1804.56
560.175	1798.9
560.6	1793.41
561.025	1791.58
561.449	1792.29
561.874	1797.44
562.299	1802.42
562.723	1810.17
563.148	1800.85
563.572	1802.71
563.997	1811.49
564.421	1816.33
564.846	1816.08
565.27	1818.45
565.694	1815.2
566.118	1826.8
566.542	1834.33
566.966	1826.83
567.39	1821.26
567.814	1808.54
568.238	1808.2
568.662	1812.79
569.086	1815.39
569.509	1821.68
569.933	1806.32
570.357	1797.62
570.78	1775.85
571.204	1761.63
571.627	1751.8
572.05	1749.42
572.474	1750.25
572.897	1737.75
573.32	1729.56
573.743	1719.04
574.166	1701.56
574.589	1701.28
575.012	1694.92
575.435	1693.32
575.858	1684.76
576.281	1673.65
576.704	1658.42
577.126	1646.14
577.549	1635.22
577.972	1624.49
578.394	1614.62
578.817	1608.53
579.239	1590.11
579.661	1577.27
580.084	1562.39
580.506	1549.22
580.928	1545.4
581.35	1534.68
581.772	1529.74
582.194	1517.78
582.616	1506.81
583.038	1492.34
583.46	1480.75
583.882	1478.24
584.303	1480.99
584.725	1476.34
585.147	1480.32
585.568	1490.36
585.99	1503.35
586.411	1511.14
586.833	1525.83
587.254	1526.84
587.675	1540.63
588.096	1552.85
588.518	1547.57
588.939	1531.87
589.36	1530.22
589.781	1516.77
590.202	1489.68
590.623	1480.18
591.043	1475.71
591.464	1461.77
591.885	1456.89
592.305	1450.55
592.726	1437.3
593.147	1438.66
593.567	1433.05
593.987	1424.51
594.408	1420.19
594.828	1416.7
595.248	1410.68
595.669	1393.41
596.089	1386.29
596.509	1380.34
596.929	1366.97
597.349	1367.38
597.769	1356.9
598.189	1351.27
598.608	1352.68
599.028	1355.14
599.448	1355.55
599.867	1342.3
600.287	1338
600.706	1333.7
601.126	1324.78
601.545	1324.26
601.965	1322.91
602.384	1317.94
602.803	1320.41
603.222	1316.33
603.641	1309.54
604.061	1306.28
604.48	1302.38
604.898	1308.56
605.317	1312.9
605.736	1314.28
606.155	1311.72
606.574	1302.28
606.992	1307.1
607.411	1301.55
607.829	1292.15
608.248	1286.74
608.666	1282.81
609.085	1281.52
609.503	1273.2
609.921	1267.29
610.339	1268.36
610.758	1265.45
611.176	1258.81
611.594	1248.44
612.012	1243.49
612.43	1246.66
612.847	1252.17
613.265	1252.31
613.683	1255.15
614.101	1256.46
614.518	1252.28
614.936	1241.33
615.353	1227.37
615.771	1224.7
616.188	1224.37
616.606	1220.92
617.023	1212.62
617.44	1199.11
617.857	1191.45
618.274	1183.61
618.691	1177.33
619.108	1166.76
619.525	1160.69
619.942	1166.74
620.359	1168.89
620.776	1163.04
621.192	1158.82
621.609	1156.89
622.026	1163.02
622.442	1169.41
622.859	1171.51
623.275	1163.2
623.691	1168.7
624.108	1178.89
624.524	1191.05
624.94	1189.76
625.356	1199.35
625.772	1210.75
626.188	1221.21
626.604	1221.84
627.02	1215.83
627.436	1213.21
627.852	1221.21
628.268	1231.35
628.683	1222
629.099	1213.21
629.514	1208.23
629.93	1211.41
630.345	1214.22
630.761	1209.37
631.176	1212.96
631.591	1208.77
632.007	1202.92
632.422	1199.36
632.837	1188.78
633.252	1187.6
633.667	1178.67
634.082	1170.6
634.497	1158.33
634.911	1141.75
635.326	1137.33
635.741	1119.93
636.155	1108.99
636.57	1110.22
636.984	1108.68
637.399	1109.17
637.813	1105.28
638.228	1101.84
638.642	1104.3
639.056	1092.69
639.47	1090.26
639.884	1080.8
640.298	1073.16
640.712	1069.84
641.126	1055.82
641.54	1044
641.954	1035.21
642.368	1022.83
642.781	1014.65
643.195	994.96
643.609	992.52
644.022	983.92
644.436	977.55
644.849	962.53
645.262	949.97
645.676	947.27
646.089	941.72
646.502	927.11
646.915	918.92
647.328	900.03
647.741	896.71
648.154	882.17
648.567	878.99
648.98	865.21
649.393	864.73
649.805	859.43
650.218	851.04
650.631	835.15
651.043	828.17
651.456	822.66
651.868	821.44
652.28	833.24
652.693	844.03
653.105	845.48
653.517	851.75
653.929	850.67
654.341	852.75
654.753	841.04
655.165	844.68
655.577	839.75
655.989	833.02
656.401	822.12
656.813	791.32
657.224	772.17
657.636	746.93
658.047	731.78
658.459	713.33
658.87	703.3
659.282	690.83
659.693	672.89
660.104	658.62
660.515	644.4
660.926	639.99
661.338	633.93
661.749	624.28
662.159	614.55
662.57	605.64
662.981	598.35
663.392	588.89
663.803	588.22
664.213	581.22
664.624	574.57
665.035	573.67
665.445	562.03
665.855	554.75
666.266	548.22
666.676	543.68
667.086	534.89
667.497	532.23
667.907	525.95
668.317	516.5
668.727	515.25
669.137	513.89
669.547	509.82
669.956	508.89
670.366	508.89
670.776	508.58
671.186	509.47
671.595	511.26
672.005	511.37
672.414	511.41
672.824	511.33
673.233	510.67
673.642	510.84
674.052	514.55
674.461	518.24
674.87	520.66
675.279	519.33
675.688	519.73
676.097	521.91
676.506	521.23
676.915	529.39
677.323	531.07
677.732	531.58
678.141	532.31
678.549	524.26
678.958	524.05
679.366	524.26
679.775	528.36
680.183	539.11
680.592	543.53
681	549.48
681.408	548.06
681.816	556.52
682.224	564.5
682.632	576.91
683.04	603.04
683.448	624.11
683.856	652.23
684.264	683.72
684.671	712.33
685.079	747.64
685.487	787.62
685.894	842.43
686.302	888.84
686.709	931.65
687.116	979.06
687.524	1020.66
687.931	1059.2
688.338	1093.84
688.745	1125.15
689.152	1160.3
689.559	1205.73
689.966	1252.31
690.373	1279.41
690.78	1322.78
691.187	1384.37
691.593	1433
692	1477.43
692.407	1538.76
692.813	1614.67
693.22	1674.64
693.626	1737.41
694.032	1790.44
694.439	1865.39
694.845	1925.95
695.251	2001.1
695.657	2068.9
696.063	2167.31
696.469	2242.25
696.875	2312.44
697.281	2352.24
697.687	2404.11
698.093	2447.09
698.498	2523.73
698.904	2583.12
