Data from N_3_DEC_OH_4N_Splice17_13-35-00-010.txt Node
Date: Sat Mar 14 13:35:00 EDT 2020
User: sa697716
Spectrometer: FLMS03696
Trigger mode: 0
Integration Time (sec): 3.180400E-1
Scans to average: 20
Electric dark correction enabled: true
Nonlinearity correction enabled: true
Boxcar width: 5
XAxis mode: Wavelengths
Number of Pixels in Spectrum: 2048
>>>>>Begin Spectral Data<<<<<
187.83	-378999.26
188.298	2768.7
188.766	1448.03
189.233	1313.56
189.701	1906.24
190.169	2639.99
190.636	1011.89
191.104	844.57
191.571	111.85
192.039	-135.37
192.506	-148.88
192.974	471.28
193.441	-778.86
193.908	-252.58
194.375	-32.32
194.842	35.64
195.31	156.15
195.777	186.02
196.244	455.52
196.711	518.2
197.177	639.33
197.644	923.15
198.111	1640.04
198.578	2333.49
199.045	1868.46
199.511	3058.59
199.978	3587.24
200.445	3063.09
200.911	3410.54
201.378	3800.87
201.844	3441.93
202.31	5878.18
202.777	6151.43
203.243	3397.73
203.709	3203.55
204.176	3810.44
204.642	3117.92
205.108	2921.68
205.574	2378.35
206.04	2180.13
206.506	2043.76
206.972	1930.2
207.438	1875.49
207.903	2125.1
208.369	1873.77
208.835	1885.74
209.301	1984.34
209.766	2042.91
210.232	2027.31
210.697	2503.83
211.163	3055.36
211.628	4599.16
212.094	3886.45
212.559	4751.01
213.024	2962.78
213.49	3629.06
213.955	3529.94
214.42	3461.92
214.885	3211.43
215.35	3082.06
215.815	2992.11
216.28	3206.25
216.745	2636.7
217.21	2860.56
217.675	2647.48
218.14	3004.23
218.604	3374.49
219.069	3909.82
219.534	4154.48
219.998	4890.42
220.463	5960.09
220.927	7376.05
221.392	6978.2
221.856	7105.18
222.32	9030.93
222.785	11218.29
223.249	14169.91
223.713	15862.98
224.177	15891.57
224.642	20411.49
225.106	25176.44
225.57	27620.23
226.034	20574.6
226.497	31376.51
226.961	28388.01
227.425	33013.46
227.889	36620.69
228.353	36666.66
228.816	75733.77
229.28	72489.58
229.744	61138.1
230.207	37127.45
230.671	36491.19
231.134	60394.03
231.597	69637.59
232.061	69626.24
232.524	67867.34
232.987	46729.7
233.45	42052.97
233.914	37741.71
234.377	38690.32
234.84	35450.02
235.303	41820.23
235.766	46764.07
236.229	48357.31
236.691	30448.89
237.154	34198.36
237.617	25757.54
238.08	26414.96
238.542	30922.34
239.005	22096.69
239.468	21912.86
239.93	20624.24
240.393	18749.1
240.855	16437.77
241.317	16831.83
241.78	20501.31
242.242	21205.71
242.704	22901.8
243.166	19924.88
243.629	18105.18
244.091	20862.93
244.553	22867.71
245.015	24603.34
245.477	31857.36
245.939	46685.26
246.4	49517.6
246.862	48125.79
247.324	45397.74
247.786	50853.61
248.247	66744.5
248.709	68912.75
249.17	51586.93
249.632	48616.66
250.093	56371.47
250.555	48666.33
251.016	29727.51
251.477	28228.53
251.939	30503.25
252.4	32002.8
252.861	38049.48
253.322	35395.35
253.783	42165.19
254.244	54748.82
254.705	43230.37
255.166	38497.68
255.627	37902.44
256.088	53486.8
256.549	56887.07
257.009	48958.14
257.47	59444.3
257.931	48482.79
258.391	36385.84
258.852	37529.82
259.312	39365.05
259.773	48668.23
260.233	41124.98
260.694	34758.05
261.154	39449.3
261.614	31665.01
262.074	28357.07
262.534	29486.83
262.994	27827.41
263.455	37083.66
263.915	31269.73
264.374	29469.4
264.834	32197.66
265.294	35696.14
265.754	36971
266.214	35051.43
266.673	32888.46
267.133	41561.39
267.593	41267.82
268.052	50510.99
268.512	43951.46
268.971	53031.1
269.431	58198.26
269.89	52153.17
270.349	78318.67
270.809	87442.15
271.268	78639.13
271.727	176364.3
272.186	114335.13
272.645	85775.8
273.104	61889.19
273.563	89692.72
274.022	70604.06
274.481	60138.5
274.94	46319.73
275.399	34427.16
275.857	40101.3
276.316	54233.21
276.775	48274.54
277.233	47537.82
277.692	44561.88
278.15	50408.65
278.609	51852.24
279.067	47988.52
279.525	44576.58
279.984	57630.6
280.442	69284.27
280.9	68323.52
281.358	44939.12
281.816	41910.86
282.274	41061.18
282.732	42413.18
283.19	42649.44
283.648	36860.96
284.106	39269.82
284.564	39943.6
285.021	37038.82
285.479	27623.09
285.937	25124.94
286.394	22056.26
286.852	22703.99
287.309	23842.99
287.767	23048.51
288.224	21905.42
288.682	24029.23
289.139	26418.25
289.596	24151.49
290.053	25132.8
290.511	31700.95
290.968	38417.71
291.425	52170.16
291.882	43440.97
292.339	37837.66
292.796	37531.81
293.252	35417.38
293.709	28146.11
294.166	25204.44
294.623	27900.47
295.079	26784.84
295.536	26929.91
295.992	24477.7
296.449	24230
296.905	25187.57
297.362	24145.68
297.818	25406.66
298.274	26348.32
298.731	26829.91
299.187	26564.24
299.643	28512.46
300.099	34467.9
300.555	37814.69
301.011	31592.37
301.467	30427.67
301.923	35611.7
302.379	34784.16
302.835	34142.37
303.291	34187.6
303.746	38909.28
304.202	49168.81
304.658	49358.24
305.113	33195.88
305.569	32504.37
306.024	34672.85
306.479	33013.77
306.935	27821.25
307.39	30383.64
307.845	28080.91
308.301	28262.36
308.756	27552.83
309.211	26511.2
309.666	27156.42
310.121	33724.99
310.576	34232.16
311.031	33974.93
311.486	38916.99
311.94	38927.01
312.395	52119.4
312.85	98072.6
313.305	481099.56
313.759	2492228.14
314.214	180801.93
314.668	143442.02
315.123	120556.78
315.577	43252.5
316.032	38452.63
316.486	48159.95
316.94	38029.52
317.394	26434.34
317.849	20515.05
318.303	19458.52
318.757	18327.04
319.211	20242.01
319.665	17715.6
320.119	17933.63
320.572	25722.74
321.026	24026.48
321.48	19990.91
321.934	21768.53
322.387	21790.88
322.841	23526.87
323.295	21135.33
323.748	24364.41
324.202	24707.01
324.655	29661.96
325.108	41440.97
325.562	29243.31
326.015	34762.89
326.468	26275.72
326.921	29373.05
327.374	27414.27
327.827	28554.8
328.28	32351.85
328.733	21681.28
329.186	19068.36
329.639	18162.88
330.092	15292.78
330.545	14551.52
330.997	14665.57
331.45	16044.23
331.903	18821.18
332.355	32408.76
332.808	31455.12
333.26	25925.14
333.713	28116.45
334.165	28339.2
334.617	37847.39
335.069	30592.62
335.522	55428.58
335.974	61445.92
336.426	56166.31
336.878	38838.99
337.33	19681.63
337.782	19234.38
338.234	24100.42
338.686	28897.37
339.137	34217.6
339.589	32236.04
340.041	25260.67
340.493	21700.19
340.944	22236.24
341.396	23938.56
341.847	20172.88
342.299	23803.33
342.75	29063.4
343.201	25410.82
343.653	29179.01
344.104	35902.53
344.555	28261.1
345.006	43991.11
345.457	33688.6
345.908	26744.01
346.359	25142.28
346.81	20469.41
347.261	21585.45
347.712	21268.55
348.163	22803.65
348.613	23123.17
349.064	21579.13
349.515	18886.14
349.965	19396.79
350.416	23376.74
350.866	25641.72
351.317	29029.75
351.767	48042.46
352.217	60716.94
352.668	50380.4
353.118	46136.25
353.568	44441.17
354.018	35123.08
354.468	37055.13
354.918	26570.68
355.368	23229.4
355.818	32895.73
356.268	94689.1
356.718	396284.58
357.168	98630.38
357.617	49513.48
358.067	55140.11
358.517	51653.57
358.966	60658.18
359.416	68007.76
359.865	73460.89
360.315	87459.34
360.764	40743.61
361.213	22806.31
361.663	21615.1
362.112	26671.8
362.561	43077.09
363.01	32481.35
363.459	27371.86
363.908	29606.18
364.357	25144.81
364.806	42460.97
365.255	29157.39
365.703	26745.88
366.152	26768.57
366.601	21687.46
367.05	17614.96
367.498	16009.84
367.947	16695.76
368.395	17336.75
368.844	15327.46
369.292	18475.24
369.74	12782.85
370.189	19584.31
370.637	22882.72
371.085	19733.31
371.533	24018.24
371.981	23123.98
372.429	21999.8
372.877	22913.54
373.325	19157.14
373.773	19534.8
374.221	17363.82
374.669	21496.3
375.116	18594.37
375.564	18741.9
376.012	20928.5
376.459	17261.88
376.907	20602.09
377.354	24899.38
377.801	23223
378.249	26689.6
378.696	34081.08
379.143	41259.83
379.591	43909
380.038	74255.66
380.485	53584.81
380.932	57801.2
381.379	52665.34
381.826	38726.42
382.273	27526.68
382.72	24047.38
383.166	23430.59
383.613	15170.31
384.06	13665.36
384.506	15832.37
384.953	11602.52
385.4	11679.32
385.846	10212.18
386.292	9965.11
386.739	9760.52
387.185	9636.02
387.631	9626.11
388.078	9338.62
388.524	9980.99
388.97	9209.68
389.416	7666.82
389.862	8152.45
390.308	7723.88
390.754	7851.12
391.2	8523.46
391.645	8716.62
392.091	8338.09
392.537	8058.56
392.983	8065.58
393.428	7940.23
393.874	8513.93
394.319	8548.91
394.765	8099.71
395.21	8334.86
395.655	7819.83
396.101	7325.37
396.546	6617.63
396.991	6691.6
397.436	6208.34
397.881	6005.58
398.326	5693.23
398.771	5387.54
399.216	4709.35
399.661	4248.37
400.106	4233.7
400.551	4341.92
400.995	3893.54
401.44	3851.13
401.885	3615.24
402.329	3661.02
402.774	3508.38
403.218	3394.23
403.663	3270.63
404.107	3366.17
404.551	3388.56
404.995	3101.9
405.44	2983.45
405.884	3031.17
406.328	2934.75
406.772	2924.28
407.216	2656.74
407.66	2563.6
408.104	2433.09
408.547	2275.36
408.991	2199.06
409.435	2116
409.879	2089.48
410.322	2062.61
410.766	1989.28
411.209	1888.78
411.653	1811.11
412.096	1776.01
412.54	1775.5
412.983	1762.35
413.426	1766.03
413.869	1764.75
414.312	1730.51
414.756	1665.05
415.199	1586.46
415.642	1539.47
416.085	1538.78
416.527	1524.24
416.97	1548.07
417.413	1468.97
417.856	1453.27
418.298	1437.36
418.741	1423.76
419.184	1419.1
419.626	1476.61
420.069	1475.88
420.511	1483.25
420.953	1451.72
421.396	1439.89
421.838	1400.33
422.28	1430.69
422.722	1436.6
423.164	1455.97
423.606	1431.75
424.048	1424.99
424.49	1355.33
424.932	1346.05
425.374	1326.99
425.816	1347.67
426.258	1372.46
426.699	1385.29
427.141	1365.43
427.582	1383.68
428.024	1375.02
428.465	1364.82
428.907	1331.75
429.348	1310.38
429.789	1308.3
430.231	1278.64
430.672	1296.5
431.113	1263.51
431.554	1246.17
431.995	1213.18
432.436	1172.82
432.877	1145.88
433.318	1128.28
433.759	1123.41
434.2	1125.8
434.64	1114.75
435.081	1118.29
435.522	1058.52
435.962	1022.41
436.403	999.9
436.843	1013.51
437.284	990.42
437.724	964.64
438.164	964.99
438.604	944.19
439.045	908.25
439.485	873.69
439.925	855.05
440.365	834.48
440.805	823.19
441.245	814.54
441.685	785.83
442.125	778.67
442.564	785.04
443.004	768.8
443.444	769.05
443.883	772.33
444.323	766.22
444.762	768.8
445.202	781.27
445.641	797.76
446.081	794.7
446.52	802.68
446.959	799.25
447.398	783.24
447.837	776.13
448.276	763.19
448.716	771.46
449.154	781.22
449.593	764.14
450.032	762.5
450.471	749.48
450.91	751.1
451.349	751.95
451.787	749.01
452.226	760.86
452.664	762.53
453.103	765.75
453.541	767.2
453.98	769.11
454.418	776.78
454.856	766.56
455.295	766.03
455.733	774.65
456.171	779.6
456.609	781.37
457.047	781.39
457.485	794.02
457.923	796.78
458.361	786.57
458.798	787.04
459.236	785.04
459.674	789.63
460.111	793.49
460.549	785.38
460.987	782.41
461.424	780.22
461.862	776.84
462.299	764.36
462.736	764.23
463.173	765.69
463.611	757.95
464.048	756.03
464.485	762.76
464.922	754.9
465.359	749.16
465.796	741.79
466.233	736.35
466.67	729.9
467.106	728.64
467.543	720.63
467.98	712.34
468.416	693.85
468.853	688.89
469.29	667.92
469.726	661.72
470.162	645.86
470.599	635.69
471.035	630.92
471.471	616.49
471.907	613.34
472.344	610.33
472.78	612.44
473.216	621.17
473.652	613.79
474.088	614.04
474.523	613.77
474.959	620.67
475.395	617.21
475.831	615.4
476.266	618.9
476.702	617.38
477.138	611.23
477.573	610.1
478.008	610.06
478.444	615.83
478.879	623.46
479.314	627.32
479.75	627.72
480.185	631.2
480.62	636.43
481.055	641.66
481.49	648.58
481.925	659.15
482.36	672.84
482.795	692.34
483.229	711.75
483.664	726.9
484.099	730.45
484.534	743.53
484.968	752.62
485.403	756.46
485.837	757.61
486.271	758
486.706	759.56
487.14	752.26
487.574	741.45
488.009	735
488.443	729.96
488.877	739.89
489.311	743.78
489.745	754.13
490.179	763.95
490.613	779.22
491.046	786.8
491.48	795.21
491.914	798.07
492.348	806.86
492.781	814.93
493.215	820.3
493.648	824.33
494.082	834.12
494.515	837.64
494.948	849.83
495.382	859.91
495.815	869.77
496.248	881.01
496.681	901.74
497.114	920
497.547	937.73
497.98	958.95
498.413	971.5
498.846	988.64
499.279	1004.61
499.711	1014.35
500.144	1021.14
500.577	1039.01
501.009	1057.64
501.442	1074.95
501.874	1080.93
502.306	1087.97
502.739	1102.33
503.171	1126.85
503.603	1135.51
504.036	1152.31
504.468	1164.7
504.9	1184.8
505.332	1197.93
505.764	1208.19
506.196	1221.18
506.627	1244.14
507.059	1266.07
507.491	1282.01
507.923	1282.21
508.354	1305.87
508.786	1323.97
509.217	1350.86
509.649	1374.03
510.08	1403.01
510.512	1427.73
510.943	1450.05
511.374	1467.96
511.805	1495.94
512.237	1522.81
512.668	1568
513.099	1604.28
513.53	1641.22
513.961	1668.79
514.391	1710.63
514.822	1754.35
515.253	1801.07
515.684	1834.28
516.114	1872.09
516.545	1900.54
516.975	1934.41
517.406	1955.37
517.836	1956.53
518.267	1962.57
518.697	1984.35
519.127	1987.95
519.558	1993.79
519.988	1996.94
520.418	2008.16
520.848	2029.08
521.278	2035.31
521.708	2055.28
522.138	2070.48
522.567	2109.97
522.997	2140.38
523.427	2157.53
523.857	2176.11
524.286	2186.3
524.716	2202.49
525.145	2223.53
525.575	2235.09
526.004	2253.12
526.433	2239.96
526.863	2236.24
527.292	2220.67
527.721	2225.1
528.15	2230.82
528.579	2229.3
529.008	2241.44
529.437	2270.31
529.866	2286.92
530.295	2307.19
530.724	2320.54
531.152	2354.06
531.581	2370.68
532.01	2390.7
532.438	2400.84
532.867	2417.41
533.295	2440.33
533.723	2447.29
534.152	2441.1
534.58	2438.79
535.008	2415.66
535.436	2416.59
535.865	2424.96
536.293	2443.31
536.721	2463.06
537.149	2494.28
537.576	2496.68
538.004	2512.3
538.432	2521.01
538.86	2517.04
539.287	2524.73
539.715	2541.87
540.143	2544.08
540.57	2538.42
540.998	2531.49
541.425	2500.21
541.852	2471.16
542.28	2468.21
542.707	2444.23
543.134	2425.75
543.561	2420.93
543.988	2411.15
544.415	2410.59
544.842	2403.25
545.269	2393.67
545.696	2396.13
546.123	2413.22
546.549	2400.86
546.976	2383.17
547.403	2383.34
547.829	2385.9
548.256	2389.07
548.682	2384.09
549.108	2373.37
549.535	2373.01
549.961	2376.34
550.387	2359.71
550.813	2351.49
551.24	2359
551.666	2362.46
552.092	2351.93
552.518	2345.07
552.943	2337.32
553.369	2348.41
553.795	2356.77
554.221	2358.91
554.646	2356.01
555.072	2372.78
555.498	2383.53
555.923	2398.83
556.349	2421.44
556.774	2435.36
557.199	2438.39
557.625	2449.85
558.05	2444.38
558.475	2461.25
558.9	2463.93
559.325	2456.25
559.75	2450.14
560.175	2441.74
560.6	2434.58
561.025	2433.37
561.449	2436.12
561.874	2446.51
562.299	2455.34
562.723	2467.51
563.148	2457.48
563.572	2465.6
563.997	2481.73
564.421	2491.43
564.846	2496.84
565.27	2505.14
565.694	2505.06
566.118	2525.42
566.542	2539.75
566.966	2533.91
567.39	2531.79
567.814	2520.57
568.238	2522.59
568.662	2531.94
569.086	2539.57
569.509	2552.96
569.933	2536
570.357	2529.86
570.78	2503.24
571.204	2487.9
571.627	2476.1
572.05	2475.33
572.474	2478.47
572.897	2463.96
573.32	2457.54
573.743	2446.41
574.166	2424.17
574.589	2427.43
575.012	2420.99
575.435	2423.81
575.858	2414.79
576.281	2402.05
576.704	2384.35
577.126	2370.48
577.549	2359.57
577.972	2349.77
578.394	2337.91
578.817	2329.5
579.239	2305.97
579.661	2288.92
580.084	2268.58
580.506	2252.21
580.928	2249.52
581.35	2235.9
581.772	2230.69
582.194	2214.07
582.616	2197.52
583.038	2179.97
583.46	2168.86
583.882	2165.78
584.303	2173.11
584.725	2168.18
585.147	2172.51
585.568	2189.66
585.99	2209.78
586.411	2223.13
586.833	2246.86
587.254	2250.25
587.675	2272.6
588.096	2291.65
588.518	2286.37
588.939	2263.46
589.36	2261.58
589.781	2247.57
590.202	2206.08
590.623	2194.3
591.043	2191.35
591.464	2173.79
591.885	2169.48
592.305	2160.7
592.726	2140.98
593.147	2142.84
593.567	2135.67
593.987	2126.24
594.408	2118.92
594.828	2119.15
595.248	2110.99
595.669	2084.26
596.089	2074.8
596.509	2065.11
596.929	2046.66
597.349	2048.77
597.769	2034.31
598.189	2027.03
598.608	2028.81
599.028	2033.51
599.448	2034.73
599.867	2017.24
600.287	2012.2
600.706	2005.98
601.126	1993.08
601.545	1991.83
601.965	1991.65
602.384	1985.89
602.803	1990.57
603.222	1984.34
603.641	1975.04
604.061	1968.98
604.48	1963.93
604.898	1976.63
605.317	1985.15
605.736	1989.68
606.155	1987.4
606.574	1974.62
606.992	1983.99
607.411	1978.39
607.829	1969.13
608.248	1966.57
608.666	1966.02
609.085	1966.91
609.503	1956.69
609.921	1949.72
610.339	1955.16
610.758	1956.54
611.176	1951.21
611.594	1939.29
612.012	1936.09
612.43	1942.58
612.847	1953.35
613.265	1955.31
613.683	1963.68
614.101	1967.2
614.518	1962.63
614.936	1949.31
615.353	1928.08
615.771	1925.16
616.188	1927.09
616.606	1923.35
617.023	1914.21
617.44	1894.72
617.857	1886.01
618.274	1875.22
618.691	1866.16
619.108	1853.6
619.525	1845.06
619.942	1856.47
620.359	1860.72
620.776	1854.07
621.192	1848.78
621.609	1845.71
622.026	1856.78
622.442	1865.93
622.859	1870.31
623.275	1860.64
623.691	1868.63
624.108	1886.51
624.524	1907.13
624.94	1907.3
625.356	1921.68
625.772	1941.24
626.188	1958.52
626.604	1960.78
627.02	1954.31
627.436	1952.05
627.852	1962.55
628.268	1980.74
628.683	1966.32
629.099	1953.47
629.514	1947.15
629.93	1952.32
630.345	1957.66
630.761	1952.02
631.176	1953.76
631.591	1944.84
632.007	1933.31
632.422	1928.79
632.837	1909.65
633.252	1904.59
633.667	1888.41
634.082	1874.1
634.497	1853.67
634.911	1824.53
635.326	1817.89
635.741	1794.41
636.155	1778.24
636.57	1779.12
636.984	1777.01
637.399	1780.06
637.813	1779.28
638.228	1777.21
638.642	1781.1
639.056	1765.01
639.47	1762.62
639.884	1747.62
640.298	1735.77
640.712	1732.41
641.126	1711.91
641.54	1697.03
641.954	1686.51
642.368	1665.9
642.781	1650.91
643.195	1622.51
643.609	1619.2
644.022	1607.36
644.436	1598.45
644.849	1578.3
645.262	1558.08
645.676	1557.42
646.089	1548.51
646.502	1523.54
646.915	1513.02
647.328	1485.59
647.741	1480.32
648.154	1460.17
648.567	1454.35
648.98	1434.55
649.393	1432.6
649.805	1425.44
650.218	1414.85
650.631	1390.28
651.043	1380.55
651.456	1370.71
651.868	1370.43
652.28	1392.47
652.693	1410.25
653.105	1417.03
653.517	1430.03
653.929	1428.49
654.341	1435.53
654.753	1416.5
655.165	1424.93
655.577	1419.87
655.989	1411.65
656.401	1399.49
656.813	1348.35
657.224	1318.57
657.636	1279.23
658.047	1251.85
658.459	1223.56
658.87	1208.28
659.282	1188.89
659.693	1157.51
660.104	1134.35
660.515	1111.61
660.926	1104.17
661.338	1095.76
661.749	1082.75
662.159	1066.64
662.57	1055.29
662.981	1043.77
663.392	1028.76
663.803	1028.97
664.213	1019.41
664.624	1007.75
665.035	1006.62
665.445	985.35
665.855	971.19
666.266	956.05
666.676	946.4
667.086	930.01
667.497	924.72
667.907	912.71
668.317	896.41
668.727	888.83
669.137	885.08
669.547	878.36
669.956	877.71
670.366	876.08
670.776	874.82
671.186	876.23
671.595	877.97
672.005	878.34
672.414	876.59
672.824	873.45
673.233	875.49
673.642	876.42
674.052	878.5
674.461	878.81
674.87	882.43
675.279	878.84
675.688	879.4
676.097	880.19
676.506	876.38
676.915	890.19
677.323	892.85
677.732	891.27
678.141	892.02
678.549	881.82
678.958	882.81
679.366	884.59
679.775	893.04
680.183	908.23
680.592	918.13
681	930.35
681.408	928.38
681.816	943.81
682.224	961.19
682.632	982.56
683.04	1026.26
683.448	1065.5
683.856	1115.02
684.264	1170.52
684.671	1225.13
685.079	1290
685.487	1360.46
685.894	1455.72
686.302	1537.63
686.709	1610.49
687.116	1689.76
687.524	1758.41
687.931	1819.64
688.338	1871.23
688.745	1916.22
689.152	1966.29
689.559	2030.59
689.966	2092.26
690.373	2122.25
690.78	2178.28
691.187	2263.12
691.593	2325.13
692	2376.65
692.407	2455.26
692.813	2550.16
693.22	2621.94
693.626	2695.91
694.032	2750.55
694.439	2839.38
694.845	2902.92
695.251	2989.62
695.657	3062.71
