Data from N_3_HIR_WI_4N_Splice17_13-11-51-378.txt Node
Date: Sat Mar 14 13:11:51 EDT 2020
User: sa697716
Spectrometer: FLMS03696
Trigger mode: 0
Integration Time (sec): 3.180400E-1
Scans to average: 20
Electric dark correction enabled: true
Nonlinearity correction enabled: true
Boxcar width: 5
XAxis mode: Wavelengths
Number of Pixels in Spectrum: 2048
>>>>>Begin Spectral Data<<<<<
187.83	-195453.83
188.298	1386.46
188.766	872.58
189.233	762.1
189.701	1139.44
190.169	1594.46
190.636	596.03
191.104	577.41
191.571	102.14
192.039	-49.1
192.506	-38.03
192.974	629.98
193.441	-1136.27
193.908	-331
194.375	-83.55
194.842	-14.11
195.31	93
195.777	148.44
196.244	410.2
196.711	472.76
197.177	602.06
197.644	849.66
198.111	1447.43
198.578	2012.34
199.045	1635.89
199.511	2680.65
199.978	3116.94
200.445	2646.55
200.911	2958.78
201.378	3281.75
201.844	2988.53
202.31	5121.48
202.777	5368.87
203.243	3008.59
203.709	2875.53
204.176	3417.48
204.642	2819.48
205.108	2639.44
205.574	2168.19
206.04	1963.78
206.506	1846.03
206.972	1749.85
207.438	1685
207.903	1910.4
208.369	1667.89
208.835	1666.09
209.301	1745.75
209.766	1786.45
210.232	1787.13
210.697	2219.12
211.163	2764.67
211.628	4212.28
212.094	3558.36
212.559	4395.99
213.024	2764.46
213.49	3405.37
213.955	3354.53
214.42	3302.64
214.885	3088.09
215.35	2979.48
215.815	2868.18
216.28	3068.63
216.745	2521.1
217.21	2772.63
217.675	2611.63
218.14	3005.65
218.604	3428.03
219.069	4002.05
219.534	4306.85
219.998	5138.82
220.463	6367.04
220.927	8013.33
221.392	7662.75
221.856	7870.49
222.32	10031.51
222.785	12451.68
223.249	15796.42
223.713	17749.1
224.177	17854.36
224.642	22983.28
225.106	28342.21
225.57	30984.35
226.034	23018.46
226.497	35055.74
226.961	31621.02
227.425	36847.19
227.889	40909.4
228.353	40938.78
228.816	84546.89
229.28	80800.12
229.744	68164.1
230.207	41394.37
230.671	40699.83
231.134	67571.9
231.597	77966.41
232.061	77953.87
232.524	76011.25
232.987	52355.17
233.45	47067.18
233.914	42225.28
234.377	43269.42
234.84	39586.69
235.303	46662.72
235.766	52099.87
236.229	53667.32
236.691	33765.48
237.154	37942.39
237.617	28501.52
238.08	29200.54
238.542	34134.78
239.005	24368.83
239.468	24162.68
239.93	22739.1
240.393	20660.15
240.855	18120.01
241.317	18575.45
241.78	22593.94
242.242	23324.83
242.704	25186.9
243.166	21903.44
243.629	19878.56
244.091	22905.44
244.553	25099.34
245.015	26981.77
245.477	34877.93
245.939	51128.64
246.4	54178.84
246.862	52640.42
247.324	49655.35
247.786	55531.99
248.247	72752.83
248.709	75148.06
249.17	56147.7
249.632	52847.49
250.093	61144.29
250.555	52734.14
251.016	32123.97
251.477	30449.11
251.939	32818.1
252.4	34369.21
252.861	40823.55
253.322	37957.07
253.783	45131.02
254.244	58486.24
254.705	46086.93
255.166	40951.73
255.627	40361.85
256.088	56828.89
256.549	60303.06
257.009	51896.18
257.47	62948.58
257.931	51251.02
258.391	38358.91
258.852	39542.04
259.312	41437.76
259.773	51168.96
260.233	43262.87
260.694	36435.23
261.154	41341.22
261.614	33161.64
262.074	29661.42
262.534	30803.14
262.994	29004.31
263.455	38624.73
263.915	32485.44
264.374	30591.92
264.834	33379.66
265.294	36978.4
265.754	38268.96
266.214	36201.98
266.673	33906.5
267.133	42737.04
267.593	42375.39
268.052	51800.28
268.512	45020.37
268.971	54257.33
269.431	59426.92
269.89	53156.42
270.349	79588.63
270.809	88621.28
271.268	79621.19
271.727	178376.24
272.186	115442.67
272.645	86553.75
273.104	62439.99
273.563	90369.41
274.022	71040.41
274.481	60355.9
274.94	46441.82
275.399	34496.43
275.857	40137.54
276.316	54196.46
276.775	48187.59
277.233	47422.61
277.692	44304.68
278.15	49997.07
278.609	51325.7
279.067	47388.58
279.525	43970.93
279.984	56757.1
280.442	68061.23
280.9	67000.21
281.358	44029.77
281.816	41001.21
282.274	40067.07
282.732	41355.17
283.19	41525.62
283.648	35828.97
284.106	38156.51
284.564	38775.54
285.021	35895.94
285.479	26736.61
285.937	24325.13
286.394	21327.07
286.852	21914.44
287.309	23030.91
287.767	22214
288.224	21122.34
288.682	23151.61
289.139	25398.2
289.596	23223.68
290.053	24118.8
290.511	30399.83
290.968	36824.15
291.425	49939.3
291.882	41524.83
292.339	36097.38
292.796	35839.93
293.252	33764.65
293.709	26771.03
294.166	23951.2
294.623	26443.24
295.079	25361.9
295.536	25474.95
295.992	23104.14
296.449	22835.16
296.905	23724.8
297.362	22710.2
297.818	23842.48
298.274	24701.23
298.731	25160.04
299.187	24879.27
299.643	26698.14
300.099	32228.98
300.555	35306.64
301.011	29468.18
301.467	28343.42
301.923	33143.64
302.379	32385.94
302.835	31802.72
303.291	31817.52
303.746	36217.1
304.202	45736.21
304.658	45849.06
305.113	30836.79
305.569	30187.37
306.024	32177.25
306.479	30640.98
306.935	25794.22
307.39	28134.36
307.845	25954.45
308.301	26091.23
308.756	25398.8
309.211	24436.88
309.666	25011.94
310.121	31014.96
310.576	31485.18
311.031	31229.25
311.486	35736.12
311.94	35708.48
312.395	47678.87
312.85	89563.32
313.305	439462.55
313.759	2270262.92
314.214	164429.89
314.668	130312.19
315.123	109395.66
315.577	39185.88
316.032	34781.83
316.486	43516.41
316.94	34258.84
317.394	23822.54
317.849	18485.04
318.303	17497.9
318.757	16505.24
319.211	18252.21
319.665	15954.39
320.119	16143.24
320.572	23115.06
321.026	21570.11
321.48	17940.47
321.934	19580.26
322.387	19626.22
322.841	21188.45
323.295	19027.54
323.748	21899.61
324.202	22166.09
324.655	26614.27
325.108	37173.91
325.562	26247.25
326.015	31223.82
326.468	23589.52
326.921	26340.85
327.374	24537.13
327.827	25535.63
328.28	28858.96
328.733	19313.74
329.186	16980.5
329.639	16167.7
330.092	13613.05
330.545	12954.56
330.997	13018.62
331.45	14198.6
331.903	16624.62
332.355	28562.3
332.808	27701.92
333.26	22858.29
333.713	24806.18
334.165	24940.94
334.617	33241.71
335.069	26820.82
335.522	48434.09
335.974	53601.76
336.426	48971.04
336.878	33910.85
337.33	17172.71
337.782	16747.85
338.234	20926.46
338.686	25025.86
339.137	29628.37
339.589	27923.75
340.041	21884.89
340.493	18797.81
340.944	19259.63
341.396	20748.43
341.847	17396.33
342.299	20552.57
342.75	25091.63
343.201	21903.51
343.653	25188.31
344.104	30987.71
344.555	24353.78
345.006	37894.6
345.457	29021.45
345.908	23072.3
346.359	21703.96
346.81	17680.99
347.261	18576.17
347.712	18290.86
348.163	19637.63
348.613	19840.32
349.064	18488.99
349.515	16168.32
349.965	16591.38
350.416	19950.88
350.866	21875.9
351.317	24644.94
351.767	40825.76
352.217	51583.35
352.668	42731.61
353.118	39093.66
353.568	37690.9
354.018	29820.64
354.468	31434.18
354.918	22492.16
355.368	19666.54
355.818	27750.88
356.268	79866.84
356.718	333530.57
357.168	82922.37
357.617	41591.28
358.067	46163.84
358.517	43232.12
358.966	50619.33
359.416	56617.95
359.865	61124.58
360.315	72682.67
360.764	33869.06
361.213	18974.92
361.663	17953.86
362.112	22175.3
362.561	35779.06
363.01	26979.58
363.459	22688.1
363.908	24498.25
364.357	20798.78
364.806	35113.44
365.255	24099.49
365.703	22029.77
366.152	22015.66
366.601	17861.38
367.05	14463.31
367.498	13140.61
367.947	13717.62
368.395	14233.47
368.844	12593.31
369.292	15152.25
369.74	10458.03
370.189	16036.3
370.637	18805.95
371.085	16226.02
371.533	19726.42
371.981	19004.37
372.429	18099.4
372.877	18839.04
373.325	15778.53
373.773	16095.21
374.221	14338.07
374.669	17773.45
375.116	15335.36
375.564	15441.3
376.012	17241.3
376.459	14187.92
376.907	16905.29
377.354	20431.78
377.801	19033.79
378.249	21811.77
378.696	27801.3
379.143	33689.3
379.591	35925.33
380.038	60639.39
380.485	43844.72
380.932	47300.62
381.379	43316.95
381.826	31970.73
382.273	22691.6
382.72	19850.71
383.166	19344.76
383.613	12544.29
384.06	11291.35
384.506	13046.09
384.953	9580.65
385.4	9630.21
385.846	8436.33
386.292	8219.84
386.739	8031.76
387.185	7943.29
387.631	7930.92
388.078	7704.33
388.524	8253.5
388.97	7629.6
389.416	6365.27
389.862	6766.04
390.308	6401.46
390.754	6507.35
391.2	7062.2
391.645	7232.14
392.091	6912.09
392.537	6684.82
392.983	6680.21
393.428	6554.76
393.874	7019.74
394.319	7042.08
394.765	6692.72
395.21	6893.74
395.655	6453.06
396.101	6033.93
396.546	5442.99
396.991	5483.9
397.436	5089.95
397.881	4921.76
398.326	4657.51
398.771	4405.57
399.216	3848.72
399.661	3458.13
400.106	3434.71
400.551	3517.98
400.995	3149.54
401.44	3113.21
401.885	2921.09
402.329	2947.25
402.774	2817.02
403.218	2727.3
403.663	2620.26
404.107	2685.84
404.551	2703.01
404.995	2474.56
405.44	2376.39
405.884	2409.32
406.328	2321.81
406.772	2311.64
407.216	2101.22
407.66	2028.05
408.104	1919.31
408.547	1790.88
408.991	1729.2
409.435	1657.65
409.879	1630.01
410.322	1606.33
410.766	1548.82
411.209	1472.91
411.653	1408.99
412.096	1378.48
412.54	1376.95
412.983	1366.72
413.426	1369.66
413.869	1364.62
414.312	1337.55
414.756	1288.93
415.199	1227.37
415.642	1190.93
416.085	1192.92
416.527	1184.49
416.97	1201
417.413	1137.31
417.856	1121.74
418.298	1110.97
418.741	1103.14
419.184	1097.51
419.626	1138.21
420.069	1137.38
420.511	1142.06
420.953	1113.28
421.396	1104.54
421.838	1075.57
422.28	1099.83
422.722	1107.8
423.164	1120.34
423.606	1100.03
424.048	1097.54
424.49	1045.43
424.932	1039.97
425.374	1022.9
425.816	1037.78
426.258	1056.87
426.699	1067.82
427.141	1051.87
427.582	1064.37
428.024	1058.85
428.465	1052.4
428.907	1027.54
429.348	1015.16
429.789	1014.02
430.231	994.56
430.672	1007.59
431.113	979.74
431.554	963.9
431.995	937.64
432.436	906.04
432.877	886.3
433.318	871.99
433.759	867.74
434.2	865.3
434.64	855.82
435.081	856.61
435.522	815.24
435.962	787.12
436.403	771.12
436.843	782.78
437.284	763.3
437.724	742.41
438.164	742.96
438.604	726.53
439.045	701
439.485	672.35
439.925	658.85
440.365	640.32
440.805	631.84
441.245	624.47
441.685	602.12
442.125	598.45
442.564	600.88
443.004	588.78
443.444	586.34
443.883	587.87
444.323	582.01
444.762	581.9
445.202	591.79
445.641	605.14
446.081	601.64
446.52	606.68
446.959	602.33
447.398	588.51
447.837	581.73
448.276	572.62
448.716	578.28
449.154	586.2
449.593	574.11
450.032	573.38
450.471	561.73
450.91	561.01
451.349	560.94
451.787	559.38
452.226	568.22
452.664	569.81
453.103	573.06
453.541	571.12
453.98	570.88
454.418	575.45
454.856	567.04
455.295	565.55
455.733	570.55
456.171	572.37
456.609	571.84
457.047	573.15
457.485	581.05
457.923	581.38
458.361	574.4
458.798	574.78
459.236	571.97
459.674	574.16
460.111	577.91
460.549	572.08
460.987	570.07
461.424	568.05
461.862	565.66
462.299	556.68
462.736	556.19
463.173	557.6
463.611	552.76
464.048	551.67
464.485	555.46
464.922	549.58
465.359	546.96
465.796	543.14
466.233	539.65
466.67	533.05
467.106	532.99
467.543	526.03
467.98	519.29
468.416	504.6
468.853	500.51
469.29	484.85
469.726	478.99
470.162	466.52
470.599	458.58
471.035	454.72
471.471	444.6
471.907	440.43
472.344	438.59
472.78	441
473.216	447.22
473.652	442.47
474.088	442.92
474.523	442.85
474.959	447.1
475.395	442.96
475.831	440.72
476.266	442.54
476.702	441.68
477.138	436.77
477.573	433.97
478.008	431.97
478.444	433.97
478.879	438.23
479.314	440.41
479.75	439.78
480.185	442.34
480.62	445.66
481.055	448.01
481.49	451.91
481.925	459.25
482.36	469.74
482.795	482.83
483.229	495.62
483.664	505.26
484.099	506.93
484.534	515.84
484.968	521
485.403	522.02
485.837	521.71
486.271	520.94
486.706	521.06
487.14	514.03
487.574	506.81
488.009	502.28
488.443	498.38
488.877	504.13
489.311	505.35
489.745	511.74
490.179	517.89
490.613	529.05
491.046	533.68
491.48	538.77
491.914	540.63
492.348	545.24
492.781	550.73
493.215	553.74
493.648	554.98
494.082	560.86
494.515	561.62
494.948	569.69
495.382	574.19
495.815	579.44
496.248	586.01
496.681	597.32
497.114	608.31
497.547	618.24
497.98	631.03
498.413	639.11
498.846	649.41
499.279	659.21
499.711	664.54
500.144	669.74
500.577	681.36
501.009	692.97
501.442	705.69
501.874	710.38
502.306	714.73
502.739	725.39
503.171	742.36
503.603	747.98
504.036	759.78
504.468	768.72
504.9	781.67
505.332	791.6
505.764	798.28
506.196	806.78
506.627	823.06
507.059	838.61
507.491	849.52
507.923	851.28
508.354	868.53
508.786	881.71
509.217	901.32
509.649	918.07
510.08	938.68
510.512	959.24
510.943	977.84
511.374	991.57
511.805	1014.08
512.237	1035.06
512.668	1067.69
513.099	1097.28
513.53	1126.71
513.961	1150.39
514.391	1185.2
514.822	1219.67
515.253	1255.07
515.684	1281.67
516.114	1313.14
516.545	1336.71
516.975	1365.46
517.406	1386.12
517.836	1392.19
518.267	1401.29
518.697	1421.58
519.127	1427.63
519.558	1438.4
519.988	1445.47
520.418	1457.64
520.848	1476.69
521.278	1486.72
521.708	1503.14
522.138	1517.01
522.567	1548.51
522.997	1575.56
523.427	1592.62
523.857	1611.34
524.286	1622.65
524.716	1638.59
525.145	1658.86
525.575	1672.4
526.004	1689.77
526.433	1688.86
526.863	1691.52
527.292	1683.75
527.721	1690.44
528.15	1697.68
528.579	1698.59
529.008	1710.12
529.437	1734.35
529.866	1749.57
530.295	1767.2
530.724	1780.14
531.152	1806.34
531.581	1820.73
532.01	1838.91
532.438	1847.91
532.867	1862.18
533.295	1881.9
533.723	1889.18
534.152	1886.39
534.58	1887.12
535.008	1870.36
535.436	1872.53
535.865	1881.04
536.293	1896.64
536.721	1912.52
537.149	1937.96
537.576	1940.9
538.004	1954.43
538.432	1962.81
538.86	1962.25
539.287	1969.31
539.715	1985.07
540.143	1987.46
540.57	1983.11
540.998	1978.9
541.425	1955.94
541.852	1934.49
542.28	1932.69
542.707	1915.83
543.134	1900.06
543.561	1895.62
543.988	1886.87
544.415	1885.4
544.842	1879.99
545.269	1873.72
545.696	1875.6
546.123	1888.82
546.549	1879.11
546.976	1866.11
547.403	1865.44
547.829	1868.9
548.256	1872.13
548.682	1869.8
549.108	1862.39
549.535	1862.61
549.961	1864.82
550.387	1851.99
550.813	1846.58
551.24	1854
551.666	1855.53
552.092	1846.53
552.518	1840.59
552.943	1834.81
553.369	1842.9
553.795	1850.68
554.221	1852.1
554.646	1850.03
555.072	1860.7
555.498	1866.93
555.923	1876.08
556.349	1892.62
556.774	1902.38
557.199	1904.6
557.625	1910.65
558.05	1905.32
558.475	1915.19
558.9	1914.71
559.325	1905.33
559.75	1899.68
560.175	1891.67
560.6	1885.77
561.025	1883.68
561.449	1884.58
561.874	1888.76
562.299	1894.48
562.723	1900.69
563.148	1891
563.572	1894.28
563.997	1905.47
564.421	1910.72
564.846	1911.46
565.27	1915.16
565.694	1912.7
566.118	1924.43
566.542	1932.61
566.966	1924.79
567.39	1920.48
567.814	1907.17
568.238	1906.08
568.662	1910.32
569.086	1912.19
569.509	1919.12
569.933	1901.41
570.357	1892.26
570.78	1869.36
571.204	1854.51
571.627	1842.41
572.05	1839.2
572.474	1839.39
572.897	1825.93
573.32	1817.24
573.743	1806.44
574.166	1787.17
574.589	1786.83
575.012	1778.55
575.435	1776.46
575.858	1766.69
576.281	1755.5
576.704	1738.64
577.126	1725.38
577.549	1714.39
577.972	1704.64
578.394	1694.48
578.817	1686.78
579.239	1666.56
579.661	1653.16
580.084	1637.66
580.506	1624.07
580.928	1618.93
581.35	1608.75
581.772	1605.16
582.194	1591.32
582.616	1577.46
583.038	1562.49
583.46	1551.91
583.882	1549.61
584.303	1553.03
584.725	1549.39
585.147	1552.14
585.568	1563.25
585.99	1575
586.411	1580.8
586.833	1595.31
587.254	1596.25
587.675	1609.97
588.096	1623.14
588.518	1617.64
588.939	1600.15
589.36	1596.76
589.781	1585.72
590.202	1557.3
590.623	1547.95
591.043	1544.91
591.464	1532.02
591.885	1529.4
592.305	1522.89
592.726	1509.6
593.147	1511.09
593.567	1505.74
593.987	1498.24
594.408	1492.71
594.828	1489.67
595.248	1483.15
595.669	1465.17
596.089	1457.57
596.509	1450.37
596.929	1437.59
597.349	1437.32
597.769	1427.42
598.189	1421.64
598.608	1422.39
599.028	1423.92
599.448	1423.16
599.867	1410.88
600.287	1405.75
600.706	1401.41
601.126	1391.1
601.545	1389.59
601.965	1387.76
602.384	1381.83
602.803	1383.46
603.222	1378.05
603.641	1371.21
604.061	1367.6
604.48	1363.1
604.898	1370.5
605.317	1374.78
605.736	1377.17
606.155	1373.21
606.574	1363.35
606.992	1368
607.411	1363.13
607.829	1354.92
608.248	1350.34
608.666	1347.21
609.085	1345.14
609.503	1335.98
609.921	1328.93
610.339	1329.2
610.758	1328.36
611.176	1322.74
611.594	1312.95
612.012	1309.08
612.43	1311.58
612.847	1316.42
613.265	1317.04
613.683	1321.99
614.101	1322.07
614.518	1317.95
614.936	1308.26
615.353	1292.63
615.771	1288.8
616.188	1288.02
616.606	1283.74
617.023	1275.3
617.44	1261
617.857	1253.11
618.274	1242.94
618.691	1236.54
619.108	1226.16
619.525	1218.19
619.942	1224.08
620.359	1226.12
620.776	1220.61
621.192	1216.25
621.609	1213.7
622.026	1219.69
622.442	1224.3
622.859	1226.59
623.275	1219.57
623.691	1224.52
624.108	1235.12
624.524	1248.64
624.94	1248.48
625.356	1257.41
625.772	1269.7
626.188	1281.08
626.604	1282.78
627.02	1279.24
627.436	1277.48
627.852	1284
628.268	1296.26
628.683	1288.56
629.099	1279.78
629.514	1274.53
629.93	1277.27
630.345	1280.92
630.761	1275.81
631.176	1278.95
631.591	1273.16
632.007	1266.4
632.422	1263.17
632.837	1251.36
633.252	1247
633.667	1236.48
634.082	1226.48
634.497	1213.75
634.911	1193.32
635.326	1188.85
635.741	1170.62
636.155	1158.68
636.57	1159.24
636.984	1157.44
637.399	1157.29
637.813	1154.76
638.228	1151.51
638.642	1153.39
639.056	1141.39
639.47	1139.5
639.884	1129.87
640.298	1121.68
640.712	1119.42
641.126	1105.03
641.54	1094.91
641.954	1086.16
642.368	1072.76
642.781	1062.38
643.195	1042.68
643.609	1040.7
644.022	1032.27
644.436	1024.2
644.849	1010.79
645.262	996.06
645.676	994.22
646.089	986.45
646.502	970.8
646.915	963.62
647.328	947.4
647.741	944.31
648.154	930.73
648.567	926.99
648.98	914.58
649.393	913.03
649.805	909.94
650.218	902.08
650.631	886.95
651.043	880.23
651.456	873.91
651.868	873.16
652.28	887.28
652.693	897.69
653.105	902.32
653.517	910.1
653.929	908.46
654.341	911.15
654.753	898.4
655.165	901.85
655.577	898.23
655.989	892.78
656.401	882.45
656.813	849.56
657.224	830.79
657.636	803.67
658.047	786.31
658.459	767.84
658.87	757.24
659.282	745.34
659.693	725.64
660.104	711.41
660.515	697.13
660.926	692.43
661.338	686.71
661.749	677.69
662.159	667.47
662.57	660.64
662.981	653.83
663.392	645.58
663.803	646.68
664.213	642.34
664.624	635.78
665.035	635.23
665.445	623.75
665.855	616.77
666.266	609.41
666.676	605.14
667.086	595.4
667.497	593.68
667.907	587.01
668.317	577.99
668.727	575.82
669.137	575.25
669.547	573.09
669.956	572.88
670.366	573.26
670.776	573.53
671.186	577.12
671.595	580.78
672.005	582.52
672.414	581.92
672.824	580.37
673.233	581.9
673.642	583.02
674.052	584.92
674.461	587.58
674.87	590.78
675.279	590.14
675.688	590.91
676.097	592.41
676.506	591.58
676.915	602.83
677.323	605.98
677.732	605.46
678.141	607.19
678.549	599.49
678.958	599.67
679.366	600.48
679.775	605.07
680.183	616.21
680.592	621.34
681	626.81
681.408	623.71
681.816	631.86
682.224	642.24
682.632	652.99
683.04	680.06
683.448	703.09
683.856	732.55
684.264	765.48
684.671	794.99
685.079	833.78
685.487	876.64
685.894	934.74
686.302	985.57
686.709	1027.76
687.116	1076.91
687.524	1121.2
687.931	1161.16
688.338	1196.39
688.745	1226.15
689.152	1262.48
689.559	1308.17
689.966	1353.38
690.373	1380.1
690.78	1423.11
691.187	1486.3
691.593	1536.74
692	1581.07
692.407	1642.81
692.813	1718.74
693.22	1779.79
693.626	1841.53
694.032	1892.63
694.439	1968.26
694.845	2026.31
695.251	2099.68
695.657	2165.44
696.063	2263.56
696.469	2336.35
696.875	2405.31
697.281	2444.17
697.687	2492.47
698.093	2532.37
