Data from N_3_DIV_PA_2N_Splice17_13-16-42-237.txt Node
Date: Sat Mar 14 13:16:42 EDT 2020
User: sa697716
Spectrometer: FLMS03696
Trigger mode: 0
Integration Time (sec): 3.180400E-1
Scans to average: 20
Electric dark correction enabled: true
Nonlinearity correction enabled: true
Boxcar width: 5
XAxis mode: Wavelengths
Number of Pixels in Spectrum: 2048
>>>>>Begin Spectral Data<<<<<
187.83	-288274.87
188.298	2127.21
188.766	1201.15
189.233	1107.55
189.701	1555.25
190.169	2120.17
190.636	816.89
191.104	729.45
191.571	90.44
192.039	-84.8
192.506	-59.67
192.974	523.78
193.441	-889.38
193.908	-244.96
194.375	-24.46
194.842	79.77
195.31	180.66
195.777	214.21
196.244	560.06
196.711	846.8
197.177	1131.8
197.644	1707.91
198.111	2965.26
198.578	4173.96
199.045	3318.78
199.511	5400.23
199.978	6325.96
200.445	5278.15
200.911	5819.52
201.378	6500.64
201.844	5763.28
202.31	9746.7
202.777	10015.17
203.243	5503.83
203.709	5155.01
204.176	6091.22
204.642	4966.74
205.108	4566.8
205.574	3725.83
206.04	3411.35
206.506	3179.64
206.972	2991.22
207.438	2872.21
207.903	3240.49
208.369	2799.75
208.835	2760.25
209.301	2869.46
209.766	2928.42
210.232	2877.39
210.697	3513.81
211.163	4280.52
211.628	6413.73
212.094	5299.39
212.559	6349.94
213.024	3883.73
213.49	4651.85
213.955	4491.15
214.42	4344.13
214.885	3996.98
215.35	3768.24
215.815	3545.54
216.28	3661.26
216.745	2892.22
217.21	3003.35
217.675	2620.87
218.14	2777.38
218.604	2882.77
219.069	3027.9
219.534	2919.02
219.998	3096.28
220.463	3454.8
220.927	3868.84
221.392	3363.94
221.856	3187.46
222.32	3709.17
222.785	4305.31
223.249	5106.12
223.713	5416.48
224.177	5193.13
224.642	6356.54
225.106	7561.03
225.57	7905.24
226.034	5735.44
226.497	8485.49
226.961	7457.68
227.425	8523.44
227.889	9222.62
228.353	8972.22
228.816	18031.7
229.28	16874.07
229.744	13959.83
230.207	8356.9
230.671	8100.92
231.134	12976.81
231.597	14828.61
232.061	14456.96
232.524	13739.9
232.987	9367.3
233.45	8394.75
233.914	7446.83
234.377	7488.76
234.84	6782.34
235.303	7896.84
235.766	8753.97
236.229	8994.29
236.691	5600.24
237.154	6256.42
237.617	4729.41
238.08	4777.72
238.542	5542.73
239.005	3994.88
239.468	3983.07
239.93	3745.5
240.393	3405.44
240.855	2976.44
241.317	3027.81
241.78	3648.57
242.242	3778.94
242.704	4099.5
243.166	3592.52
243.629	3290.49
244.091	3763.8
244.553	4106
245.015	4402.9
245.477	5649.98
245.939	8250.39
246.4	8775.63
246.862	8500.45
247.324	7987.55
247.786	8867.01
248.247	11489
248.709	11625.9
249.17	8643.9
249.632	8251.93
250.093	9648.97
250.555	8326.39
251.016	5095.53
251.477	4829.81
251.939	5230.91
252.4	5474.56
252.861	6462.88
253.322	6047.68
253.783	7206.2
254.244	9335.94
254.705	7264.79
255.166	6398.48
255.627	6292.5
256.088	8916.42
256.549	9502.13
257.009	8155.27
257.47	9847.46
257.931	8016.41
258.391	6011.42
258.852	6174.36
259.312	6467.79
259.773	7963.69
260.233	6773.38
260.694	5739.08
261.154	6439.19
261.614	5190.2
262.074	4611.67
262.534	4793.4
262.994	4508.43
263.455	5944.11
263.915	5005.63
264.374	4681.81
264.834	5076.21
265.294	5541.06
265.754	5695.4
266.214	5354.88
266.673	4977.19
267.133	6222.58
267.593	6104.46
268.052	7439.72
268.512	6422.78
268.971	7763.78
269.431	8504.16
269.89	7600.66
270.349	11425.47
270.809	12745.86
271.268	11468.85
271.727	25479.04
272.186	16561.02
272.645	12459.1
273.104	8913.83
273.563	12904.84
274.022	10069.72
274.481	8600.98
274.94	6652.68
275.399	4924.12
275.857	5692.05
276.316	7691.08
276.775	6872.19
277.233	6805.28
277.692	6446.35
278.15	7399.94
278.609	7710.45
279.067	7207.01
279.525	6771.3
279.984	8765.57
280.442	10625.04
280.9	10684.38
281.358	7082.99
281.816	6659.41
282.274	6579.17
282.732	6782.13
283.19	6841.62
283.648	5937.82
284.106	6336.73
284.564	6473.76
285.021	6081.63
285.479	4560.52
285.937	4144.44
286.394	3697.49
286.852	3841.59
287.309	4047.48
287.767	3985.8
288.224	3824.91
288.682	4217.27
289.139	4668.49
289.596	4284.03
290.053	4463.43
290.511	5629.41
290.968	6850.23
291.425	9200.28
291.882	7707.8
292.339	6693.83
292.796	6573.82
293.252	6160.66
293.709	4914.64
294.166	4397.36
294.623	4833.28
295.079	4589.19
295.536	4619.67
295.992	4191.09
296.449	4150.45
296.905	4298.94
297.362	4139.51
297.818	4343.91
298.274	4534.05
298.731	4600.44
299.187	4545.89
299.643	4865.29
300.099	5924.41
300.555	6516.08
301.011	5440.88
301.467	5321.32
301.923	6178.99
302.379	6054.38
302.835	5981.65
303.291	6012.64
303.746	6863.27
304.202	8713.11
304.658	8815.21
305.113	5960.72
305.569	5845.63
306.024	6244.63
306.479	5922.71
306.935	5062.83
307.39	5531.1
307.845	5138.53
308.301	5205.38
308.756	5098.99
309.211	4945.83
309.666	5111.68
310.121	6432.62
310.576	6583.57
311.031	6567.99
311.486	7523.45
311.94	7528.26
312.395	10170.25
312.85	19237.06
313.305	94247.7
313.759	495705.3
314.214	36133.06
314.668	28822.06
315.123	24287.59
315.577	8801.59
316.032	7897.95
316.486	9917.45
316.94	7867.14
317.394	5527.4
317.849	4289.45
318.303	4044.26
318.757	3808.53
319.211	4215.51
319.665	3678.66
320.119	3714.39
320.572	5281.86
321.026	4944.26
321.48	4117.05
321.934	4460.22
322.387	4429.65
322.841	4791.13
323.295	4380.38
323.748	5003.93
324.202	5088.27
324.655	6164.99
325.108	8720.46
325.562	6180.81
326.015	7339.76
326.468	5586.12
326.921	6289.58
327.374	5918.89
327.827	6228.95
328.28	7058.78
328.733	4775.05
329.186	4221.58
329.639	4029.92
330.092	3388.07
330.545	3251.54
330.997	3303.12
331.45	3673.79
331.903	4358.34
332.355	7493.57
332.808	7310.43
333.26	6060.54
333.713	6669.23
334.165	6735.82
334.617	9006.78
335.069	7272.86
335.522	13230.89
335.974	14723.95
336.426	13363.54
336.878	9220.95
337.33	4733.22
337.782	4629.35
338.234	5862.77
338.686	6962.7
339.137	8298.39
339.589	7852.82
340.041	6177.02
340.493	5306.58
340.944	5446.37
341.396	5901.63
341.847	5007.58
342.299	5944.67
342.75	7306.41
343.201	6317.42
343.653	7266.26
344.104	8884.67
344.555	6975.52
345.006	10829.08
345.457	8380.33
345.908	6612.14
346.359	6232.7
346.81	5056.84
347.261	5277.07
347.712	5183.2
348.163	5573.39
348.613	5698.87
349.064	5323.61
349.515	4667.29
349.965	4815.22
350.416	5761.51
350.866	6327.04
351.317	7138.24
351.767	11916.65
352.217	15095.11
352.668	12552.03
353.118	11554.02
353.568	11053.55
354.018	8805.24
354.468	9339.37
354.918	6737.05
355.368	5924.06
355.818	8429.95
356.268	24203
356.718	101154.15
357.168	25426.82
357.617	12788.05
358.067	14205.86
358.517	13418.34
358.966	15886.01
359.416	17972.9
359.865	19404.91
360.315	23122.73
360.764	10847.87
361.213	6127.59
361.663	5818.69
362.112	7160.41
362.561	11574.46
363.01	8767.47
363.459	7376.76
363.908	7936.19
364.357	6782.62
364.806	11466.56
365.255	7900.46
365.703	7289.45
366.152	7327.87
366.601	5961.94
367.05	4901.32
367.498	4490.15
367.947	4702.69
368.395	4912.39
368.844	4393.06
369.292	5256.33
369.74	3659.97
370.189	5629.16
370.637	6617.94
371.085	5719.63
371.533	6979.69
371.981	6711.01
372.429	6434.37
372.877	6724.8
373.325	5643.13
373.773	5772.89
374.221	5150.94
374.669	6401.29
375.116	5541.21
375.564	5581.23
376.012	6246.57
376.459	5162.53
376.907	6165.68
377.354	7452.43
377.801	6987.26
378.249	8090.9
378.696	10355.83
379.143	12569.31
379.591	13438.31
380.038	22852.71
380.485	16734.74
380.932	18226.96
381.379	16944.42
381.826	12668.74
382.273	9066.86
382.72	7971.29
383.166	7845.81
383.613	5141.43
384.06	4700.24
384.506	5532.1
384.953	4116.42
385.4	4185
385.846	3742.56
386.292	3693.3
386.739	3715.54
387.185	3779.78
387.631	3925
388.078	3976.55
388.524	4418.8
388.97	4247.01
389.416	3657.69
389.862	3993.75
390.308	3897.55
390.754	4094.73
391.2	4675.34
391.645	5065.9
392.091	5202.8
392.537	5359.15
392.983	5655.71
393.428	5857.32
393.874	6651.82
394.319	7229.49
394.765	7621.44
395.21	8819.2
395.655	9355.21
396.101	9869.57
396.546	10000.52
396.991	11338.16
397.436	11838.63
397.881	12903.06
398.326	13854.51
398.771	14727.32
399.216	14426.57
399.661	14415.17
400.106	15759.71
400.551	17612.67
400.995	17140.71
401.44	18274.25
401.885	18378.63
402.329	19774.42
402.774	20072.86
403.218	20430.95
403.663	20822.83
404.107	22563.96
404.551	23989.45
404.995	23307.41
405.44	23812.19
405.884	25551.26
406.328	26021.02
406.772	27147.06
407.216	25842.38
407.66	26219.13
408.104	26309.51
408.547	25810.21
408.991	26035.83
409.435	26002.92
409.879	26383.25
410.322	26746.75
410.766	26501.26
411.209	25902.25
411.653	25651.36
412.096	25832.79
412.54	26556.45
412.983	26954.45
413.426	27496.29
413.869	28051.8
414.312	28002.57
414.756	27581.35
415.199	26849.43
415.642	26523.07
416.085	26987.95
416.527	27207.88
416.97	28055.41
417.413	26861.71
417.856	26832.38
418.298	26726.12
418.741	26659.05
419.184	26714.98
419.626	27972.27
420.069	28020.7
420.511	28263.89
420.953	27730.61
421.396	27621.97
421.838	27118.61
422.28	27906.33
422.722	28243.79
423.164	29063.42
423.606	28942.22
424.048	29317.72
424.49	28089.48
424.932	28293.93
425.374	28216.91
425.816	28954.99
426.258	29494.68
426.699	29573.05
427.141	28683.28
427.582	28826.84
428.024	28477.22
428.465	28376.04
428.907	27834.66
429.348	27811.5
429.789	28002.27
430.231	27544.68
430.672	28072.9
431.113	27744.13
431.554	27887.36
431.995	28081.82
432.436	27699.97
432.877	27654.09
433.318	27508.8
433.759	27766.01
434.2	28024.26
434.64	28022.15
435.081	28392.95
435.522	27274.18
435.962	26663.19
436.403	26433.92
436.843	27181.15
437.284	26989.85
437.724	26605.1
438.164	27038.11
438.604	26644.3
439.045	25728.11
439.485	24731.9
439.925	24423.71
440.365	23997.06
440.805	23835.62
441.245	23530.43
441.685	22700.45
442.125	22585.55
442.564	22737.14
443.004	22151.85
443.444	22107.02
443.883	22151.36
444.323	22148.57
444.762	22370.56
445.202	22727.07
445.641	23082.19
446.081	23131.77
446.52	23262.32
446.959	23021.97
447.398	22456.57
447.837	22230.01
448.276	21861.52
448.716	22063.49
449.154	22257.22
449.593	21576.4
450.032	21373.54
450.471	20949.69
450.91	20832.17
451.349	20602.3
451.787	20403.24
452.226	20538.13
452.664	20371.79
453.103	20223.47
453.541	20017.78
453.98	19644.98
454.418	19548.42
454.856	18964.97
455.295	18733.52
455.733	18605.06
456.171	18526.8
456.609	18315.2
457.047	18061.25
457.485	18087.5
457.923	17934.66
458.361	17587.83
458.798	17603.66
459.236	17501.32
459.674	17666.47
460.111	17697.86
460.549	17552.3
460.987	17555.43
461.424	17534.66
461.862	17526.83
462.299	17309.42
462.736	17284.69
463.173	17403.22
463.611	17168.77
464.048	17168.68
464.485	17342.73
464.922	17272
465.359	17283.56
465.796	16833.01
466.233	16798.37
466.67	16664.96
467.106	16677.71
467.543	16655.16
467.98	16530.78
468.416	16274.35
468.853	16254.24
469.29	15843.44
469.726	15729.92
470.162	15350.81
470.599	15404.01
471.035	15301.21
471.471	14971.06
471.907	14949.48
472.344	14850.83
472.78	14817.27
473.216	14951.4
473.652	14681.03
474.088	14571.55
474.523	14378.04
474.959	14399.27
475.395	14144.15
475.831	13899.97
476.266	13839.01
476.702	13656.53
477.138	13334.81
477.573	13137.26
478.008	12905.27
478.444	12753.39
478.879	12644.09
479.314	12523.9
479.75	12329.87
480.185	12225.23
480.62	12159.31
481.055	12048.4
481.49	11931.64
481.925	11909.39
482.36	11863.91
482.795	12004.95
483.229	12158.66
483.664	12220.13
484.099	12079.21
484.534	12060.14
484.968	11990.48
485.403	11860.31
485.837	11707.1
486.271	11538.93
486.706	11408.87
487.14	11205.01
487.574	10909.16
488.009	10701.71
488.443	10510.89
488.877	10492.15
489.311	10433.32
489.745	10445.1
490.179	10434.33
490.613	10479.66
491.046	10478.43
491.48	10468.99
491.914	10384.26
492.348	10376.04
492.781	10351.72
493.215	10308.27
493.648	10279.72
494.082	10288.31
494.515	10223.94
494.948	10252.64
495.382	10275.62
495.815	10255.48
496.248	10249.25
496.681	10354.53
497.114	10440.5
497.547	10485.25
497.98	10548.31
498.413	10505.87
498.846	10526.05
499.279	10541.47
499.711	10507.09
500.144	10434.54
500.577	10451.3
501.009	10488.57
501.442	10485.65
501.874	10370.75
502.306	10302.21
502.739	10252.54
503.171	10347.59
503.603	10274.71
504.036	10270.82
504.468	10215
504.9	10225.53
505.332	10185.95
505.764	10105.46
506.196	10065.45
506.627	10099.58
507.059	10106.92
507.491	10104.95
507.923	9923.41
508.354	9936.99
508.786	9906.74
509.217	9941.57
509.649	9945.5
510.08	9991.28
510.512	9999.99
510.943	9999.41
511.374	9964.27
511.805	10003.8
512.237	10038.91
512.668	10200.62
513.099	10300.76
513.53	10381.33
513.961	10393.47
514.391	10496.93
514.822	10582.64
515.253	10707.24
515.684	10737.67
516.114	10798.7
516.545	10782.8
516.975	10803.71
517.406	10757.38
517.836	10607.07
518.267	10490.52
518.697	10458.11
519.127	10333.17
519.558	10241.84
519.988	10122.79
520.418	10056.57
520.848	10037.55
521.278	9965.31
521.708	9684.48
522.138	9650.06
522.567	9730.78
522.997	9769.8
523.427	9753.79
523.857	9740.73
524.286	9699.6
524.716	9688.27
525.145	9696.63
525.575	9670.25
526.004	9673.71
526.433	9788.09
526.863	9714.36
527.292	9576.9
527.721	9542.35
528.15	9523.17
528.579	9475
529.008	9486.78
529.437	9566.94
529.866	9594.6
530.295	9638.71
530.724	9647.19
531.152	9741.36
531.581	9763.09
532.01	9817.13
532.438	9822.49
532.867	9862.14
533.295	9923.31
533.723	9919.9
534.152	9873.71
534.58	9840.62
535.008	9729.49
535.436	9713.56
535.865	9733
536.293	9791.51
536.721	9854.5
537.149	9962.24
537.576	9954.27
538.004	10009.72
538.432	10044.41
538.86	10027.15
539.287	10062.41
539.715	10130.16
540.143	10155.2
540.57	10145.66
540.998	10141.34
541.425	10018.95
541.852	9934.55
542.28	9946.84
542.707	9886.22
543.134	9829.7
543.561	9826.28
543.988	9806.27
544.415	9830.14
544.842	9823.89
545.269	9801.79
545.696	9826.36
546.123	9932.28
546.549	9894.98
546.976	9842.11
547.403	9853.5
547.829	9887.77
548.256	9925.38
548.682	9924.17
549.108	9899.1
549.535	9918.6
549.961	9948.97
550.387	9894.98
550.813	9873.7
551.24	9925.99
551.666	9950.01
552.092	9912.91
552.518	9896
552.943	9870.38
553.369	9933.34
553.795	9982.48
554.221	9994.88
554.646	9991.26
555.072	10046.19
555.498	10087.77
555.923	10146.6
556.349	10233.8
556.774	10289.27
557.199	10299.75
557.625	10353.88
558.05	10320.68
558.475	10384.71
558.9	10383.52
559.325	10340.02
559.75	10319.77
560.175	10292.79
560.6	10268.84
561.025	10265.12
561.449	10278.27
561.874	10310.57
562.299	10323.25
562.723	10368.71
563.148	10305.59
563.572	10325.83
563.997	10381.26
564.421	10409.67
564.846	10405.78
565.27	10409.1
565.694	10387.37
566.118	10430.98
566.542	10453.49
566.966	10403.14
567.39	10353.52
567.814	10277.36
568.238	10266.07
568.662	10287.86
569.086	10297.65
569.509	10349.02
569.933	10270.66
570.357	10255.25
570.78	10168.91
571.204	10125.15
571.627	10111.65
572.05	10158.17
572.474	10213.36
572.897	10213.15
573.32	10236.95
573.743	10264.62
574.166	10227.19
574.589	10318.89
575.012	10353.95
575.435	10441.77
575.858	10480.69
576.281	10509.77
576.704	10510.34
577.126	10537.18
577.549	10557.72
577.972	10598.82
578.394	10621.66
578.817	10653.15
579.239	10624.88
579.661	10624.58
580.084	10590.84
580.506	10594.55
580.928	10656.99
581.35	10669.31
581.772	10718.02
582.194	10705.06
582.616	10686.85
583.038	10670.57
583.46	10685.84
583.882	10728.4
584.303	10833.19
584.725	10886.86
585.147	10919.45
585.568	11041.1
585.99	11161.86
586.411	11247.16
586.833	11391.2
587.254	11441.08
587.675	11585.12
588.096	11718.77
588.518	11719.17
588.939	11628.61
589.36	11643.29
589.781	11650.12
590.202	11442.11
590.623	11419.39
591.043	11436.2
591.464	11363.97
591.885	11350.14
592.305	11320.67
592.726	11221.49
593.147	11222.04
593.567	11173.31
593.987	11100.38
594.408	11040.88
594.828	11033.11
595.248	10945.3
595.669	10756.5
596.089	10661.59
596.509	10576.12
596.929	10417.64
597.349	10368.36
597.769	10242.19
598.189	10134.1
598.608	10088.44
599.028	10042.96
599.448	9989.45
599.867	9855
600.287	9794.15
600.706	9716.4
601.126	9602.93
601.545	9556.85
601.965	9522.19
602.384	9466.22
602.803	9473.66
603.222	9423.71
603.641	9375.15
604.061	9344.34
604.48	9326.32
604.898	9393.15
605.317	9450.88
605.736	9490.24
606.155	9495.12
606.574	9460.9
606.992	9533.83
607.411	9534.08
607.829	9528.53
608.248	9556.47
608.666	9593.01
609.085	9634.48
609.503	9618.56
609.921	9621.88
610.339	9687.76
610.758	9742.83
611.176	9765.66
611.594	9750.15
612.012	9783.51
612.43	9851.16
612.847	9950.91
613.265	9996.87
613.683	10085.7
614.101	10152.44
614.518	10187.34
614.936	10167.43
615.353	10106.3
615.771	10131.9
616.188	10188.05
616.606	10212.51
617.023	10213.33
617.44	10149.45
617.857	10158.23
618.274	10142.42
618.691	10132.45
619.108	10101.1
619.525	10094.04
619.942	10179.68
620.359	10232.68
620.776	10221.9
621.192	10207.88
621.609	10212.45
622.026	10281.98
622.442	10348.78
622.859	10394.02
623.275	10357.46
623.691	10416.16
624.108	10525.7
624.524	10663.71
624.94	10679.29
625.356	10775.64
625.772	10907.82
626.188	11024.84
626.604	11053.74
627.02	11034.08
627.436	11025.21
627.852	11087.37
628.268	11195.03
628.683	11140.32
629.099	11088.56
629.514	11076.43
629.93	11132.6
630.345	11198.18
630.761	11196.14
631.176	11259.15
631.591	11224.86
632.007	11210.26
632.422	11250.79
632.837	11206.5
633.252	11220.39
633.667	11184.22
634.082	11154.29
634.497	11096.26
634.911	10969.21
635.326	10999.7
635.741	10915.98
636.155	10913.89
636.57	10991.86
636.984	11066.62
637.399	11149.57
637.813	11244.74
638.228	11321.37
638.642	11464.82
639.056	11471.92
639.47	11592.25
639.884	11620.35
640.298	11671.16
640.712	11766.87
641.126	11766.07
641.54	11805.9
641.954	11901.07
642.368	11891.94
642.781	11905.85
643.195	11842.26
643.609	11965.41
644.022	12023.46
644.436	12098.39
644.849	12095.54
645.262	12089.29
645.676	12231.64
646.089	12279.55
646.502	12193.53
646.915	12240.83
647.328	12177.33
647.741	12245.66
648.154	12187.82
648.567	12202.18
648.98	12119.72
649.393	12198.62
649.805	12230.57
650.218	12215.35
650.631	12079.98
651.043	12076.72
651.456	12057.18
651.868	12121.93
652.28	12386.97
652.693	12590.23
653.105	12710.14
653.517	12843.31
653.929	12854.17
654.341	12946.44
654.753	12817.47
655.165	12959.83
655.577	12997.1
655.989	13029.83
656.401	13030.87
656.813	12644.57
657.224	12506.79
657.636	12302.46
658.047	12208.62
658.459	12106.37
658.87	12151.67
659.282	12148.65
659.693	11982.66
660.104	11900.39
660.515	11831.77
660.926	11926.45
661.338	12026.34
661.749	12066.68
662.159	12031.53
662.57	12106.36
662.981	12155.83
663.392	12148.42
663.803	12310.3
664.213	12398.18
664.624	12450.89
665.035	12607.8
665.445	12497.7
665.855	12459.81
666.266	12397.53
666.676	12446.39
667.086	12373.91
667.497	12413.35
667.907	12373.9
668.317	12281.37
668.727	12208.68
669.137	12267.94
669.547	12256.64
669.956	12333.49
670.366	12390.93
670.776	12437.15
671.186	12522.39
671.595	12575.82
672.005	12656.62
672.414	12629.42
672.824	12582.78
673.233	12710.96
673.642	12730.82
674.052	12751.39
674.461	12744.71
674.87	12810.2
675.279	12730.73
675.688	12751.29
676.097	12728.2
676.506	12640.62
676.915	12861.97
677.323	12884.85
677.732	12828.24
678.141	12793.2
678.549	12603.68
678.958	12571.96
679.366	12528.83
679.775	12590.17
680.183	12642.65
680.592	12687.28
681	12705.28
681.408	12507.35
681.816	12536.49
682.224	12576.78
682.632	12572.82
683.04	12873.39
683.448	13052.66
683.856	13250.4
684.264	13467.25
684.671	13650.75
