Data from N_3_DIV_IL_4N_Splice17_13-20-39-674.txt Node
Date: Sat Mar 14 13:20:39 EDT 2020
User: sa697716
Spectrometer: FLMS03696
Trigger mode: 0
Integration Time (sec): 3.180400E-1
Scans to average: 20
Electric dark correction enabled: true
Nonlinearity correction enabled: true
Boxcar width: 5
XAxis mode: Wavelengths
Number of Pixels in Spectrum: 2048
>>>>>Begin Spectral Data<<<<<
187.83	-339663.26
188.298	2388.91
188.766	1248.62
189.233	1161.25
189.701	1647.46
190.169	2266.27
190.636	923.84
191.104	710.31
191.571	111.57
192.039	-122
192.506	-89.94
192.974	447.41
193.441	-928.23
193.908	-246.33
194.375	-73.2
194.842	-33.71
195.31	43.04
195.777	194.36
196.244	400.96
196.711	442.27
197.177	525.23
197.644	739.5
198.111	1265.11
198.578	1817.8
199.045	1426.49
199.511	2382.98
199.978	2785.41
200.445	2343.61
200.911	2602.93
201.378	2881.19
201.844	2609.22
202.31	4482.06
202.777	4723.41
203.243	2597.69
203.709	2446.59
204.176	2907.49
204.642	2367.93
205.108	2230.5
205.574	1820.48
206.04	1625.74
206.506	1524.06
206.972	1451.2
207.438	1399.35
207.903	1573.05
208.369	1401.18
208.835	1396.37
209.301	1466.64
209.766	1500.1
210.232	1481.36
210.697	1842.21
211.163	2266.8
211.628	3385.25
212.094	2819.52
212.559	3457.12
213.024	2152.88
213.49	2621.24
213.955	2567.24
214.42	2472.3
214.885	2284.22
215.35	2171.85
215.815	2095.77
216.28	2218.4
216.745	1799.36
217.21	1940.61
217.675	1739.16
218.14	1921.85
218.604	2083.75
219.069	2330.72
219.534	2435.79
219.998	2780.13
220.463	3293.27
220.927	3947.9
221.392	3669.16
221.856	3673.35
222.32	4537.77
222.785	5568.08
223.249	6923.15
223.713	7688.23
224.177	7630.23
224.642	9695.48
225.106	11885.57
225.57	12957.4
226.034	9659.47
226.497	14707.51
226.961	13315.87
227.425	15522.59
227.889	17203.67
228.353	17240.56
228.816	35596.53
229.28	34076.68
229.744	28756.67
230.207	17496.13
230.671	17231.07
231.134	28418.7
231.597	32748.52
232.061	32714.65
232.524	31854.19
232.987	21962.16
233.45	19798.92
233.914	17746.18
234.377	18186.01
234.84	16621.97
235.303	19612.75
235.766	21855.79
236.229	22589.69
236.691	14215.52
237.154	15956.65
237.617	12022.6
238.08	12326.68
238.542	14436.19
239.005	10331.54
239.468	10278.01
239.93	9711.2
240.393	8835.39
240.855	7790.63
241.317	7988.63
241.78	9734.13
242.242	10087.38
242.704	10927.26
243.166	9510.87
243.629	8652.91
244.091	9986.63
244.553	10943.78
245.015	11794.3
245.477	15246.21
245.939	22320.85
246.4	23747.76
246.862	23099.46
247.324	21801.5
247.786	24433.01
248.247	32084.42
248.709	33105.01
249.17	24819.14
249.632	23486.85
250.093	27271.54
250.555	23589.18
251.016	14434.38
251.477	13695.08
251.939	14810.73
252.4	15543.46
252.861	18435.56
253.322	17158.22
253.783	20426.92
254.244	26487.15
254.705	20850.41
255.166	18547.88
255.627	18297
256.088	25802.92
256.549	27434.06
257.009	23614.16
257.47	28653.59
257.931	23371.92
258.391	17535.36
258.852	18076.02
259.312	18953.53
259.773	23411.52
260.233	19784.53
260.694	16698.13
261.154	18948.57
261.614	15215.56
262.074	13608.79
262.534	14152.49
262.994	13342.71
263.455	17746.08
263.915	14945.51
264.374	14072.99
264.834	15348.08
265.294	16978.92
265.754	17567.46
266.214	16596.29
266.673	15541.88
267.133	19570.79
267.593	19342.74
268.052	23637.98
268.512	20525.87
268.971	24792.68
269.431	27168.14
269.89	24306.27
270.349	36406.78
270.809	40568.12
271.268	36482.35
271.727	81643.07
272.186	52810.43
272.645	39675.27
273.104	28566.83
273.563	41349.16
274.022	32420.32
274.481	27579.05
274.94	21236.12
275.399	15779.8
275.857	18361.65
276.316	24802.41
276.775	22090.77
277.233	21784.36
277.692	20399.16
278.15	23089.57
278.609	23804.23
279.067	22025.44
279.525	20465.68
279.984	26399.98
280.442	31712.92
280.9	31318.48
281.358	20624.2
281.816	19217.72
282.274	18818.8
282.732	19419.45
283.19	19540.92
283.648	16843.62
284.106	17960.49
284.564	18255.64
285.021	16975.23
285.479	12659.64
285.937	11497.45
286.394	10111.14
286.852	10423.47
287.309	10970.76
287.767	10633.47
288.224	10132.22
288.682	11135.83
289.139	12252.11
289.596	11238.44
290.053	11697.3
290.511	14768.67
290.968	17940.88
291.425	24325.23
291.882	20292.02
292.339	17657.55
292.796	17477.35
293.252	16464.21
293.709	13099.99
294.166	11750.32
294.623	12969.11
295.079	12446.23
295.536	12541.38
295.992	11382.63
296.449	11273.81
296.905	11707.67
297.362	11248.8
297.818	11854.36
298.274	12321.69
298.731	12548.97
299.187	12411.23
299.643	13362.49
300.099	16171.44
300.555	17747.19
301.011	14854.45
301.467	14325.66
301.923	16718.1
302.379	16340.85
302.835	16058.73
303.291	16072.38
303.746	18311.12
304.202	23183.33
304.658	23269.48
305.113	15659.99
305.569	15348.19
306.024	16326.32
306.479	15532.36
306.935	13158.38
307.39	14375.44
307.845	13321.67
308.301	13441.77
308.756	13129.92
309.211	12658.52
309.666	12970.18
310.121	16150.18
310.576	16372.48
311.031	16305.9
311.486	18726.63
311.94	18706.19
312.395	25025.08
312.85	46966.87
313.305	230376.44
313.759	1196099.48
314.214	86835.33
314.668	68900.96
315.123	58069.58
315.577	20902.01
316.032	18618.26
316.486	23318.33
316.94	18436.56
317.394	12885.4
317.849	10030.02
318.303	9509.65
318.757	8982.1
319.211	9925.89
319.665	8727.27
320.119	8832.54
320.572	12680.45
321.026	11864.96
321.48	9889.89
321.934	10771.86
322.387	10784.33
322.841	11661.37
323.295	10544.12
323.748	12119.93
324.202	12336.58
324.655	14819.6
325.108	20773.34
325.562	14705.55
326.015	17460.52
326.468	13225.34
326.921	14828.44
327.374	13886.14
327.827	14527.74
328.28	16444.78
328.733	11032.81
329.186	9704.51
329.639	9233.9
330.092	7776.88
330.545	7400.89
330.997	7493.73
331.45	8196.31
331.903	9624.01
332.355	16531.42
332.808	16029.87
333.26	13221.79
333.713	14427.14
334.165	14552.26
334.617	19467.53
335.069	15681.52
335.522	28371.49
335.974	31437.43
336.426	28722.99
336.878	19891.49
337.33	10105.33
337.782	9875.22
338.234	12394.05
338.686	14776.82
339.137	17508.66
339.589	16508.01
340.041	13010.93
340.493	11178.85
340.944	11458.93
341.396	12371.83
341.847	10428.89
342.299	12347.18
342.75	15125.34
343.201	13189.73
343.653	15170.37
344.104	18627.32
344.555	14656.88
345.006	22710.61
345.457	17452.91
345.908	13873.2
346.359	13061.08
346.81	10638.69
347.261	11166.21
347.712	10972.4
348.163	11754.24
348.613	11946.73
349.064	11198.05
349.515	9806.97
349.965	10097.92
350.416	12137.6
350.866	13275.55
351.317	15006.93
351.767	24869.17
352.217	31441.91
352.668	26087.59
353.118	23966.5
353.568	23021.87
354.018	18171.61
354.468	19164.57
354.918	13754.41
355.368	12053.63
355.818	17083.8
356.268	49102.57
356.718	205491.52
357.168	51188.23
357.617	25661.46
358.067	28456.07
358.517	26711.64
358.966	31316.71
359.416	35278.01
359.865	38123.41
360.315	45388.1
360.764	21160.3
361.213	11857.97
361.663	11210.11
362.112	13828.64
362.561	22438.02
363.01	16971.31
363.459	14284.13
363.908	15451.96
364.357	13116.66
364.806	22088.63
365.255	15190.72
365.703	13958.61
366.152	14012.68
366.601	11379.29
367.05	9249.05
367.498	8371.74
367.947	8730.78
368.395	9056.64
368.844	8049.41
369.292	9663.58
369.74	6682.52
370.189	10198.3
370.637	11898.9
371.085	10236.49
371.533	12456.5
371.981	11972.87
372.429	11446.36
372.877	11917.72
373.325	9992.83
373.773	10128.92
374.221	9023.38
374.669	11205.25
375.116	9676.46
375.564	9753.11
376.012	10879.59
376.459	8973.44
376.907	10717.69
377.354	12944.96
377.801	12087.23
378.249	13891.4
378.696	17709.87
379.143	21450.18
379.591	22718.18
380.038	38585.84
380.485	27970.37
380.932	30268.45
381.379	27731.21
381.826	20408.13
382.273	14473.87
382.72	12604.22
383.166	12262.95
383.613	7961.39
384.06	7148.7
384.506	8297.42
384.953	6059.26
385.4	6071.72
385.846	5294.65
386.292	5117.63
386.739	4999.59
387.185	4928.93
387.631	4922.83
388.078	4780.64
388.524	5099.21
388.97	4700.8
389.416	3913.82
389.862	4160.31
390.308	3935.05
390.754	3992.31
391.2	4322.85
391.645	4407.04
392.091	4225.19
392.537	4078.58
392.983	4056.03
393.428	4003.82
393.874	4281.09
394.319	4297.19
394.765	4085.77
395.21	4193.99
395.655	3931.42
396.101	3686.23
396.546	3326.4
396.991	3343.89
397.436	3102.34
397.881	3000.97
398.326	2823.19
398.771	2674.54
399.216	2330.99
399.661	2093.88
400.106	2091.13
400.551	2145.52
400.995	1926.95
401.44	1911.98
401.885	1798.79
402.329	1818.51
402.774	1745.07
403.218	1704.67
403.663	1644.79
404.107	1698.27
404.551	1712.29
404.995	1571.52
405.44	1512.03
405.884	1535.55
406.328	1481.29
406.772	1477.71
407.216	1349.01
407.66	1308.16
408.104	1234.49
408.547	1157.38
408.991	1120.53
409.435	1080.28
409.879	1067.75
410.322	1057.06
410.766	1024.58
411.209	982.19
411.653	944.73
412.096	930.69
412.54	930.86
412.983	929.72
413.426	936.23
413.869	934.69
414.312	922.83
414.756	890.65
415.199	851.51
415.642	830.74
416.085	833.7
416.527	830.21
416.97	842.32
417.413	803.73
417.856	794.65
418.298	789.15
418.741	785.8
419.184	782.37
419.626	814.09
420.069	815.23
420.511	821.45
420.953	804.67
421.396	797.55
421.838	779.28
422.28	799.74
422.722	808.41
423.164	817.41
423.606	807.17
424.048	805.83
424.49	770.2
424.932	766.78
425.374	756.4
425.816	769.55
426.258	785.01
426.699	794.11
427.141	783.79
427.582	792.98
428.024	790.69
428.465	783.21
428.907	762.8
429.348	750.13
429.789	751.06
430.231	736.39
430.672	745.78
431.113	730.35
431.554	719.09
431.995	698.17
432.436	678.31
432.877	663.99
433.318	656.33
433.759	654.7
434.2	655.49
434.64	648.34
435.081	650.46
435.522	618.64
435.962	593.63
436.403	582.42
436.843	589.29
437.284	573.5
437.724	556.77
438.164	554.47
438.604	542.34
439.045	524.66
439.485	504.87
439.925	490.7
440.365	477.76
440.805	472.39
441.245	468.23
441.685	452.49
442.125	448.1
442.564	450.64
443.004	443
443.444	442.82
443.883	441.91
444.323	436.65
444.762	438.27
445.202	444.6
445.641	455.11
446.081	450.88
446.52	454.99
446.959	454.13
447.398	447.51
447.837	443.77
448.276	436.88
448.716	441.9
449.154	447.18
449.593	438.62
450.032	437.02
450.471	428.04
450.91	428.6
451.349	428.84
451.787	424.83
452.226	429.87
452.664	428.35
453.103	428.98
453.541	429.27
453.98	430.08
454.418	432.38
454.856	427.88
455.295	426.95
455.733	429.52
456.171	431.61
456.609	432.52
457.047	432.11
457.485	439.69
457.923	441.06
458.361	434.22
458.798	434.46
459.236	433.16
459.674	433.9
460.111	434.29
460.549	431.98
460.987	429.19
461.424	427.9
461.862	425.77
462.299	419.25
462.736	418.55
463.173	420.08
463.611	417.81
464.048	417.7
464.485	421.77
464.922	418.81
465.359	416.06
465.796	416.87
466.233	414.74
466.67	412.2
467.106	411.93
467.543	407.86
467.98	402.97
468.416	390.89
468.853	386.48
469.29	375.17
469.726	371.1
470.162	360.13
470.599	350.73
471.035	346.19
471.471	337.4
471.907	334.66
472.344	332.17
472.78	333.09
473.216	337.1
473.652	334.64
474.088	333.67
474.523	334.23
474.959	338.98
475.395	336.12
475.831	335.78
476.266	337.65
476.702	336.92
477.138	333.98
477.573	333.68
478.008	333.37
478.444	335.57
478.879	340.42
479.314	342.08
479.75	341.87
480.185	343.9
480.62	346.92
481.055	349.25
481.49	352
481.925	358.24
482.36	366.39
482.795	376.32
483.229	386.29
483.664	393.73
484.099	395.2
484.534	401.37
484.968	406.79
485.403	408.1
485.837	407.38
486.271	407.05
486.706	407.08
487.14	400.97
487.574	395.14
488.009	392.25
488.443	389.68
488.877	394.65
489.311	396.88
489.745	402.18
490.179	407.18
490.613	416.97
491.046	421.09
491.48	425.94
491.914	428.65
492.348	434.53
492.781	439.39
493.215	441.78
493.648	444.51
494.082	450.01
494.515	452
494.948	460.02
495.382	464.72
495.815	471.06
496.248	477.33
496.681	488.81
497.114	498.49
497.547	508.52
497.98	521.7
498.413	530.51
498.846	541.35
499.279	551.35
499.711	557.42
500.144	563.92
500.577	575.81
501.009	587.88
501.442	599.64
501.874	605.87
502.306	611.67
502.739	623.34
503.171	639.01
503.603	646.83
504.036	659.24
504.468	668.95
504.9	682.15
505.332	692.33
505.764	701.15
506.196	711.92
506.627	728.28
507.059	744.06
507.491	754.79
507.923	758.34
508.354	774.93
508.786	788.86
509.217	809.02
509.649	826.92
510.08	847.3
510.512	866.42
510.943	883.66
511.374	898.16
511.805	919.5
512.237	940.26
512.668	970.89
513.099	998.12
513.53	1025.18
513.961	1046.98
514.391	1077.97
514.822	1111.44
515.253	1146.3
515.684	1173.01
516.114	1203.55
516.545	1226.54
516.975	1253.5
517.406	1273.62
517.836	1280.24
518.267	1290.8
518.697	1311.35
519.127	1319.38
519.558	1328.3
519.988	1334.45
520.418	1346.55
520.848	1365.16
521.278	1375.37
521.708	1405.26
522.138	1420.05
522.567	1451.26
522.997	1476.27
523.427	1490.08
523.857	1507.68
524.286	1519.96
524.716	1535.51
525.145	1554.63
525.575	1565.96
526.004	1581.5
526.433	1565.89
526.863	1567.04
527.292	1559.68
527.721	1566.57
528.15	1575.02
528.579	1577.27
529.008	1588.42
529.437	1611.61
529.866	1625.2
530.295	1641.98
530.724	1655.01
531.152	1680.99
531.581	1695.85
532.01	1712.54
532.438	1721.54
532.867	1736.13
533.295	1753.22
533.723	1759.9
534.152	1756.54
534.58	1756.68
535.008	1741.84
535.436	1743.64
535.865	1751.38
536.293	1764.91
536.721	1779.62
537.149	1801.71
537.576	1803.81
538.004	1815.55
538.432	1822.68
538.86	1822.31
539.287	1827.77
539.715	1840.49
540.143	1842.65
540.57	1837.88
540.998	1834.2
541.425	1812.36
541.852	1793.47
542.28	1791.62
542.707	1775.92
543.134	1761.99
543.561	1758.27
543.988	1752.37
544.415	1753.44
544.842	1748.55
545.269	1744
545.696	1747.19
546.123	1760.39
546.549	1750.24
546.976	1739.4
547.403	1740.31
547.829	1743.28
548.256	1746.9
548.682	1745.17
549.108	1737.46
549.535	1738.14
549.961	1740.58
550.387	1727.48
550.813	1722.4
551.24	1728.51
551.666	1729.9
552.092	1721.41
552.518	1715.35
552.943	1710.23
553.369	1716.77
553.795	1723.68
554.221	1724.53
554.646	1722.23
555.072	1733.02
555.498	1738.62
555.923	1748.83
556.349	1764.42
556.774	1772.95
557.199	1774.88
557.625	1780.52
558.05	1776.49
558.475	1786.91
558.9	1786.62
559.325	1779.4
559.75	1773.27
560.175	1767.46
560.6	1762.48
561.025	1760.05
561.449	1762.14
561.874	1768.85
562.299	1773.26
562.723	1779.59
563.148	1769.5
563.572	1773.32
563.997	1783.56
564.421	1789.74
564.846	1790.81
565.27	1793.58
565.694	1791.05
566.118	1801.78
566.542	1808.2
566.966	1800.75
567.39	1796.49
567.814	1786.11
568.238	1785.55
568.662	1788.93
569.086	1791.66
569.509	1798.31
569.933	1784.37
570.357	1777.2
570.78	1756.58
571.204	1743.94
571.627	1733.73
572.05	1731.15
572.474	1730.53
572.897	1718.36
573.32	1711.37
573.743	1700.42
574.166	1682.24
574.589	1681.48
575.012	1674.71
575.435	1672.45
575.858	1664.6
576.281	1654.63
576.704	1639.09
577.126	1626.78
577.549	1617.46
577.972	1607.87
578.394	1599.78
578.817	1593.52
579.239	1575.44
579.661	1562.43
580.084	1548.8
580.506	1535.28
580.928	1532.13
581.35	1522.81
581.772	1519.75
582.194	1505.88
582.616	1493.37
583.038	1478.47
583.46	1467.26
583.882	1464.96
584.303	1468.45
584.725	1464.07
585.147	1468.13
585.568	1478.44
585.99	1489.85
586.411	1496.59
586.833	1511.89
587.254	1515.06
587.675	1528.72
588.096	1541.63
588.518	1535.61
588.939	1518.7
589.36	1516.1
589.781	1502.78
590.202	1474.31
590.623	1464.89
591.043	1461.46
591.464	1448.4
591.885	1442.94
592.305	1436.76
592.726	1423.74
593.147	1424.84
593.567	1420.02
593.987	1412.77
594.408	1407.86
594.828	1405.62
595.248	1400.25
595.669	1383.23
596.089	1376.48
596.509	1369.84
596.929	1357.12
597.349	1356.7
597.769	1347.33
598.189	1341.52
598.608	1342.87
599.028	1345
599.448	1345.71
599.867	1332.75
600.287	1328.22
600.706	1323.27
601.126	1314.59
601.545	1312.6
601.965	1311.88
602.384	1305.96
602.803	1307.88
603.222	1302.95
603.641	1296.33
604.061	1291.4
604.48	1287.81
604.898	1294.04
605.317	1298.52
605.736	1299.58
606.155	1297
606.574	1287.93
606.992	1292.95
607.411	1289.17
607.829	1280.67
608.248	1277.57
608.666	1275.76
609.085	1275.49
609.503	1268.13
609.921	1262
610.339	1263.1
610.758	1261.7
611.176	1256.44
611.594	1246.81
612.012	1242.31
612.43	1244.97
612.847	1248.9
613.265	1248.7
613.683	1251.17
614.101	1250.88
614.518	1246.48
614.936	1236.66
615.353	1222.64
615.771	1219.35
616.188	1219.25
616.606	1214.94
617.023	1206.98
617.44	1193.64
617.857	1186.63
618.274	1177.94
618.691	1171.65
619.108	1162.48
619.525	1155.95
619.942	1161.05
620.359	1162.9
620.776	1156.93
621.192	1152.76
621.609	1151.38
622.026	1157.05
622.442	1160.95
622.859	1163.88
623.275	1156.49
623.691	1159.96
624.108	1170.68
624.524	1182.33
624.94	1180.65
625.356	1189.89
625.772	1201.22
626.188	1211.48
626.604	1211.01
627.02	1207.45
627.436	1205.28
627.852	1211.98
628.268	1223.27
628.683	1213.84
629.099	1207.23
629.514	1202.38
629.93	1204.92
630.345	1208.33
630.761	1202.46
631.176	1206.73
631.591	1201.46
632.007	1194.15
632.422	1190.15
632.837	1178.33
633.252	1175.7
633.667	1164.46
634.082	1154.89
634.497	1142.46
634.911	1124.09
635.326	1119.47
635.741	1102.35
636.155	1090.5
636.57	1090.74
636.984	1089.34
637.399	1089.76
637.813	1086.26
638.228	1082.65
638.642	1083.88
639.056	1071.41
639.47	1068.3
639.884	1058.44
640.298	1048.67
640.712	1044.11
641.126	1029.34
641.54	1017.39
641.954	1007.91
642.368	994.09
642.781	983.81
643.195	964.13
643.609	961.23
644.022	951.21
644.436	943.56
644.849	929.68
645.262	916.15
645.676	912.78
646.089	906.35
646.502	891.51
646.915	883.38
647.328	866.2
647.741	863.31
648.154	849.52
648.567	846.32
648.98	834.16
649.393	832.47
649.805	828.98
650.218	822.33
650.631	807.2
651.043	800.55
651.456	794.76
651.868	794.47
652.28	807.4
652.693	816.77
653.105	818.8
653.517	823.87
653.929	822.88
654.341	824.7
654.753	812.36
655.165	816.16
655.577	812.45
655.989	806.67
656.401	798
656.813	766.91
657.224	749.1
657.636	724.35
658.047	709.05
658.459	691.29
658.87	680.64
659.282	668.08
659.693	649.15
660.104	633.57
660.515	619.79
660.926	612.98
661.338	606.07
661.749	596.44
662.159	587.56
662.57	578.5
662.981	570.64
663.392	561.09
663.803	559.95
664.213	554.02
664.624	547.12
665.035	545.33
665.445	532.93
665.855	525.27
666.266	517.84
666.676	510.52
667.086	501.53
667.497	497.99
667.907	491.73
668.317	482.84
668.727	480.44
669.137	478.49
669.547	474.55
669.956	473.91
670.366	472.84
670.776	471.55
671.186	472.75
671.595	473.87
672.005	474.35
672.414	472.27
672.824	471.59
673.233	470.57
673.642	471.34
674.052	473.04
674.461	475.5
674.87	477.59
675.279	476.63
675.688	477.14
676.097	478.71
676.506	477.61
676.915	488.12
677.323	490.06
677.732	490.56
678.141	490.31
678.549	484.17
678.958	483.8
679.366	485.44
679.775	490.53
680.183	501.59
680.592	506.79
681	512.85
681.408	512.11
681.816	521.63
682.224	531.19
682.632	544.13
683.04	570.96
683.448	594.41
683.856	622.29
684.264	654.15
684.671	684.45
685.079	721.83
685.487	763.86
685.894	819.24
686.302	867.8
686.709	913.28
687.116	964.45
687.524	1007.73
687.931	1047.86
688.338	1084.99
688.745	1117.38
689.152	1153.33
689.559	1200.99
689.966	1248.85
690.373	1276.39
690.78	1320.2
691.187	1379.32
691.593	1428.17
692	1471.21
692.407	1531.15
692.813	1603.89
693.22	1661.17
693.626	1720.42
694.032	1767.72
694.439	1837.42
694.845	1892.39
695.251	1961.41
695.657	2022.69
696.063	2114.83
696.469	2181.54
696.875	2244.59
697.281	2277.94
697.687	2322.53
698.093	2358.02
698.498	2425.44
698.904	2476.56
699.31	2556.73
699.715	2612.12
700.12	2694.62
