Data from N_3_DEC_OH_4N_Splice17_13-27-08-504.txt Node
Date: Sat Mar 14 13:27:08 EDT 2020
User: sa697716
Spectrometer: FLMS03696
Trigger mode: 0
Integration Time (sec): 3.180400E-1
Scans to average: 20
Electric dark correction enabled: true
Nonlinearity correction enabled: true
Boxcar width: 5
XAxis mode: Wavelengths
Number of Pixels in Spectrum: 2048
>>>>>Begin Spectral Data<<<<<
187.83	-342839.93
188.298	2496.85
188.766	1304.84
189.233	1139.65
189.701	1581.82
190.169	2225.18
190.636	801.56
191.104	648.33
191.571	41.77
192.039	-173.58
192.506	-177.26
192.974	473.54
193.441	-579.9
193.908	-152.08
194.375	-83.58
194.842	-51.57
195.31	56.4
195.777	119.49
196.244	403.91
196.711	447.36
197.177	553.65
197.644	791.88
198.111	1397.93
198.578	1966.75
199.045	1570.03
199.511	2604.85
199.978	3014.35
200.445	2533.55
200.911	2832.12
201.378	3082.15
201.844	2801.24
202.31	4777.3
202.777	4994.72
203.243	2772.04
203.709	2641.23
204.176	3158.79
204.642	2568.68
205.108	2401.92
205.574	1968.76
206.04	1790.56
206.506	1694.59
206.972	1583.57
207.438	1536.48
207.903	1745.59
208.369	1539.72
208.835	1513.19
209.301	1581.99
209.766	1613.01
210.232	1590.02
210.697	1951.81
211.163	2394.81
211.628	3596.59
212.094	3040.49
212.559	3739.52
213.024	2341.06
213.49	2850
213.955	2781.98
214.42	2722.1
214.885	2542.03
215.35	2467.32
215.815	2404.69
216.28	2565.46
216.745	2087.11
217.21	2261.1
217.675	2065.2
218.14	2319.52
218.604	2587.89
219.069	2980.81
219.534	3157.56
219.998	3685.62
220.463	4468.62
220.927	5497.58
221.392	5176.67
221.856	5262.61
222.32	6635.98
222.785	8233.43
223.249	10363.3
223.713	11601.62
224.177	11592.66
224.642	14832.09
225.106	18299.91
225.57	20005.36
226.034	14869.85
226.497	22659.72
226.961	20486.02
227.425	23853
227.889	26367.49
228.353	26369.32
228.816	54420.95
229.28	52042.98
229.744	43866.88
230.207	26640.49
230.671	26191.91
231.134	43345.46
231.597	49976.6
232.061	49908.16
232.524	48678.47
232.987	33552.13
233.45	30157.23
233.914	27023.46
234.377	27696.18
234.84	25347.04
235.303	29809.38
235.766	33244.34
236.229	34254.41
236.691	21537.26
237.154	24172.93
237.617	18165.09
238.08	18591.35
238.542	21751.73
239.005	15532.42
239.468	15399.56
239.93	14491.02
240.393	13168.91
240.855	11556.08
241.317	11851.99
241.78	14404.43
242.242	14901.09
242.704	16089.99
243.166	14012.7
243.629	12739.93
244.091	14681.44
244.553	16080.03
245.015	17298.85
245.477	22373.37
245.939	32749.62
246.4	34748.42
246.862	33793.55
247.324	31840.47
247.786	35558.95
248.247	46544.75
248.709	47974.99
249.17	35881.22
249.632	33805.57
250.093	39194.91
250.555	33863.68
251.016	20663.21
251.477	19587.39
251.939	21141.6
252.4	22162.69
252.861	26365.53
253.322	24538.63
253.783	29194.39
254.244	37866.3
254.705	29838.29
255.166	26496.86
255.627	26074.18
256.088	36818.89
256.549	39062.08
257.009	33626.22
257.47	40791
257.931	33184.07
258.391	24843.61
258.852	25597.93
259.312	26811.63
259.773	33103.87
260.233	27995.57
260.694	23590.56
261.154	26694.77
261.614	21442.7
262.074	19153.03
262.534	19906.3
262.994	18770.41
263.455	24982.01
263.915	21030.53
264.374	19775.16
264.834	21567.94
265.294	23861.43
265.754	24719.19
266.214	23409.2
266.673	21921.65
267.133	27641.63
267.593	27374.58
268.052	33523.05
268.512	29153.38
268.971	35155.37
269.431	38573.38
269.89	34511.94
270.349	51729.28
270.809	57675.2
271.268	51806.34
271.727	116146.2
272.186	75241.41
272.645	56414.41
273.104	40617.08
273.563	58769.06
274.022	46182.6
274.481	39266.25
274.94	30285.74
275.399	22495.25
275.857	26154.43
276.316	35346.02
276.775	31449.99
277.233	30965.23
277.692	29001.6
278.15	32824.53
278.609	33783.29
279.067	31292.46
279.525	29121.86
279.984	37569.85
280.442	45146.94
280.9	44591.23
281.358	29378.43
281.816	27340.66
282.274	26755.86
282.732	27644.77
283.19	27771.71
283.648	23970.18
284.106	25481.96
284.564	25846.82
285.021	23986.2
285.479	17876.76
285.937	16245.13
286.394	14255.04
286.852	14675.43
287.309	15428.39
287.767	14922.81
288.224	14200.74
288.682	15585.65
289.139	17118.43
289.596	15689.06
290.053	16289.86
290.511	20552.79
290.968	24893.91
291.425	33741.26
291.882	28108.52
292.339	24470.94
292.796	24229.41
293.252	22825.99
293.709	18140.34
294.166	16255.52
294.623	17964.12
295.079	17245.43
295.536	17336.1
295.992	15752.48
296.449	15573.8
296.905	16196.94
297.362	15524.9
297.818	16318.45
298.274	16935.68
298.731	17226.31
299.187	17059.15
299.643	18290.85
300.099	22123.14
300.555	24250.21
301.011	20256.25
301.467	19576.72
301.923	22896.74
302.379	22381.33
302.835	22030.66
303.291	22064.76
303.746	25157.23
304.202	31799.92
304.658	31924.25
305.113	21490.3
305.569	21100.71
306.024	22521.7
306.479	21395.98
306.935	18055.41
307.39	19702.44
307.845	18196.39
308.301	18303.46
308.756	17850.29
309.211	17211.85
309.666	17667.47
310.121	21936.82
310.576	22237.67
311.031	22037.5
311.486	25233.79
311.94	25185.96
312.395	33710.61
312.85	63306.67
313.305	310684.96
313.759	1609709.25
314.214	116647
314.668	92399.61
315.123	77712.42
315.577	27890.3
316.032	24790.89
316.486	31091.09
316.94	24569.32
317.394	17111.19
317.849	13274.24
318.303	12583.59
318.757	11857.1
319.211	13081.35
319.665	11454.12
320.119	11581.55
320.572	16577.74
321.026	15489.84
321.48	12892.89
321.934	14030.86
322.387	14028.54
322.841	15185.99
323.295	13654.09
323.748	15707.33
324.202	15950.02
324.655	19145.92
325.108	26755.81
325.562	18905.09
326.015	22477.9
326.468	16980.43
326.921	18978.09
327.374	17736.59
327.827	18449.24
328.28	20879.9
328.733	13976.77
329.186	12296.98
329.639	11725.25
330.092	9882.75
330.545	9410.35
330.997	9491.75
331.45	10379.7
331.903	12176.15
332.355	20897.51
332.808	20306.22
333.26	16714.69
333.713	18171.87
334.165	18258.67
334.617	24309.47
335.069	19594.32
335.522	35428.28
335.974	39243.04
336.426	35809.25
336.878	24776.4
337.33	12571
337.782	12261.04
338.234	15414.38
338.686	18427.01
339.137	21851.12
339.589	20594.02
340.041	16174.03
340.493	13906.41
340.944	14216.94
341.396	15299.21
341.847	12872.64
342.299	15212.73
342.75	18590.92
343.201	16202.93
343.653	18643.07
344.104	22862.63
344.555	17993.31
345.006	27943.82
345.457	21401.4
345.908	16988.86
346.359	15979.53
346.81	13007.3
347.261	13685.59
347.712	13467.59
348.163	14432.96
348.613	14621.27
349.064	13669.13
349.515	11957.84
349.965	12257.59
350.416	14750.97
350.866	16209.05
351.317	18306.65
351.767	30300.19
352.217	38260.14
352.668	31749.4
353.118	29084.6
353.568	27956.28
354.018	22129.78
354.468	23340.75
354.918	16788.02
355.368	14667.86
355.818	20696.24
356.268	59587.93
356.718	249617.06
357.168	62111.87
357.617	31121.21
358.067	34559.49
358.517	32393.58
358.966	37981.28
359.416	42618.09
359.865	45957.41
360.315	54646.3
360.764	25513.66
361.213	14289.93
361.663	13521.2
362.112	16684.08
362.561	26982.66
363.01	20387.81
363.459	17138.72
363.908	18526.11
364.357	15774.22
364.806	26658.43
365.255	18331.54
365.703	16786.96
366.152	16824.98
366.601	13643.98
367.05	11086.09
367.498	10079.01
367.947	10517.12
368.395	10943.13
368.844	9682.06
369.292	11628.46
369.74	8028.94
370.189	12274.36
370.637	14398.47
371.085	12397.19
371.533	15063.87
371.981	14482.16
372.429	13779.82
372.877	14317.52
373.325	11968.58
373.773	12172.76
374.221	10845.99
374.669	13424.67
375.116	11602.85
375.564	11675.83
376.012	13064.77
376.459	10784.79
376.907	12892.61
377.354	15579.05
377.801	14564.42
378.249	16727.52
378.696	21367.43
379.143	25872.72
379.591	27547.34
380.038	46687.82
380.485	33786.35
380.932	36374.74
381.379	33281.42
381.826	24477.2
382.273	17372.56
382.72	15127.47
383.166	14717.6
383.613	9528.8
384.06	8540.96
384.506	9871.06
384.953	7212.28
385.4	7225.41
385.846	6310.08
386.292	6129.36
386.739	5980.65
387.185	5891.72
387.631	5894.74
388.078	5724.47
388.524	6112.04
388.97	5648.46
389.416	4707.91
389.862	5008.96
390.308	4755.53
390.754	4832.26
391.2	5240.31
391.645	5365.61
392.091	5155.05
392.537	4988.22
392.983	4988.46
393.428	4939.36
393.874	5290.21
394.319	5338.46
394.765	5086.63
395.21	5219.97
395.655	4902.23
396.101	4599.49
396.546	4165.03
396.991	4209.08
397.436	3914.99
397.881	3795.51
398.326	3599.3
398.771	3428.83
399.216	3002.17
399.661	2710.43
400.106	2725.77
400.551	2820.21
400.995	2554
401.44	2546.28
401.885	2410.04
402.329	2453.48
402.774	2372.66
403.218	2314.98
403.663	2243.05
404.107	2325.52
404.551	2364.92
404.995	2180.3
405.44	2106.27
405.884	2143.07
406.328	2085.88
406.772	2090.99
407.216	1919.65
407.66	1866.84
408.104	1779.64
408.547	1676.35
408.991	1630.18
409.435	1575.5
409.879	1560.23
410.322	1551.65
410.766	1507.82
411.209	1440.28
411.653	1390.62
412.096	1369.82
412.54	1378.03
412.983	1376.67
413.426	1392.82
413.869	1398.61
414.312	1377.86
414.756	1334.07
415.199	1278.35
415.642	1248.54
416.085	1253.57
416.527	1249.1
416.97	1272.17
417.413	1211.33
417.856	1202.55
418.298	1190.94
418.741	1185.48
419.184	1186.84
419.626	1239.91
420.069	1244.22
420.511	1255.16
420.953	1233.95
421.396	1225.43
421.838	1195.2
422.28	1223.23
422.722	1232.44
423.164	1250.69
423.606	1231.51
424.048	1229.76
424.49	1171.49
424.932	1166.05
425.374	1149.38
425.816	1168.67
426.258	1191.33
426.699	1207.31
427.141	1190.89
427.582	1207.66
428.024	1201.66
428.465	1193.43
428.907	1164.25
429.348	1149.02
429.789	1147.89
430.231	1124.73
430.672	1140.28
431.113	1111.35
431.554	1091.73
431.995	1064.38
432.436	1029.17
432.877	1007.26
433.318	992.81
433.759	987.61
434.2	989.11
434.64	978.82
435.081	982.56
435.522	932.17
435.962	900.4
436.403	884.98
436.843	898.24
437.284	878.64
437.724	854.36
438.164	856.11
438.604	840.34
439.045	812.45
439.485	781.75
439.925	766.12
440.365	749.9
440.805	742.76
441.245	736.47
441.685	711.3
442.125	709.78
442.564	719.48
443.004	708.35
443.444	711.39
443.883	714.39
444.323	713.29
444.762	719.87
445.202	734.3
445.641	755.31
446.081	756.16
446.52	767.92
446.959	766.18
447.398	753.87
447.837	749.44
448.276	741.94
448.716	755.43
449.154	766.5
449.593	753.3
450.032	754.5
450.471	743.03
450.91	746.81
451.349	750.16
451.787	750.24
452.226	764.22
452.664	768.15
453.103	771.73
453.541	772.63
453.98	774.37
454.418	782.28
454.856	772.54
455.295	772.69
455.733	780.68
456.171	785.66
456.609	787.44
457.047	787.84
457.485	800.64
457.923	803.01
458.361	792.96
458.798	795.48
459.236	792.91
459.674	797.64
460.111	801.91
460.549	794.4
460.987	791.78
461.424	788.57
461.862	782.84
462.299	767.94
462.736	765.36
463.173	765.98
463.611	757.67
464.048	754.75
464.485	760.38
464.922	750.71
465.359	744.47
465.796	733.95
466.233	727.68
466.67	721.23
467.106	719.35
467.543	711.84
467.98	703.6
468.416	684.36
468.853	678.55
469.29	658.49
469.726	653.66
470.162	636.5
470.599	628.41
471.035	623.85
471.471	610.08
471.907	607.66
472.344	604.97
472.78	608.04
473.216	617.15
473.652	611.48
474.088	610.97
474.523	610.42
474.959	618.42
475.395	614.7
475.831	613.32
476.266	618.35
476.702	618.25
477.138	612.44
477.573	611.57
478.008	611.24
478.444	616.05
478.879	623.19
479.314	627.35
479.75	628.16
480.185	632.26
480.62	638.53
481.055	642.16
481.49	648.2
481.925	659.54
482.36	672.86
482.795	693.38
483.229	713.48
483.664	730.64
484.099	734.12
484.534	747.01
484.968	756.17
485.403	760.64
485.837	762.38
486.271	763.65
486.706	766.01
487.14	758.13
487.574	747.52
488.009	741.81
488.443	737.03
488.877	746.92
489.311	751.61
489.745	762.66
490.179	772.63
490.613	789.89
491.046	798.52
491.48	808.33
491.914	813.79
492.348	822.64
492.781	831.86
493.215	838.03
493.648	843.6
494.082	854.53
494.515	859.33
494.948	873
495.382	883.3
495.815	893.59
496.248	905.14
496.681	926.6
497.114	947.19
497.547	966.11
497.98	987.81
498.413	1001.98
498.846	1020.59
499.279	1037.75
499.711	1049.83
500.144	1059.72
500.577	1079.88
501.009	1100.75
501.442	1119.51
501.874	1126.56
502.306	1134.97
502.739	1151.22
503.171	1176.66
503.603	1186.2
504.036	1204.87
504.468	1217.44
504.9	1236.79
505.332	1251.35
505.764	1260.31
506.196	1273.58
506.627	1297.67
507.059	1320.38
507.491	1336.23
507.923	1334.95
508.354	1358.11
508.786	1374.88
509.217	1400.73
509.649	1423.37
510.08	1451.17
510.512	1476.77
510.943	1498.07
511.374	1515.24
511.805	1542.73
512.237	1569.32
512.668	1616.01
513.099	1653.55
513.53	1690.79
513.961	1718.02
514.391	1760.66
514.822	1803.26
515.253	1849.62
515.684	1882
516.114	1918.3
516.545	1943.89
516.975	1976.35
517.406	1996.13
517.836	1994.43
518.267	1997.97
518.697	2016.88
519.127	2017.6
519.558	2022.29
519.988	2021.8
520.418	2030.71
520.848	2049.56
521.278	2055.69
521.708	2069.55
522.138	2080.58
522.567	2117.87
522.997	2146.75
523.427	2163.61
523.857	2180.27
524.286	2187.82
524.716	2203.46
525.145	2223.27
525.575	2232.3
526.004	2247.08
526.433	2235.06
526.863	2230.61
527.292	2213.14
527.721	2215.94
528.15	2219.13
528.579	2216.79
529.008	2228.69
529.437	2254.42
529.866	2269.24
530.295	2288.9
530.724	2301.79
531.152	2334.14
531.581	2349.22
532.01	2369.84
532.438	2377.94
532.867	2393.52
533.295	2414.1
533.723	2419.9
534.152	2413.8
534.58	2410.51
535.008	2386.2
535.436	2386.09
535.865	2394.19
536.293	2411.16
536.721	2429.26
537.149	2459.91
537.576	2461.79
538.004	2476.95
538.432	2482.9
538.86	2479.22
539.287	2487.59
539.715	2504.98
540.143	2507.52
540.57	2501.85
540.998	2496.04
541.425	2462.24
541.852	2434.95
542.28	2430.66
542.707	2407.18
543.134	2388.95
543.561	2383.41
543.988	2371.64
544.415	2370.26
544.842	2361.88
545.269	2351.14
545.696	2352.04
546.123	2370.56
546.549	2355.35
546.976	2338.91
547.403	2338.5
547.829	2341.62
548.256	2345.31
548.682	2341.1
549.108	2331.25
549.535	2330.85
549.961	2333.66
550.387	2317.88
550.813	2310.68
551.24	2320.25
551.666	2322.55
552.092	2312.72
552.518	2305.46
552.943	2297.95
553.369	2309.14
553.795	2318.03
554.221	2320.03
554.646	2319.36
555.072	2335.18
555.498	2344.91
555.923	2357.71
556.349	2379
556.774	2391.14
557.199	2394.77
557.625	2404.46
558.05	2399.89
558.475	2415.14
558.9	2417.81
559.325	2408.22
559.75	2403.05
560.175	2395.71
560.6	2391.19
561.025	2393.1
561.449	2399.43
561.874	2409.93
562.299	2420.13
562.723	2433.34
563.148	2425.13
563.572	2433.8
563.997	2451.32
564.421	2463.91
564.846	2468.93
565.27	2478.42
565.694	2479.76
566.118	2498.54
566.542	2514.15
566.966	2509.38
567.39	2508.13
567.814	2497.91
568.238	2502.97
568.662	2514.64
569.086	2520.76
569.509	2535.55
569.933	2518.17
570.357	2511.54
570.78	2487.75
571.204	2474.17
571.627	2464.32
572.05	2464.91
572.474	2468.85
572.897	2454.77
573.32	2449.54
573.743	2442.67
574.166	2422.6
574.589	2429.19
575.012	2422.92
575.435	2426.1
575.858	2418.42
576.281	2408.38
576.704	2392.34
577.126	2379.82
577.549	2369.86
577.972	2361.18
578.394	2350.22
578.817	2344.03
579.239	2320.53
579.661	2306.52
580.084	2287.39
580.506	2271.91
580.928	2270.43
581.35	2258.45
581.772	2256.22
582.194	2240.02
582.616	2225.18
583.038	2207.62
583.46	2196.03
583.882	2195.89
584.303	2205.96
584.725	2202.76
585.147	2206.75
585.568	2222.77
585.99	2242.02
586.411	2254.79
586.833	2279.29
587.254	2284.04
587.675	2308.35
588.096	2329.04
588.518	2322.79
588.939	2299.85
589.36	2300.48
589.781	2290.15
590.202	2250.77
590.623	2239.33
591.043	2236.81
591.464	2219.16
591.885	2215.08
592.305	2206.16
592.726	2187.96
593.147	2190.83
593.567	2184.63
593.987	2173.9
594.408	2166.87
594.828	2164.83
595.248	2157.53
595.669	2130.87
596.089	2121.29
596.509	2112.92
596.929	2094.42
597.349	2095.44
597.769	2080.98
598.189	2072.78
598.608	2075.84
599.028	2079.45
599.448	2080.94
599.867	2062.95
600.287	2057.86
600.706	2052.02
601.126	2038.4
601.545	2037.79
601.965	2037.36
602.384	2031.06
602.803	2036.8
603.222	2031.56
603.641	2022.9
604.061	2018.98
604.48	2014.96
604.898	2029.12
605.317	2039.84
605.736	2043.78
606.155	2041.9
606.574	2030.57
606.992	2041.43
607.411	2036.25
607.829	2026.02
608.248	2024.99
608.666	2025.21
609.085	2027.63
609.503	2017.92
609.921	2010.8
610.339	2017.67
610.758	2020.48
611.176	2017.15
611.594	2006.18
612.012	2004.71
612.43	2013.19
612.847	2025.83
613.265	2030.71
613.683	2041.5
614.101	2046.75
614.518	2045.74
614.936	2033.44
615.353	2013.07
615.771	2010.19
616.188	2014.45
616.606	2010.39
617.023	2001.67
617.44	1982.54
617.857	1973.65
618.274	1961.6
618.691	1954.02
619.108	1940.49
619.525	1933.54
619.942	1945.89
620.359	1951.68
620.776	1944.6
621.192	1940.97
621.609	1939.28
622.026	1950.97
622.442	1961.1
622.859	1967.63
623.275	1957.25
623.691	1967.34
624.108	1985.86
624.524	2007.32
624.94	2008.2
625.356	2024.13
625.772	2044.74
626.188	2063.85
626.604	2066.21
627.02	2060.1
627.436	2056.88
627.852	2066.75
628.268	2085.31
628.683	2070.54
629.099	2057.97
629.514	2051.38
629.93	2056.03
630.345	2062.55
630.761	2056.11
631.176	2059.67
631.591	2048.61
632.007	2038.6
632.422	2036.51
632.837	2018.14
633.252	2014.02
633.667	1997.06
634.082	1980.86
634.497	1960.96
634.911	1929.07
635.326	1922.24
635.741	1895.88
636.155	1881.06
636.57	1881.95
636.984	1879.6
637.399	1880.44
637.813	1878.44
638.228	1876.38
638.642	1882.63
639.056	1866.06
639.47	1866.28
639.884	1850.8
640.298	1838.9
640.712	1833.95
641.126	1812.23
641.54	1795.7
641.954	1787.02
642.368	1766.03
642.781	1751.27
643.195	1721.42
643.609	1718.88
644.022	1707.49
644.436	1699.46
644.849	1680.01
645.262	1661.64
645.676	1662.68
646.089	1653.9
646.502	1626.74
646.915	1616.79
647.328	1590.03
647.741	1584.98
648.154	1563.97
648.567	1556.87
648.98	1535.09
649.393	1534.4
649.805	1527.4
650.218	1515.36
650.631	1490.89
651.043	1482.54
651.456	1473.86
651.868	1473.46
652.28	1499.58
652.693	1519.76
653.105	1530.23
653.517	1545.68
653.929	1545.34
654.341	1552.8
654.753	1534.04
655.165	1543.31
655.577	1537.65
655.989	1529.7
656.401	1519.15
656.813	1462.29
657.224	1432.12
657.636	1387.68
658.047	1358.56
658.459	1328.92
658.87	1313.98
659.282	1293.69
659.693	1261.85
660.104	1237.93
660.515	1213.8
660.926	1205.14
661.338	1197.94
661.749	1183.12
662.159	1165.38
662.57	1153.46
662.981	1140.06
663.392	1123.24
663.803	1122.38
664.213	1111.14
664.624	1098.89
665.035	1096.04
665.445	1072.04
665.855	1055.75
666.266	1038.65
666.676	1028.26
667.086	1010.31
667.497	1003.04
667.907	988.04
668.317	970.29
668.727	960.83
669.137	955.01
669.547	946.76
669.956	944.04
670.366	939.05
670.776	936.15
671.186	935.14
671.595	935.12
672.005	934.51
672.414	930.25
672.824	923.94
673.233	924.2
673.642	924.19
674.052	924.81
674.461	925.01
674.87	928.6
675.279	922.9
675.688	922.58
676.097	922.05
676.506	916.05
676.915	932.58
677.323	935.73
677.732	933.86
678.141	933.47
678.549	922.58
678.958	922.51
679.366	925.34
679.775	934.37
680.183	953.09
680.592	966.5
681	982.05
681.408	981.59
681.816	1001.68
682.224	1024.56
682.632	1049.63
683.04	1099.24
683.448	1145.97
683.856	1202.61
684.264	1268.09
684.671	1329.71
685.079	1403.71
685.487	1484.65
685.894	1593.82
686.302	1686.04
686.709	1765.33
687.116	1857.9
687.524	1936.38
687.931	2005.19
688.338	2062.78
688.745	2110.88
689.152	2164.43
689.559	2231.33
689.966	2294.74
690.373	2321.27
690.78	2376.39
691.187	2462.3
691.593	2520.56
692	2568.4
692.407	2643.08
692.813	2734.84
693.22	2802.98
693.626	2870.74
694.032	2917.67
694.439	3001.47
694.845	3057.01
695.251	3134.01
