Data from N_3_DIV_OH_2N_Splice17_12-49-47-612.txt Node
Date: Sat Mar 14 12:49:47 EDT 2020
User: sa697716
Spectrometer: FLMS03696
Trigger mode: 0
Integration Time (sec): 3.180400E-1
Scans to average: 20
Electric dark correction enabled: true
Nonlinearity correction enabled: true
Boxcar width: 5
XAxis mode: Wavelengths
Number of Pixels in Spectrum: 2048
>>>>>Begin Spectral Data<<<<<
187.83	-381141.08
188.298	2593.24
188.766	1444.23
189.233	1346.3
189.701	1949.84
190.169	2793.66
190.636	1098.8
191.104	883.55
191.571	184.14
192.039	-39.55
192.506	-84.55
192.974	499.21
193.441	-1283.21
193.908	-417.68
194.375	-82.46
194.842	78.61
195.31	302.88
195.777	253.59
196.244	448.79
196.711	505.07
197.177	626.44
197.644	916.9
198.111	1593.4
198.578	2283.12
199.045	1820.11
199.511	3004.08
199.978	3432.75
200.445	2916.48
200.911	3245.71
201.378	3660.19
201.844	3346.12
202.31	5735.31
202.777	5969.7
203.243	3335.59
203.709	3191.74
204.176	3799.86
204.642	3112.68
205.108	2923.65
205.574	2381.56
206.04	2170.21
206.506	2042
206.972	1922.28
207.438	1859.43
207.903	2089.39
208.369	1828
208.835	1804.64
209.301	1900.39
209.766	1942.45
210.232	1924.59
210.697	2376.7
211.163	2935.31
211.628	4373.85
212.094	3676.23
212.559	4493.63
213.024	2797.26
213.49	3412.77
213.955	3342.53
214.42	3267.22
214.885	3037.77
215.35	2931.63
215.815	2815.89
216.28	2971.44
216.745	2429.86
217.21	2617.19
217.675	2399.98
218.14	2705.36
218.604	2990.17
219.069	3394.15
219.534	3546.05
219.998	4097.51
220.463	4930.98
220.927	6051.16
221.392	5691.09
221.856	5757.68
222.32	7240.03
222.785	8910.94
223.249	11192.22
223.713	12507.87
224.177	12490.76
224.642	16017.34
225.106	19729.81
225.57	21542.84
226.034	16006.36
226.497	24372.63
226.961	22000.47
227.425	25638.38
227.889	28455.68
228.353	28392.64
228.816	58569.32
229.28	56109.91
229.744	47227.91
230.207	28660.06
230.671	28210.22
231.134	46629.16
231.597	53668.29
232.061	53622.4
232.524	52240
232.987	35943.91
233.45	32376.45
233.914	29010.8
234.377	29662.04
234.84	27166.71
235.303	32016.93
235.766	35670.95
236.229	36808.22
236.691	23188.19
237.154	26034.18
237.617	19588.35
238.08	20044.49
238.542	23435.03
239.005	16735.3
239.468	16612.09
239.93	15629.87
240.393	14204.89
240.855	12472.7
241.317	12783.13
241.78	15530.87
242.242	16037.77
242.704	17295.67
243.166	15056.78
243.629	13680.98
244.091	15771.18
244.553	17265.33
245.015	18560.44
245.477	23977.12
245.939	35109.81
246.4	37218.47
246.862	36176.08
247.324	34073.53
247.786	38169.91
248.247	49982.94
248.709	51516.49
249.17	38546.46
249.632	36343.41
250.093	42073.65
250.555	36345.94
251.016	22182.86
251.477	21012.21
251.939	22658.82
252.4	23757.68
252.861	28189.4
253.322	26223.23
253.783	31192.53
254.244	40378.2
254.705	31799.73
255.166	28265.35
255.627	27830.09
256.088	39228.67
256.549	41700.19
257.009	35906.47
257.47	43568.62
257.931	35465.81
258.391	26555.15
258.852	27353.89
259.312	28649.65
259.773	35321.76
260.233	29867.33
260.694	25152.08
261.154	28485.32
261.614	22867.62
262.074	20445.12
262.534	21224.73
262.994	19982.41
263.455	26612.53
263.915	22430.73
264.374	21121.23
264.834	23066.97
265.294	25527.08
265.754	26432.45
266.214	24991.12
266.673	23376.95
267.133	29476.21
267.593	29235.03
268.052	35770.38
268.512	31051.62
268.971	37404.24
269.431	40967.88
269.89	36677.78
270.349	55017.45
270.809	61381.35
271.268	55195.44
271.727	123625.93
272.186	80034.47
272.645	59999.15
273.104	43281.61
273.563	62713.86
274.022	49263.9
274.481	41934.63
274.94	32283.06
275.399	23946.31
275.857	27841.96
276.316	37631.04
276.775	33524.18
277.233	33010.46
277.692	30907.96
278.15	34939.97
278.609	35950.03
279.067	33240.39
279.525	30878.8
279.984	39882.06
280.442	47914
280.9	47258.21
281.358	31103.29
281.816	28982.1
282.274	28359.72
282.732	29273.77
283.19	29424.31
283.648	25386.71
284.106	27075.71
284.564	27512.33
285.021	25502.16
285.479	19004.05
285.937	17270.98
286.394	15136.44
286.852	15550.88
287.309	16342.89
287.767	15798.94
288.224	15003.6
288.682	16444.59
289.139	18047.42
289.596	16489.61
290.053	17126.68
290.511	21604.54
290.968	26145.29
291.425	35465.36
291.882	29544.59
292.339	25651.82
292.796	25412.18
293.252	23924.11
293.709	19011.08
294.166	17028.11
294.623	18833.28
295.079	18042.13
295.536	18134.87
295.992	16472.66
296.449	16272.67
296.905	16894.67
297.362	16208.03
297.818	17038.25
298.274	17674.88
298.731	17986
299.187	17809.17
299.643	19098.54
300.099	23111.8
300.555	25343.48
301.011	21180.2
301.467	20425.72
301.923	23892.01
302.379	23341.08
302.835	22932.68
303.291	22975
303.746	26134.97
304.202	32984.41
304.658	33114.02
305.113	22244.09
305.569	21792.01
306.024	23219.4
306.479	22134.49
306.935	18647.9
307.39	20361.76
307.845	18837.55
308.301	18948.82
308.756	18463.21
309.211	17777
309.666	18215.93
310.121	22656.44
310.576	22958.92
311.031	22753.61
311.486	26015.01
311.94	26021.01
312.395	34833.32
312.85	65286.8
313.305	320672.36
313.759	1664878.05
314.214	120856.26
314.668	95901.95
315.123	80709.62
315.577	29026.79
316.032	25855.97
316.486	32365.02
316.94	25542.34
317.394	17758.15
317.849	13790.76
318.303	13052.68
318.757	12285.48
319.211	13564.94
319.665	11855.9
320.119	11989.34
320.572	17154.4
321.026	16019.72
321.48	13354.2
321.934	14551.91
322.387	14578.79
322.841	15747.14
323.295	14167.88
323.748	16332.62
324.202	16567.44
324.655	19943.42
325.108	27908.47
325.562	19742.23
326.015	23472.78
326.468	17716.44
326.921	19869.55
327.374	18544.75
327.827	19369.3
328.28	21906.85
328.733	14679.91
329.186	12907.09
329.639	12286.97
330.092	10345.03
330.545	9840.23
330.997	9931.5
331.45	10895.23
331.903	12747.98
332.355	21923.55
332.808	21282.06
333.26	17593.1
333.713	19109.38
334.165	19259.74
334.617	25730.9
335.069	20772.88
335.522	37626.18
335.974	41683.1
336.426	38050.61
336.878	26345.34
337.33	13363
337.782	13048.74
338.234	16354.85
338.686	19583.73
339.137	23200.32
339.589	21820.29
340.041	17140.71
340.493	14705.97
340.944	15065.14
341.396	16214.53
341.847	13654.4
342.299	16148.65
342.75	19745.56
343.201	17205.92
343.653	19755.19
344.104	24285.57
344.555	19142.97
345.006	29763.99
345.457	22859.35
345.908	18166.82
346.359	17110.39
346.81	13899.75
347.261	14631.88
347.712	14388.66
348.163	15454.09
348.613	15669.54
349.064	14638.52
349.515	12822.98
349.965	13151.72
350.416	15826.71
350.866	17341.55
351.317	19553.15
351.767	32484.06
352.217	40984.11
352.668	34020.19
353.118	31152.2
353.568	30048.76
354.018	23766.27
354.468	25078.53
354.918	18000.76
355.368	15729.28
355.818	22255.4
356.268	64052.78
356.718	267745.25
357.168	66737.81
357.617	33493.58
358.067	37256.35
358.517	34850.17
358.966	40911.19
359.416	45812.46
359.865	49525.72
360.315	59127.34
360.764	27659.01
361.213	15524.96
361.663	14718.54
362.112	18151.75
362.561	29341.46
363.01	22134.44
363.459	18667.02
363.908	20152.24
364.357	17177.97
364.806	28996.76
365.255	19925.95
365.703	18227.79
366.152	18248.81
366.601	14791.72
367.05	12064.59
367.498	10954.19
367.947	11442.52
368.395	11886.75
368.844	10559.6
369.292	12701
369.74	8788.53
370.189	13440.63
370.637	15757.95
371.085	13597.61
371.533	16572.08
371.981	15936.95
372.429	15209.12
372.877	15826
373.325	13271.98
373.773	13481.71
374.221	11985.36
374.669	14866.57
375.116	12839.26
375.564	12934.83
376.012	14469.22
376.459	11939.04
376.907	14241.7
377.354	17199.19
377.801	16097.22
378.249	18493.37
378.696	23677.46
379.143	28678.58
379.591	30582.58
380.038	51964.21
380.485	37619.43
380.932	40691.01
381.379	37285.71
381.826	27550.81
382.273	19634.33
382.72	17168.89
383.166	16772.71
383.613	10908.81
384.06	9898.3
384.506	11472.69
384.953	8429.37
385.4	8504.4
385.846	7468.42
386.292	7305.82
386.739	7155.16
387.185	7084.41
387.631	7114.83
388.078	6925.23
388.524	7420.81
388.97	6866.18
389.416	5737.47
389.862	6119.95
390.308	5821.45
390.754	5926.38
391.2	6437.51
391.645	6607.47
392.091	6360.22
392.537	6165.02
392.983	6190.86
393.428	6115.53
393.874	6560.31
394.319	6611.43
394.765	6285.88
395.21	6462.11
395.655	6072.14
396.101	5697.08
396.546	5151.62
396.991	5195.46
397.436	4826.09
397.881	4665.35
398.326	4414.06
398.771	4177.4
399.216	3644.87
399.661	3278.69
400.106	3271.88
400.551	3351.86
400.995	3002.2
401.44	2967.61
401.885	2774.81
402.329	2805.27
402.774	2685.41
403.218	2600.29
403.663	2500
404.107	2568.49
404.551	2587.06
404.995	2367.61
405.44	2272.66
405.884	2300.27
406.328	2220.43
406.772	2219.07
407.216	2014.52
407.66	1941.43
408.104	1836.95
408.547	1718.79
408.991	1657.58
409.435	1588.9
409.879	1559.83
410.322	1536.36
410.766	1484.37
411.209	1411.02
411.653	1350.03
412.096	1319.37
412.54	1319.16
412.983	1309.7
413.426	1310.61
413.869	1308.73
414.312	1287.93
414.756	1241.23
415.199	1179.8
415.642	1146.16
416.085	1146.12
416.527	1134.04
416.97	1151.09
417.413	1089.15
417.856	1076.38
418.298	1062.98
418.741	1053.63
419.184	1046.24
419.626	1087.81
420.069	1090.58
420.511	1093.51
420.953	1068.36
421.396	1059.35
421.838	1027.6
422.28	1048.72
422.722	1050.46
423.164	1064.19
423.606	1046.49
424.048	1043.32
424.49	992.22
424.932	985.09
425.374	970.02
425.816	985.16
426.258	1003.94
426.699	1017.49
427.141	1005.68
427.582	1019.48
428.024	1011.31
428.465	1006.37
428.907	980.36
429.348	966.59
429.789	966.87
430.231	945.15
430.672	958.05
431.113	935.93
431.554	920.04
431.995	894.2
432.436	865.67
432.877	848.51
433.318	832.9
433.759	828.47
434.2	830.22
434.64	822.39
435.081	825.12
435.522	780.02
435.962	750.31
436.403	738.14
436.843	751.24
437.284	733.4
437.724	715.33
438.164	717.92
438.604	702.93
439.045	676.12
439.485	648.56
439.925	634.16
440.365	619.98
440.805	612.84
441.245	605.47
441.685	583.91
442.125	581.35
442.564	586.61
443.004	574.28
443.444	575.02
443.883	576.57
444.323	574.36
444.762	576.85
445.202	586.63
445.641	599.96
446.081	596.73
446.52	602.29
446.959	598.86
447.398	586.52
447.837	581.11
448.276	571.74
448.716	579.17
449.154	584.51
449.593	574.01
450.032	573.92
450.471	563.68
450.91	565.78
451.349	566.91
451.787	564.84
452.226	573.13
452.664	574.09
453.103	577.82
453.541	577.61
453.98	578.5
454.418	582.61
454.856	574.93
455.295	573.58
455.733	578.87
456.171	581.63
456.609	581.33
457.047	580.24
457.485	590.44
457.923	590.46
458.361	582.32
458.798	583.31
459.236	582.34
459.674	584.12
460.111	587.45
460.549	581.56
460.987	579.02
461.424	578.02
461.862	575.06
462.299	564.78
462.736	565.38
463.173	567.61
463.611	562.63
464.048	560.92
464.485	566.17
464.922	560.92
465.359	557.15
465.796	554.14
466.233	550.68
466.67	546.55
467.106	545.57
467.543	538.7
467.98	531.66
468.416	517.09
468.853	512.21
469.29	497.31
469.726	492.31
470.162	479.71
470.599	469.56
471.035	464.73
471.471	454.1
471.907	451.02
472.344	447.59
472.78	449.44
473.216	455.49
473.652	451.08
474.088	449.83
474.523	448.43
474.959	453.1
475.395	450.32
475.831	448.5
476.266	451.2
476.702	450.51
477.138	446.53
477.573	444.74
478.008	442.7
478.444	444.69
478.879	449.36
479.314	451.98
479.75	451.09
480.185	451.83
480.62	456.08
481.055	457.71
481.49	461.31
481.925	468.69
482.36	478.02
482.795	491.02
483.229	503.73
483.664	514.65
484.099	516.25
484.534	525.91
484.968	532.06
485.403	533.59
485.837	533.59
486.271	532.99
486.706	534.39
487.14	528.43
487.574	521.28
488.009	517.63
488.443	513.97
488.877	520.63
489.311	522.94
489.745	530.61
490.179	536.97
490.613	548.79
491.046	555.27
491.48	560.27
491.914	563.59
492.348	570.03
492.781	576.3
493.215	579.86
493.648	583.58
494.082	590.9
494.515	594.64
494.948	605.75
495.382	612.85
495.815	620.01
496.248	629.14
496.681	643.72
497.114	657.85
497.547	671.56
497.98	688.38
498.413	699.13
498.846	712.9
499.279	725.13
499.711	733.31
500.144	740.46
500.577	756.75
501.009	771.72
501.442	786.63
501.874	793.29
502.306	800.77
502.739	814.09
503.171	834.02
503.603	842.76
504.036	858.61
504.468	870.2
504.9	888.16
505.332	899.78
505.764	910.45
506.196	923.45
506.627	944.49
507.059	964.16
507.491	979.23
507.923	983.74
508.354	1005.55
508.786	1022.31
509.217	1047.31
509.649	1069.21
510.08	1095.3
510.512	1119.55
510.943	1141.59
511.374	1159.49
511.805	1187.06
512.237	1214.31
512.668	1254.36
513.099	1289.95
513.53	1326.8
513.961	1354.17
514.391	1393.99
514.822	1435.79
515.253	1480.83
515.684	1514.36
516.114	1552.8
516.545	1579.97
516.975	1612.69
517.406	1636.93
517.836	1642.8
518.267	1651.96
518.697	1675.33
519.127	1683.45
519.558	1694.95
519.988	1701.49
520.418	1715.45
520.848	1737.84
521.278	1750.63
521.708	1757.94
522.138	1774.02
522.567	1813.08
522.997	1844.38
523.427	1864.51
523.857	1886.05
524.286	1899.52
524.716	1919.25
525.145	1944.24
525.575	1959.18
526.004	1977.76
526.433	1987.03
526.863	1988.62
527.292	1976.65
527.721	1984.75
528.15	1991.72
528.579	1992.73
529.008	2007.14
529.437	2034.01
529.866	2048.52
530.295	2068.15
530.724	2082.3
531.152	2113.49
531.581	2131.34
532.01	2153.23
532.438	2161.74
532.867	2179.6
533.295	2201.39
533.723	2208.52
534.152	2206.04
534.58	2206.04
535.008	2187.94
535.436	2191.35
535.865	2201.01
536.293	2218.58
536.721	2236.49
537.149	2268.97
537.576	2272.98
538.004	2288.32
538.432	2297.07
538.86	2295.15
539.287	2303.38
539.715	2319.69
540.143	2322.14
540.57	2317.36
540.998	2311.86
541.425	2284.18
541.852	2257.47
542.28	2253.33
542.707	2233.57
543.134	2215.84
543.561	2209.69
543.988	2201.76
544.415	2200.04
544.842	2193.42
545.269	2184.72
545.696	2186.48
546.123	2201.3
546.549	2189.96
546.976	2175.86
547.403	2176.08
547.829	2177.93
548.256	2180.34
548.682	2175.22
549.108	2166.69
549.535	2166.9
549.961	2168.44
550.387	2153.59
550.813	2146.62
551.24	2153.41
551.666	2155
552.092	2142.27
552.518	2134.8
552.943	2128.85
553.369	2137.64
553.795	2143.3
554.221	2143.49
554.646	2140.24
555.072	2152.97
555.498	2159.87
555.923	2171.15
556.349	2189.13
556.774	2200.71
557.199	2203.05
557.625	2210.51
558.05	2204.29
558.475	2218.24
558.9	2217.11
559.325	2206.83
559.75	2199.15
560.175	2191.89
560.6	2184.14
561.025	2181.74
561.449	2182.47
561.874	2188.7
562.299	2193.2
562.723	2200.88
563.148	2188.38
563.572	2193.78
563.997	2207.12
564.421	2213.65
564.846	2213.74
565.27	2217.71
565.694	2213.97
566.118	2227.82
566.542	2237.6
566.966	2229.75
567.39	2223.94
567.814	2209.94
568.238	2208.28
568.662	2213.64
569.086	2216.06
569.509	2223.41
569.933	2203.33
570.357	2195.02
570.78	2168.78
571.204	2151.4
571.627	2138.1
572.05	2136.18
572.474	2135.67
572.897	2120.06
573.32	2110.51
573.743	2099.06
574.166	2077.5
574.589	2078.01
575.012	2068.59
575.435	2067.96
575.858	2057.11
576.281	2044.34
576.704	2024.78
577.126	2009.6
577.549	1996.43
577.972	1983.22
578.394	1970.08
578.817	1961.66
579.239	1938.44
579.661	1920.78
580.084	1900.6
580.506	1883.15
580.928	1877.95
581.35	1864.19
581.772	1858.68
582.194	1841.61
582.616	1826.65
583.038	1808.19
583.46	1793.28
583.882	1788.56
584.303	1793.35
584.725	1788.29
585.147	1791.59
585.568	1801.85
585.99	1814.57
586.411	1821.41
586.833	1840.07
587.254	1842.15
587.675	1859.2
588.096	1875.95
588.518	1870.98
588.939	1850.56
589.36	1846.93
589.781	1834.4
590.202	1801.09
590.623	1791.54
591.043	1789.69
591.464	1773.77
591.885	1767.66
592.305	1759.92
592.726	1743.22
593.147	1743.39
593.567	1737.07
593.987	1727.55
594.408	1720.6
594.828	1718.21
595.248	1710.35
595.669	1687.82
596.089	1679.26
596.509	1672.7
596.929	1657.21
597.349	1656.75
597.769	1644.2
598.189	1636.55
598.608	1638.58
599.028	1640.93
599.448	1640.6
599.867	1625.62
600.287	1620.43
600.706	1615.36
601.126	1603.32
601.545	1600.82
601.965	1599.18
602.384	1592.8
602.803	1596.48
603.222	1589.58
603.641	1581.56
604.061	1576.98
604.48	1572.53
604.898	1581.12
605.317	1585.4
605.736	1586.78
606.155	1584.08
606.574	1572.53
606.992	1578.79
607.411	1572.68
607.829	1563.02
608.248	1558.42
608.666	1555.24
609.085	1553.24
609.503	1542.43
609.921	1534.65
610.339	1535.64
610.758	1533.37
611.176	1528.33
611.594	1517.35
612.012	1511.87
612.43	1515.1
612.847	1522
613.265	1520.71
613.683	1524.76
614.101	1525.67
614.518	1519.53
614.936	1507.03
615.353	1488.19
615.771	1481.92
616.188	1480.25
616.606	1474.68
617.023	1465.5
617.44	1447.94
617.857	1439.32
618.274	1428.69
618.691	1420.35
619.108	1410.27
619.525	1402.52
619.942	1409.62
620.359	1412.57
620.776	1405.01
621.192	1398.36
621.609	1395.03
622.026	1400.75
622.442	1406.74
622.859	1409.09
623.275	1399.51
623.691	1404
624.108	1417.09
624.524	1431.45
624.94	1429.8
625.356	1440.91
625.772	1456.88
626.188	1470.08
626.604	1472.46
627.02	1466.99
627.436	1464.68
627.852	1473.11
628.268	1485.85
628.683	1474.24
629.099	1464.59
629.514	1459.3
629.93	1463.09
630.345	1466.71
630.761	1460.35
631.176	1462.67
631.591	1456.13
632.007	1448.15
632.422	1443.72
632.837	1429.7
633.252	1425.77
633.667	1413.78
634.082	1403.2
634.497	1386.79
634.911	1362.69
635.326	1356.81
635.741	1335.23
636.155	1320.58
636.57	1320.36
636.984	1318.39
637.399	1318.77
637.813	1315.7
638.228	1311.26
638.642	1312.17
639.056	1299.15
639.47	1297.8
639.884	1285.42
640.298	1276.01
640.712	1273.91
641.126	1256.47
641.54	1243.18
641.954	1233.6
642.368	1218.19
642.781	1205.84
643.195	1183.74
643.609	1180.91
644.022	1170.74
644.436	1162.85
644.849	1146.99
645.262	1130.58
645.676	1129.35
646.089	1121.86
646.502	1103.03
646.915	1093.37
647.328	1073.09
647.741	1068.41
648.154	1051.21
648.567	1046.16
648.98	1031.39
649.393	1029.28
649.805	1022.99
650.218	1012.64
650.631	995.36
651.043	987
651.456	978.97
651.868	978.04
652.28	993.68
652.693	1006.72
653.105	1010.81
653.517	1018.3
653.929	1017.17
654.341	1020.14
654.753	1004.93
655.165	1007.9
655.577	1003.12
655.989	996.82
656.401	985.53
656.813	945.79
657.224	922.98
657.636	891.69
658.047	871.69
658.459	849.11
658.87	836.88
659.282	822.81
659.693	799.8
660.104	782.88
660.515	765.46
660.926	760.97
661.338	754.06
661.749	742.3
662.159	729.28
662.57	719.23
662.981	710.79
663.392	698.86
663.803	697.6
664.213	690.6
664.624	682.51
665.035	681.31
665.445	663.52
665.855	653.55
666.266	644.6
666.676	639.29
667.086	628.44
667.497	624.4
667.907	616.2
668.317	605.46
668.727	601.03
669.137	598.82
669.547	594.28
669.956	594.09
670.366	594.3
670.776	593.2
671.186	594
671.595	595.16
672.005	595.7
672.414	594.47
672.824	592.99
673.233	593.22
673.642	593.75
674.052	595.98
674.461	598.23
674.87	601.53
675.279	599.39
675.688	599.78
676.097	601.7
676.506	599.4
676.915	611.95
677.323	615.35
677.732	615.94
678.141	616.84
678.549	609.13
678.958	610.11
679.366	611.26
679.775	617.55
680.183	630.64
680.592	638.06
681	645.7
681.408	643.14
681.816	653.14
682.224	664.18
682.632	678.21
683.04	708.51
683.448	734.99
683.856	766.8
684.264	804.28
684.671	839.46
685.079	882.74
685.487	931.4
685.894	998.03
686.302	1056.4
686.709	1107.75
687.116	1166.81
687.524	1219.4
687.931	1267.51
688.338	1310.78
688.745	1350
689.152	1393.56
689.559	1449.74
689.966	1506.36
690.373	1539.84
690.78	1591.16
691.187	1666.47
691.593	1725.67
692	1776.77
692.407	1850.67
692.813	1941.35
693.22	2013.04
693.626	2087.12
694.032	2148
694.439	2236.1
694.845	2305.92
695.251	2393.61
695.657	2470.65
696.063	2584.54
696.469	2673.05
696.875	2753.3
697.281	2798.64
697.687	2857.7
698.093	2905.98
