Data from N_3_DEC_CT_2N_Splice17_13-02-12-604.txt Node
Date: Sat Mar 14 13:02:12 EDT 2020
User: sa697716
Spectrometer: FLMS03696
Trigger mode: 0
Integration Time (sec): 3.180400E-1
Scans to average: 20
Electric dark correction enabled: true
Nonlinearity correction enabled: true
Boxcar width: 5
XAxis mode: Wavelengths
Number of Pixels in Spectrum: 2048
>>>>>Begin Spectral Data<<<<<
187.83	-222989.9
188.298	1722.9
188.766	898.33
189.233	770.91
189.701	1066.01
190.169	1450.36
190.636	487.14
191.104	343.12
191.571	-11.5
192.039	-123.88
192.506	-140.74
192.974	464.1
193.441	-587.01
193.908	-189.15
194.375	-89.27
194.842	-67.7
195.31	-18.7
195.777	115.41
196.244	323.15
196.711	455.51
197.177	584.19
197.644	867.21
198.111	1514.93
198.578	2117.4
199.045	1709.65
199.511	2809.65
199.978	3263.71
200.445	2778.46
200.911	3104.14
201.378	3465.69
201.844	3136.82
202.31	5362.45
202.777	5600.17
203.243	3125.39
203.709	2964.85
204.176	3550.49
204.642	2939.28
205.108	2766.31
205.574	2250.46
206.04	2035.71
206.506	1927.23
206.972	1832.48
207.438	1780.26
207.903	2017.76
208.369	1766.18
208.835	1787.2
209.301	1864.29
209.766	1905.24
210.232	1896.36
210.697	2334.14
211.163	2914.69
211.628	4378.29
212.094	3648.11
212.559	4467.43
213.024	2774.11
213.49	3383.63
213.955	3282.66
214.42	3199.65
214.885	2985.65
215.35	2856.63
215.815	2770.85
216.28	2932.69
216.745	2406.67
217.21	2629.46
217.675	2430.58
218.14	2759.55
218.604	3118.39
219.069	3577.07
219.534	3760.44
219.998	4404.38
220.463	5380.96
220.927	6655.32
221.392	6294.14
221.856	6385.82
222.32	8085.5
222.785	10007.35
223.249	12626.19
223.713	14106.78
224.177	14148.73
224.642	18215.67
225.106	22431.09
225.57	24500.91
226.034	18264.3
226.497	27820.09
226.961	25134.29
227.425	29302.29
227.889	32562.65
228.353	32615.14
228.816	67477.24
229.28	64392.4
229.744	54306.58
230.207	33006.66
230.671	32495.64
231.134	53730.5
231.597	62020.98
232.061	62058.52
232.524	60452.82
232.987	41647.79
233.45	37428.97
233.914	33562.38
234.377	34469.55
234.84	31557.57
235.303	37230.18
235.766	41546.54
236.229	42929.31
236.691	26999.53
237.154	30331.7
237.617	22817.64
238.08	23372.41
238.542	27359.53
239.005	19531.8
239.468	19378.77
239.93	18264.53
240.393	16598.81
240.855	14582.18
241.317	14946.68
241.78	18204.38
242.242	18813.43
242.704	20313.1
243.166	17665.72
243.629	16048.51
244.091	18505.81
244.553	20300.39
245.015	21803.71
245.477	28225.31
245.939	41356.01
246.4	43861.54
246.862	42631.26
247.324	40243.95
247.786	45043.47
248.247	59076.56
248.709	61008.48
249.17	45676.67
249.632	43071.49
250.093	49992.02
250.555	43153.87
251.016	26324.26
251.477	24988.23
251.939	26991.43
252.4	28336.81
252.861	33711.61
253.322	31408.93
253.783	37413.41
254.244	48551.02
254.705	38261.89
255.166	34047.15
255.627	33581.94
256.088	47455.81
256.549	50476.75
257.009	43478.99
257.47	52747.35
257.931	42982.19
258.391	32230.48
258.852	33223.24
259.312	34832.37
259.773	43050.63
260.233	36407.57
260.694	30721.85
261.154	34837.47
261.614	27953.1
262.074	25017.24
262.534	26033.66
262.994	24563.47
263.455	32747.43
263.915	27600.45
264.374	26038.11
264.834	28424.59
265.294	31540.57
265.754	32678.01
266.214	30949.4
266.673	29023.32
267.133	36651.43
267.593	36339.01
268.052	44490.5
268.512	38691.59
268.971	46692.81
269.431	51188.31
269.89	45905.53
270.349	68810.15
270.809	76709.83
271.268	68979.03
271.727	154861.59
272.186	100328.81
272.645	75318.81
273.104	54356.16
273.563	78698.74
274.022	61938.46
274.481	52722.66
274.94	40582.62
275.399	30176.33
275.857	35161.52
276.316	47576.3
276.775	42315.5
277.233	41679.59
277.692	39028.6
278.15	44164.62
278.609	45453.1
279.067	42052.38
279.525	39049.41
279.984	50468.31
280.442	60604.03
280.9	59718.77
281.358	39317.04
281.816	36648.05
282.274	35895.87
282.732	37070.39
283.19	37264.85
283.648	32180.84
284.106	34296.31
284.564	34859.45
285.021	32324.94
285.479	24096.82
285.937	21925.38
286.394	19214.95
286.852	19802.5
287.309	20820.25
287.767	20122.48
288.224	19118.87
288.682	20967.22
289.139	22999.86
289.596	21082.76
290.053	21926.6
290.511	27675.12
290.968	33565.64
291.425	45568.57
291.882	37871.15
292.339	32938.18
292.796	32689.83
293.252	30827.42
293.709	24478.73
294.166	21958.32
294.623	24248.13
295.079	23261.27
295.536	23368.01
295.992	21213.58
296.449	20990.67
296.905	21803.87
297.362	20893.2
297.818	21987.41
298.274	22794.66
298.731	23253.47
299.187	23003.47
299.643	24680.84
300.099	29825.31
300.555	32714.91
301.011	27349.36
301.467	26323.51
301.923	30823.59
302.379	30107.36
302.835	29526.25
303.291	29549.77
303.746	33588.06
304.202	42414.7
304.658	42596.33
305.113	28652.9
305.569	28080.61
306.024	29937.62
306.479	28538.77
306.935	24075.76
307.39	26320.39
307.845	24320.71
308.301	24470.84
308.756	23867.09
309.211	22995.11
309.666	23560.05
310.121	29242.07
310.576	29669.79
311.031	29410.37
311.486	33656.23
311.94	33601.04
312.395	44882.7
312.85	84383.98
313.305	415027.21
313.759	2144605.53
314.214	155280.4
314.668	123010.87
315.123	103361.93
315.577	37038.91
316.032	32980.92
316.486	41287.69
316.94	32540.23
317.394	22637.41
317.849	17573.96
318.303	16626.28
318.757	15702.08
319.211	17365.3
319.665	15210.85
320.119	15408.16
320.572	22082.03
321.026	20618.48
321.48	17164.89
321.934	18729.52
322.387	18779.84
322.841	20268.58
323.295	18180.73
323.748	20936.42
324.202	21208.4
324.655	25462.72
325.108	35541.99
325.562	25118.97
326.015	29833.36
326.468	22522.41
326.921	25164.5
327.374	23455.08
327.827	24432.31
328.28	27717.95
328.733	18584.78
329.186	16353.78
329.639	15564.97
330.092	13111.3
330.545	12480.1
330.997	12584.04
331.45	13760.02
331.903	16119.8
332.355	27725.27
332.808	26951.69
333.26	22178.28
333.713	24029.82
334.165	24185.8
334.617	32256.54
335.069	26074.07
335.522	47203.29
335.974	52254.26
336.426	47718.97
336.878	33044.37
337.33	16741.66
337.782	16327.92
338.234	20472.47
338.686	24473.55
339.137	29024.49
339.589	27355.21
340.041	21437.38
340.493	18411.64
340.944	18837.56
341.396	20294.95
341.847	17064.1
342.299	20133.51
342.75	24575.17
343.201	21467.39
343.653	24701.38
344.104	30324.01
344.555	23892.22
345.006	37184.43
345.457	28444.61
345.908	22614.4
346.359	21270.64
346.81	17317.72
347.261	18257.5
347.712	17987.82
348.163	19277.83
348.613	19497.19
349.064	18189.5
349.515	15906.35
349.965	16306.56
350.416	19639.14
350.866	21529.53
351.317	24289.56
351.767	40222.74
352.217	50746.51
352.668	42080.39
353.118	38541.84
353.568	37160.97
354.018	29351.54
354.468	30911.34
354.918	22159.95
355.368	19354.48
355.818	27361.82
356.268	78779.25
356.718	329536.15
357.168	82000.5
357.617	41103.13
358.067	45743.6
358.517	42839.14
358.966	50283.03
359.416	56380.37
359.865	60961.35
360.315	72668.23
360.764	33863.09
361.213	18969.01
361.663	17989.31
362.112	22201.89
362.561	35879.83
363.01	27016.08
363.459	22731.75
363.908	24553.99
364.357	20825.98
364.806	35148.07
365.255	24168.47
365.703	22155.54
366.152	22192.07
366.601	17957.72
367.05	14566.24
367.498	13231
367.947	13848.04
368.395	14384.9
368.844	12750.26
369.292	15389.58
369.74	10643.81
370.189	16277.72
370.637	19066.46
371.085	16427.63
371.533	20022.15
371.981	19267.25
372.429	18338.54
372.877	19052.14
373.325	15936.41
373.773	16257.07
374.221	14461.58
374.669	17904.37
375.116	15466.15
375.564	15591.9
376.012	17446.97
376.459	14365.74
376.907	17154.58
377.354	20715.56
377.801	19294.55
378.249	22172.06
378.696	28231.93
379.143	34129.78
379.591	36341.54
380.038	61345.3
380.485	44166.91
380.932	47535.03
381.379	43311.47
381.826	31925.58
382.273	22691.97
382.72	19800.08
383.166	19253.14
383.613	12512.48
384.06	11266.16
384.506	13010.85
384.953	9560.03
385.4	9605.91
385.846	8410.88
386.292	8191.41
386.739	7995.75
387.185	7888.44
387.631	7876.86
388.078	7641.93
388.524	8152.34
388.97	7516.34
389.416	6259.95
389.862	6633.06
390.308	6284.11
390.754	6362.23
391.2	6890.23
391.645	7043.12
392.091	6729.23
392.537	6496.07
392.983	6502.06
393.428	6383.33
393.874	6837.9
394.319	6854.2
394.765	6493.67
395.21	6654.57
395.655	6241.81
396.101	5844.5
396.546	5264.35
396.991	5308.79
397.436	4930.72
397.881	4746.81
398.326	4488.59
398.771	4235.88
399.216	3695.85
399.661	3328.67
400.106	3322.45
400.551	3403.21
400.995	3048.64
401.44	3013.28
401.885	2823.72
402.329	2843.83
402.774	2728.18
403.218	2641.5
403.663	2541.73
404.107	2612.22
404.551	2623.27
404.995	2398.98
405.44	2303.77
405.884	2336.68
406.328	2258.36
406.772	2247.67
407.216	2045.71
407.66	1972.92
408.104	1865.38
408.547	1745.57
408.991	1686.61
409.435	1620.39
409.879	1597.75
410.322	1574.38
410.766	1517.51
411.209	1441.5
411.653	1384.57
412.096	1357.59
412.54	1358.66
412.983	1348.94
413.426	1352.19
413.869	1348.46
414.312	1325.43
414.756	1274.59
415.199	1215.26
415.642	1182.25
416.085	1181.9
416.527	1170.94
416.97	1188.83
417.413	1126.55
417.856	1116.69
418.298	1103.06
418.741	1096.75
419.184	1092.81
419.626	1138.32
420.069	1135.58
420.511	1140.84
420.953	1117.75
421.396	1108.43
421.838	1079.02
422.28	1101.14
422.722	1104.9
423.164	1119.48
423.606	1097.72
424.048	1093.59
424.49	1039.53
424.932	1037.65
425.374	1019.79
425.816	1034.53
426.258	1052.21
426.699	1064.09
427.141	1047.63
427.582	1059.59
428.024	1051.95
428.465	1043.95
428.907	1015.47
429.348	1000.46
429.789	998.87
430.231	981.85
430.672	994.25
431.113	969.75
431.554	954.72
431.995	932.2
432.436	903.51
432.877	884.96
433.318	872.32
433.759	870.16
434.2	869.12
434.64	857.92
435.081	859.01
435.522	815
435.962	786.68
436.403	768.17
436.843	777.92
437.284	758.95
437.724	739.69
438.164	740.66
438.604	725.1
439.045	697.69
439.485	670.04
439.925	653.63
440.365	635.1
440.805	625.41
441.245	618.29
441.685	595.2
442.125	589.96
442.564	591.47
443.004	578.05
443.444	576.49
443.883	578.29
444.323	571.61
444.762	570.92
445.202	578.33
445.641	588.2
446.081	582.82
446.52	587.71
446.959	581.32
447.398	567.96
447.837	560.14
448.276	549.23
448.716	552.46
449.154	557.47
449.593	544.72
450.032	544.04
450.471	532.14
450.91	532.66
451.349	530.86
451.787	528.81
452.226	535.28
452.664	536.07
453.103	536
453.541	534.76
453.98	536.48
454.418	539.89
454.856	532.82
455.295	532.33
455.733	535.77
456.171	537.47
456.609	535.93
457.047	535.18
457.485	541.48
457.923	542.7
458.361	535.46
458.798	534.75
459.236	532.41
459.674	532.91
460.111	535.42
460.549	529.51
460.987	527.52
461.424	525.5
461.862	522.15
462.299	513.24
462.736	511.83
463.173	513.88
463.611	509.77
464.048	508.62
464.485	512.37
464.922	506.77
465.359	503.68
465.796	500.36
466.233	498.85
466.67	496.53
467.106	496.68
467.543	491
467.98	483.84
468.416	469.42
468.853	465.29
469.29	451.38
469.726	445.73
470.162	434.18
470.599	425.53
471.035	420.17
471.471	409.56
471.907	405.93
472.344	404.64
472.78	405.48
473.216	409.92
473.652	405.42
474.088	404.56
474.523	403.87
474.959	408.01
475.395	403.6
475.831	402.07
476.266	403.35
476.702	401.83
477.138	395.65
477.573	393.47
478.008	391.88
478.444	393.9
478.879	397.4
479.314	399.33
479.75	398.08
480.185	399.42
480.62	401.76
481.055	403.59
481.49	406.83
481.925	413.75
482.36	421.96
482.795	433.22
483.229	443.73
483.664	452.22
484.099	453.24
484.534	460.18
484.968	465.08
485.403	465.45
485.837	464.37
486.271	462.52
486.706	461.85
487.14	455.72
487.574	448.08
488.009	443.61
488.443	440.21
488.877	444.59
489.311	444.92
489.745	448.82
490.179	453.13
490.613	462.26
491.046	465.96
491.48	469.67
491.914	470.05
492.348	474.11
492.781	476.77
493.215	477.9
493.648	478.99
494.082	483.5
494.515	484.66
494.948	491.31
495.382	494.37
495.815	498.36
496.248	502.42
496.681	511.64
497.114	519.98
497.547	528.9
497.98	538.88
498.413	544.82
498.846	553.06
499.279	560.59
499.711	563.7
500.144	566.8
500.577	576.49
501.009	585.63
501.442	594.88
501.874	597.89
502.306	600.78
502.739	609.56
503.171	622.05
503.603	627.39
504.036	636.99
504.468	644.59
504.9	655.33
505.332	662.86
505.764	670.39
506.196	679.5
506.627	694.06
507.059	707.32
507.491	716.37
507.923	719.28
508.354	734.29
508.786	747.43
509.217	765.5
509.649	782.02
510.08	800.49
510.512	818.13
510.943	834.73
511.374	848.31
511.805	869.79
512.237	890.29
512.668	921.29
513.099	948.53
513.53	975.45
513.961	998.69
514.391	1030.58
514.822	1064.81
515.253	1101.59
515.684	1128.78
516.114	1160.61
516.545	1185.53
516.975	1214.6
517.406	1235.18
517.836	1243.19
518.267	1254.94
518.697	1275.95
519.127	1286.7
519.558	1298.9
519.988	1306.81
520.418	1322.18
520.848	1343.7
521.278	1356.63
521.708	1386.78
522.138	1405.11
522.567	1440.19
522.997	1468.65
523.427	1488.35
523.857	1508.5
524.286	1522.95
524.716	1542.82
525.145	1564.9
525.575	1579.73
526.004	1598.57
526.433	1589.76
526.863	1593.51
527.292	1587.26
527.721	1596.54
528.15	1605.45
528.579	1609.55
529.008	1623.76
529.437	1647.72
529.866	1663.49
530.295	1682.16
530.724	1696.01
531.152	1725.39
531.581	1742.43
532.01	1762.34
532.438	1772.6
532.867	1789.94
533.295	1810.44
533.723	1818.3
534.152	1818.45
534.58	1820.68
535.008	1806.96
535.436	1809.78
535.865	1818.92
536.293	1833.59
536.721	1848.88
537.149	1875.56
537.576	1879.62
538.004	1892.52
538.432	1900.83
538.86	1900.35
539.287	1908.46
539.715	1923.5
540.143	1928.82
540.57	1923.44
540.998	1919.61
541.425	1899.08
541.852	1878.84
542.28	1876.72
542.707	1861.52
543.134	1848.47
543.561	1844.41
543.988	1837.06
544.415	1836.84
544.842	1831.72
545.269	1826.82
545.696	1830.01
546.123	1842.99
546.549	1832.51
546.976	1820.36
547.403	1820.62
547.829	1823.22
548.256	1825.84
548.682	1823.46
549.108	1816.33
549.535	1815.55
549.961	1818.61
550.387	1805.43
550.813	1800.23
551.24	1807.51
551.666	1809.61
552.092	1800.4
552.518	1794.56
552.943	1789.14
553.369	1796.07
553.795	1801.82
554.221	1804.03
554.646	1799.71
555.072	1811.92
555.498	1817.28
555.923	1826.3
556.349	1840.79
556.774	1848.42
557.199	1849.03
557.625	1853.79
558.05	1848.18
558.475	1858.83
558.9	1856.17
559.325	1849.31
559.75	1841.46
560.175	1834.19
560.6	1826.06
561.025	1822.4
561.449	1822.46
561.874	1828
562.299	1832.54
562.723	1837.87
563.148	1826.21
563.572	1829.89
563.997	1836.62
564.421	1839.85
564.846	1838.34
565.27	1841.13
565.694	1837.41
566.118	1847.68
566.542	1852.87
566.966	1843.83
567.39	1836.93
567.814	1824.22
568.238	1821.35
568.662	1823.92
569.086	1824.52
569.509	1829.05
569.933	1811.08
570.357	1800.76
570.78	1776.72
571.204	1760.37
571.627	1746.97
572.05	1742.87
572.474	1739.52
572.897	1723.77
573.32	1713.25
573.743	1700.79
574.166	1680.78
574.589	1677.99
575.012	1668.93
575.435	1665.29
575.858	1653.91
576.281	1641.29
576.704	1623.37
577.126	1609.94
577.549	1598.04
577.972	1587.41
578.394	1576.92
578.817	1568.96
579.239	1549.88
579.661	1535.74
580.084	1519.72
580.506	1505.95
580.928	1501.49
581.35	1490.45
581.772	1484.88
582.194	1470.52
582.616	1457.61
583.038	1441.38
583.46	1429.62
583.882	1425.35
584.303	1427.7
584.725	1422.12
585.147	1424.08
585.568	1431.5
585.99	1441.02
586.411	1445.73
586.833	1458.55
587.254	1459.17
587.675	1472.03
588.096	1482.97
588.518	1477.63
588.939	1461.67
589.36	1459.26
589.781	1447.08
590.202	1420.79
590.623	1411.42
591.043	1407.85
591.464	1394.31
591.885	1388.8
592.305	1381.5
592.726	1367.85
593.147	1367.76
593.567	1361.84
593.987	1354.44
594.408	1349.54
594.828	1347.26
595.248	1342.67
595.669	1325.44
596.089	1319.32
596.509	1314.35
596.929	1301.83
597.349	1301.4
597.769	1291.43
598.189	1284.42
598.608	1285.34
599.028	1287.35
599.448	1285.75
599.867	1272.36
600.287	1268.01
600.706	1262.51
601.126	1251.78
601.545	1250.58
601.965	1248.9
602.384	1243.28
602.803	1244.49
603.222	1237.77
603.641	1228.93
604.061	1224.81
604.48	1219.72
604.898	1225.24
605.317	1229.57
605.736	1230.24
606.155	1226.17
606.574	1216.53
606.992	1220.46
607.411	1215.34
607.829	1212.32
608.248	1209.31
608.666	1205.98
609.085	1204.27
609.503	1195.46
609.921	1188.33
610.339	1189.05
610.758	1186.02
611.176	1180.76
611.594	1171.38
612.012	1166.64
612.43	1163.16
612.847	1166.3
613.265	1166.45
613.683	1169.29
614.101	1168.73
614.518	1163.71
614.936	1152.49
615.353	1139.51
615.771	1134.92
616.188	1133.55
616.606	1129.84
617.023	1121.78
617.44	1109.05
617.857	1101
618.274	1092.13
618.691	1085.5
619.108	1075.38
619.525	1069.09
619.942	1073.24
620.359	1075.11
620.776	1068.4
621.192	1063.22
621.609	1060.5
622.026	1064.67
622.442	1068.05
622.859	1069.28
623.275	1062.46
623.691	1067.02
624.108	1076.66
624.524	1088.46
624.94	1087
625.356	1095.79
625.772	1106.85
626.188	1117.08
626.604	1117.94
627.02	1115.27
627.436	1114.02
627.852	1119.52
628.268	1129.93
628.683	1120.23
629.099	1112.22
629.514	1107.38
629.93	1110.12
630.345	1112.39
630.761	1107.43
631.176	1109.15
631.591	1103.7
632.007	1097.86
632.422	1094.29
632.837	1082.87
633.252	1081.98
633.667	1071.85
634.082	1062.63
634.497	1050.11
634.911	1033.37
635.326	1028.51
635.741	1012.62
636.155	1000.17
636.57	999.42
636.984	998.02
637.399	997.06
637.813	993.19
638.228	989.58
638.642	990.94
639.056	979.21
639.47	975.17
639.884	965.38
640.298	957.5
640.712	953.76
641.126	939.45
641.54	928.23
641.954	920.08
642.368	907.17
642.781	898.61
643.195	880.72
643.609	879.18
644.022	871.04
644.436	864.3
644.849	850.42
645.262	837.76
645.676	835.52
646.089	828.64
646.502	815.03
646.915	807.55
647.328	791.58
647.741	788.7
648.154	775.74
648.567	773.34
648.98	761.99
649.393	761.93
649.805	759.31
650.218	752.63
650.631	740.61
651.043	734.65
651.456	729
651.868	727.33
652.28	738.68
652.693	747.65
653.105	750.63
653.517	756.71
653.929	754.37
654.341	756.52
654.753	746.73
655.165	749.8
655.577	746.57
655.989	741.93
656.401	735.51
656.813	708.37
657.224	692.76
657.636	670.7
658.047	656.32
658.459	641.44
658.87	632.74
659.282	621.64
659.693	606.18
660.104	593.58
660.515	583.09
660.926	582.77
661.338	578.26
661.749	571.67
662.159	564.15
662.57	559.55
662.981	555.67
663.392	549.94
663.803	552.19
664.213	549.25
664.624	545.23
665.035	546
665.445	532.96
665.855	528.94
666.266	523.24
666.676	521.15
667.086	513.84
667.497	513.22
667.907	508.9
668.317	502.73
668.727	502.15
669.137	504.08
669.547	502.66
669.956	504.58
670.366	505.84
670.776	507.69
671.186	510.57
671.595	514.95
672.005	517.6
672.414	519.38
672.824	519.93
673.233	522.09
673.642	525.37
674.052	528.92
674.461	532.7
674.87	535.89
675.279	535.66
675.688	536.97
676.097	539.4
676.506	538.28
676.915	548.91
677.323	552.39
677.732	553.12
678.141	553.51
678.549	547.8
678.958	547.23
679.366	548.83
679.775	552.09
680.183	562.77
680.592	568.2
681	575.24
681.408	571.49
681.816	578.11
682.224	585.06
682.632	594.97
683.04	617.31
683.448	637.18
683.856	661.75
684.264	691.68
684.671	716.26
685.079	747.26
685.487	781.9
685.894	831.99
686.302	874.3
686.709	910.56
687.116	952.19
687.524	990.07
687.931	1022.03
688.338	1052.38
688.745	1078.1
689.152	1110.65
689.559	1152.98
689.966	1195.56
690.373	1222.26
690.78	1263.38
691.187	1322.57
691.593	1370.62
692	1414.74
692.407	1478.59
692.813	1551.96
693.22	1614.99
693.626	1678.43
694.032	1732.31
694.439	1809.98
694.845	1870.95
695.251	1950
695.657	2023.13
696.063	2125.35
696.469	2204.65
696.875	2279.93
697.281	2328.98
697.687	2384.78
698.093	2434.23
698.498	2515.89
