Data from N_3_DEC_CT_2N_Splice17_13-02-15-572.txt Node
Date: Sat Mar 14 13:02:15 EDT 2020
User: sa697716
Spectrometer: FLMS03696
Trigger mode: 0
Integration Time (sec): 3.180400E-1
Scans to average: 20
Electric dark correction enabled: true
Nonlinearity correction enabled: true
Boxcar width: 5
XAxis mode: Wavelengths
Number of Pixels in Spectrum: 2048
>>>>>Begin Spectral Data<<<<<
187.83	-287421.76
188.298	2329.77
188.766	1396.43
189.233	1227.05
189.701	1701.65
190.169	2361.86
190.636	937.87
191.104	762.72
191.571	158.6
192.039	-3.75
192.506	-14.58
192.974	562.31
193.441	-459.77
193.908	183.05
194.375	88.56
194.842	140
195.31	303.41
195.777	258.21
196.244	462.93
196.711	536.2
197.177	653.97
197.644	918.49
198.111	1586.02
198.578	2198.14
199.045	1779.79
199.511	2873.28
199.978	3359.01
200.445	2827.57
200.911	3140.5
201.378	3501.78
201.844	3163.7
202.31	5410.37
202.777	5632.47
203.243	3111.8
203.709	2953.41
204.176	3511.12
204.642	2919.44
205.108	2726.19
205.574	2232.35
206.04	2020.71
206.506	1897.59
206.972	1810.4
207.438	1753.28
207.903	1998.15
208.369	1749.03
208.835	1746.48
209.301	1833.28
209.766	1860.11
210.232	1838.65
210.697	2268.06
211.163	2816.43
211.628	4275.56
212.094	3589.69
212.559	4388.36
213.024	2736.85
213.49	3356.17
213.955	3281.97
214.42	3221.39
214.885	3006.36
215.35	2903.67
215.815	2804.64
216.28	2988.88
216.745	2453.37
217.21	2656.32
217.675	2479.55
218.14	2816
218.604	3191.83
219.069	3683.55
219.534	3882.92
219.998	4565.47
220.463	5579.06
220.927	6941.14
221.392	6585.31
221.856	6696.02
222.32	8485.7
222.785	10513.42
223.249	13279.2
223.713	14832.05
224.177	14880.72
224.642	19164.63
225.106	23654.04
225.57	25906.75
226.034	19298.34
226.497	29382.1
226.961	26534.52
227.425	30941.21
227.889	34338.08
228.353	34391.6
228.816	71089.5
229.28	67987.77
229.744	57336.78
230.207	34813.46
230.671	34271.81
231.134	56700.7
231.597	65452.18
232.061	65515.9
232.524	63928.78
232.987	44072.18
233.45	39643.18
233.914	35566.14
234.377	36474.92
234.84	33420.61
235.303	39512.84
235.766	44038.38
236.229	45537.68
236.691	28693.81
237.154	32255.88
237.617	24263.31
238.08	24871.1
238.542	29126.45
239.005	20834.7
239.468	20682.62
239.93	19488.18
240.393	17689.33
240.855	15529.59
241.317	15898.82
241.78	19339.5
242.242	19982.08
242.704	21574.03
243.166	18767.49
243.629	17045.92
244.091	19647.16
244.553	21539.17
245.015	23155.85
245.477	29984.38
245.939	44034.46
246.4	46745.29
246.862	45467.08
247.324	42900.31
247.786	48031.13
248.247	63077.51
248.709	65222.13
249.17	48805.92
249.632	46015.84
250.093	53369.05
250.555	46078.68
251.016	28119.33
251.477	26723.57
251.939	28819.64
252.4	30258.35
252.861	36042.5
253.322	33553.14
253.783	39943.79
254.244	51872.78
254.705	40923.44
255.166	36461.79
255.627	35927.7
256.088	50721.26
256.549	53910.9
257.009	46518.66
257.47	56519.6
257.931	46065.57
258.391	34515.23
258.852	35613.28
259.312	37345.84
259.773	46198.24
260.233	39036.91
260.694	32962.43
261.154	37438.95
261.614	30037.13
262.074	26897.73
262.534	27960.71
262.994	26365.38
263.455	35165.44
263.915	29655.83
264.374	27946.26
264.834	30505
265.294	33848.71
265.754	35075.15
266.214	33202.28
266.673	31173.59
267.133	39349.88
267.593	39075.63
268.052	47827.43
268.512	41602.52
268.971	50166.23
269.431	55041.81
269.89	49329.47
270.349	73963.16
270.809	82462.96
271.268	74161.14
271.727	166166.59
272.186	107699.51
272.645	80732.7
273.104	58261.87
273.563	84392.84
274.022	66411.42
274.481	56488.35
274.94	43528.75
275.399	32363.75
275.857	37694.06
276.316	50983.9
276.775	45410.36
277.233	44693.05
277.692	41831.04
278.15	47319.93
278.609	48666.73
279.067	45033.06
279.525	41832.45
279.984	54020.91
280.442	64857.19
280.9	63997.57
281.358	42086.27
281.816	39212.21
282.274	38392.58
282.732	39697.47
283.19	39906.82
283.648	34423.73
284.106	36633.45
284.564	37260.45
285.021	34559.54
285.479	25792.67
285.937	23457
286.394	20590.13
286.852	21172.18
287.309	22263.11
287.767	21502.42
288.224	20472.08
288.682	22498.07
289.139	24732.71
289.596	22628.17
290.053	23519.05
290.511	29643.98
290.968	35977.13
291.425	48827.45
291.882	40661.93
292.339	35394.43
292.796	35142.93
293.252	33107.66
293.709	26272.85
294.166	23543.05
294.623	26019.15
295.079	24989.14
295.536	25114.43
295.992	22773.93
296.449	22513.33
296.905	23364.41
297.362	22376.95
297.818	23524.31
298.274	24387.79
298.731	24873.32
299.187	24621.32
299.643	26466.41
300.099	31970.96
300.555	35065.89
301.011	29317.71
301.467	28216.63
301.923	33075.13
302.379	32287.69
302.835	31713.75
303.291	31743.48
303.746	36141.76
304.202	45600.85
304.658	45735.28
305.113	30778.92
305.569	30128.38
306.024	32082.89
306.479	30593.41
306.935	25810.68
307.39	28228.97
307.845	26052.02
308.301	26225.72
308.756	25527.46
309.211	24602.13
309.666	25207.51
310.121	31251.76
310.576	31768.49
311.031	31573.15
311.486	36159.03
311.94	36092.66
312.395	48260.26
312.85	90711.51
313.305	444975.34
313.759	2300126.57
314.214	166538.2
314.668	131870.73
315.123	110846.94
315.577	39659.39
316.032	35223.06
316.486	44120.67
316.94	34771.9
317.394	24214.95
317.849	18819.29
318.303	17839.1
318.757	16837.07
319.211	18655.84
319.665	16347.39
320.119	16570.54
320.572	23798.23
321.026	22213.73
321.48	18496.28
321.934	20195.82
322.387	20231.03
322.841	21867.36
323.295	19615.97
323.748	22625.92
324.202	22898.32
324.655	27472.79
325.108	38309.29
325.562	27052.41
326.015	32185.16
326.468	24292.06
326.921	27131.79
327.374	25257.83
327.827	26264.6
328.28	29733.9
328.733	19901.45
329.186	17494.11
329.639	16660.91
330.092	14049.41
330.545	13381.99
330.997	13479.39
331.45	14736.14
331.903	17248.29
332.355	29690.22
332.808	28836.68
333.26	23798.14
333.713	25804.3
334.165	25994.43
334.617	34716.25
335.069	28016.98
335.522	50568.65
335.974	56014.52
336.426	51203.17
336.878	35476.25
337.33	17992.77
337.782	17567.94
338.234	21992.9
338.686	26311.28
339.137	31147.4
339.589	29337.33
340.041	23004.06
340.493	19771.34
340.944	20212.82
341.396	21745.1
341.847	18289.37
342.299	21557.18
342.75	26303.64
343.201	22956.06
343.653	26420.44
344.104	32495.95
344.555	25533.82
345.006	39749.46
345.457	30427.66
345.908	24196.96
346.359	22746.38
346.81	18535.12
347.261	19510.39
347.712	19238.12
348.163	20615.31
348.613	20836.71
349.064	19426.57
349.515	17020.64
349.965	17444.82
350.416	20987.57
350.866	23042.83
351.317	26060.22
351.767	43095.93
352.217	54512.57
352.668	45167.58
353.118	41409.9
353.568	39944.03
354.018	31565.76
354.468	33246.51
354.918	23831.81
355.368	20853.84
355.818	29412.77
356.268	84659.23
356.718	353930.14
357.168	88081.53
357.617	44167.96
358.067	49125.52
358.517	45996.53
358.966	53938.43
359.416	60480.27
359.865	65275.77
360.315	77685.73
360.764	36275.27
361.213	20287.82
361.663	19247.41
362.112	23735.4
362.561	38350.72
363.01	28907.46
363.459	24323.44
363.908	26313.94
364.357	22348.3
364.806	37792.29
365.255	25978.37
365.703	23810.28
366.152	23808.15
366.601	19280.78
367.05	15650.58
367.498	14211.19
367.947	14832.05
368.395	15406.57
368.844	13641.73
369.292	16423.34
369.74	11327.43
370.189	17331.58
370.637	20289.05
371.085	17517.23
371.533	21329.17
371.981	20551.3
372.429	19565.45
372.877	20361.66
373.325	17044.47
373.773	17316.82
374.221	15401.35
374.669	19138.32
375.116	16567.75
375.564	16669.66
376.012	18602.63
376.459	15297.2
376.907	18253.48
377.354	22047.83
377.801	20530.66
378.249	23546.03
378.696	30052.89
379.143	36347.54
379.591	38548.08
380.038	65099.98
380.485	46940.63
380.932	50662.51
381.379	46277.78
381.826	33958.4
382.273	24106.99
382.72	21061.82
383.166	20488.1
383.613	13299.3
384.06	11997.48
384.506	13913.39
384.953	10196.51
385.4	10262.34
385.846	8986.61
386.292	8745.82
386.739	8541.8
387.185	8434.06
387.631	8412.16
388.078	8157.92
388.524	8704.72
388.97	8013.2
389.416	6659.3
389.862	7056.31
390.308	6676.31
390.754	6759.33
391.2	7324.44
391.645	7485.75
392.091	7155.27
392.537	6916.11
392.983	6910.38
393.428	6795.43
393.874	7265.91
394.319	7272.72
394.765	6895.27
395.21	7079.23
395.655	6629.02
396.101	6192.08
396.546	5586.23
396.991	5616.11
397.436	5208.1
397.881	5029.96
398.326	4752.58
398.771	4491.74
399.216	3928.29
399.661	3530.12
400.106	3509.78
400.551	3588.34
400.995	3225.41
401.44	3189.24
401.885	2992.32
402.329	3017.87
402.774	2894.01
403.218	2796.06
403.663	2687.57
404.107	2757.63
404.551	2774.48
404.995	2541.27
405.44	2443.86
405.884	2472.8
406.328	2386.3
406.772	2381.77
407.216	2166.2
407.66	2084.8
408.104	1977.44
408.547	1853.93
408.991	1792.08
409.435	1724.26
409.879	1698.25
410.322	1674.46
410.766	1616.22
411.209	1536.83
411.653	1471.23
412.096	1441.66
412.54	1443.52
412.983	1433.61
413.426	1435.5
413.869	1430.04
414.312	1401.46
414.756	1348.71
415.199	1285.05
415.642	1245.72
416.085	1247.62
416.527	1237.54
416.97	1254.93
417.413	1189.52
417.856	1174.71
418.298	1161.05
418.741	1152.84
419.184	1148.68
419.626	1194.94
420.069	1194.23
420.511	1202.37
420.953	1173.96
421.396	1163.33
421.838	1131.28
422.28	1156.41
422.722	1164.32
423.164	1180.42
423.606	1163.34
424.048	1160.81
424.49	1104.9
424.932	1100.08
425.374	1083.59
425.816	1105
426.258	1125.54
426.699	1141.06
427.141	1121.75
427.582	1135.47
428.024	1127.3
428.465	1118.55
428.907	1089.26
429.348	1074.73
429.789	1073.17
430.231	1050.6
430.672	1063.13
431.113	1037.61
431.554	1019.68
431.995	995.8
432.436	963.84
432.877	943.52
433.318	927.49
433.759	922.31
434.2	922.35
434.64	912.24
435.081	911.99
435.522	861.35
435.962	827.79
436.403	811.89
436.843	821.27
437.284	798.92
437.724	776.55
438.164	775.63
438.604	759.42
439.045	729.85
439.485	699.46
439.925	684.07
440.365	665.7
440.805	657.28
441.245	647.61
441.685	622.97
442.125	618.41
442.564	622.18
443.004	609.02
443.444	607.39
443.883	607.8
444.323	604.31
444.762	606.42
445.202	615.37
445.641	626.77
446.081	623.08
446.52	628.78
446.959	623.68
447.398	609.44
447.837	602.97
448.276	592.54
448.716	597.59
449.154	601.33
449.593	586.19
450.032	584.53
450.471	573.21
450.91	573.07
451.349	570.93
451.787	566.22
452.226	572.81
452.664	571.9
453.103	572.17
453.541	570.17
453.98	570.26
454.418	573.84
454.856	563.2
455.295	561.88
455.733	564.27
456.171	567
456.609	567.91
457.047	569.38
457.485	576.47
457.923	577.31
458.361	568.68
458.798	568.64
459.236	566.15
459.674	570.13
460.111	572.33
460.549	567.48
460.987	564.64
461.424	561.5
461.862	556.88
462.299	548.77
462.736	548.63
463.173	550.84
463.611	546.81
464.048	545.5
464.485	550.03
464.922	544.59
465.359	540.23
465.796	536.55
466.233	534.03
466.67	529.77
467.106	528.58
467.543	520.9
467.98	514.7
468.416	498.93
468.853	495.3
469.29	479.49
469.726	473.94
470.162	462.53
470.599	454.22
471.035	450.13
471.471	439.2
471.907	435.41
472.344	434.12
472.78	434.7
473.216	440.67
473.652	434.65
474.088	433.79
474.523	433.37
474.959	437.18
475.395	433.04
475.831	429.17
476.266	431.07
476.702	430.15
477.138	425.73
477.573	424.05
478.008	422.17
478.444	424.43
478.879	428.29
479.314	429.08
479.75	428.83
480.185	430.19
480.62	434.14
481.055	436.01
481.49	439.67
481.925	444.91
482.36	453.47
482.795	465.43
483.229	477.55
483.664	487.56
484.099	489.08
484.534	496.36
484.968	500.97
485.403	501.49
485.837	500.4
486.271	498.03
486.706	498.28
487.14	491.21
487.574	483.52
488.009	479.1
488.443	474.38
488.877	479.41
489.311	480.27
489.745	485.4
490.179	490.76
490.613	500.19
491.046	504.77
491.48	508.71
491.914	508.96
492.348	512.6
492.781	515.45
493.215	516.82
493.648	517.5
494.082	522.03
494.515	523.25
494.948	529.67
495.382	533.15
495.815	536.84
496.248	541.76
496.681	552.93
497.114	562.14
497.547	571.33
497.98	583.14
498.413	589.32
498.846	598.44
499.279	606.32
499.711	610.16
500.144	612.95
500.577	623.59
501.009	633.82
501.442	643.33
501.874	646.63
502.306	649.39
502.739	658.5
503.171	672.7
503.603	677.5
504.036	687.71
504.468	695.52
504.9	708.29
505.332	715.66
505.764	722.35
506.196	731.32
506.627	746.65
507.059	761.67
507.491	770.85
507.923	772.62
508.354	788.68
508.786	800.34
509.217	819.6
509.649	835.39
510.08	855.84
510.512	874.3
510.943	891.58
511.374	905.74
511.805	928.01
512.237	949.54
512.668	982.52
513.099	1011.14
513.53	1040.63
513.961	1063.68
514.391	1097.27
514.822	1132.39
515.253	1170.49
515.684	1197.88
516.114	1229.4
516.545	1253.87
516.975	1282.47
517.406	1304.05
517.836	1311.34
518.267	1322.76
518.697	1345.85
519.127	1355.96
519.558	1367.8
519.988	1375.8
520.418	1391.34
520.848	1413.29
521.278	1427.34
521.708	1456.42
522.138	1473.15
522.567	1507.73
522.997	1536.61
523.427	1554.93
523.857	1575.32
524.286	1589.92
524.716	1608.15
525.145	1629.79
525.575	1644.95
526.004	1661.99
526.433	1652.89
526.863	1656.94
527.292	1651.12
527.721	1660.15
528.15	1669.04
528.579	1672.4
529.008	1686.13
529.437	1711.98
529.866	1728.83
530.295	1747.51
530.724	1762.93
531.152	1792.56
531.581	1808.92
532.01	1829.04
532.438	1838.8
532.867	1854.91
533.295	1874.78
533.723	1881.94
534.152	1881.28
534.58	1882.66
535.008	1868.15
535.436	1870.45
535.865	1878.97
536.293	1894.84
536.721	1911.87
537.149	1939.79
537.576	1943.66
538.004	1957.81
538.432	1966.22
538.86	1965.5
539.287	1973.06
539.715	1988.22
540.143	1992.29
540.57	1988.74
540.998	1985.77
541.425	1962.17
541.852	1940.72
542.28	1939.32
542.707	1921.6
543.134	1908.51
543.561	1905.01
543.988	1897.52
544.415	1897.65
544.842	1892.41
545.269	1886.49
545.696	1887.98
546.123	1901.93
546.549	1891.3
546.976	1878.44
547.403	1880.48
547.829	1882.74
548.256	1884.88
548.682	1882.6
549.108	1874.53
549.535	1874.59
549.961	1877.66
550.387	1865.24
550.813	1858.64
551.24	1866.96
551.666	1868.34
552.092	1859.38
552.518	1853.26
552.943	1848.07
553.369	1855.63
553.795	1862.46
554.221	1864.19
554.646	1860.66
555.072	1872.61
555.498	1879.53
555.923	1888.06
556.349	1904.16
556.774	1912.62
557.199	1914.35
557.625	1920.48
558.05	1914.19
558.475	1924.78
558.9	1923.83
559.325	1915.47
559.75	1907.14
560.175	1899.49
560.6	1892.83
561.025	1891.03
561.449	1891.42
561.874	1896.01
562.299	1898.61
562.723	1905.75
563.148	1895.11
563.572	1897.69
563.997	1907.44
564.421	1913.09
564.846	1913.27
565.27	1915.83
565.694	1911.12
566.118	1921.65
566.542	1928.46
566.966	1919.8
567.39	1912.47
567.814	1897.95
568.238	1894.94
568.662	1898.11
569.086	1899.03
569.509	1903.5
569.933	1885.17
570.357	1875.35
570.78	1851.28
571.204	1835.16
571.627	1822.64
572.05	1819.44
572.474	1817.38
572.897	1803.39
573.32	1794.08
573.743	1781.05
574.166	1760.84
574.589	1759.39
575.012	1750.93
575.435	1748.71
575.858	1737.89
576.281	1726.39
576.704	1709.05
577.126	1695.94
577.549	1683.66
577.972	1672.27
578.394	1660
578.817	1652.26
579.239	1633.16
579.661	1619.26
580.084	1602.06
580.506	1588.21
580.928	1583.08
581.35	1571.09
581.772	1565.47
582.194	1550.59
582.616	1535.91
583.038	1521.99
583.46	1510.44
583.882	1506.1
584.303	1508.46
584.725	1504.73
585.147	1505.58
585.568	1514.92
585.99	1526.9
586.411	1533.25
586.833	1548.09
587.254	1550.39
587.675	1563.93
588.096	1575.84
588.518	1569.99
588.939	1553
589.36	1550.55
589.781	1539.82
590.202	1511.21
590.623	1500.72
591.043	1496.53
591.464	1483.43
591.885	1478.75
592.305	1472.28
592.726	1458.44
593.147	1458.71
593.567	1452.97
593.987	1444.18
594.408	1439.3
594.828	1436.68
595.248	1430.63
595.669	1413.65
596.089	1405.92
596.509	1398.08
596.929	1384.28
597.349	1383.95
597.769	1374.08
598.189	1367.64
598.608	1367.42
599.028	1367.95
599.448	1367.39
599.867	1355.8
600.287	1350.15
600.706	1345.57
601.126	1336.2
601.545	1334.59
601.965	1332.46
602.384	1326.13
602.803	1327.45
603.222	1322.52
603.641	1315.77
604.061	1310.97
604.48	1304.77
604.898	1312.73
605.317	1316.46
605.736	1316.54
606.155	1313
606.574	1303.02
606.992	1307.45
607.411	1302.03
607.829	1298.99
608.248	1294.32
608.666	1291.19
609.085	1289.72
609.503	1279.75
609.921	1272.3
610.339	1273.58
610.758	1271.61
611.176	1266.9
611.594	1257.14
612.012	1252.96
612.43	1248.93
612.847	1253.51
613.265	1252.15
613.683	1255.18
614.101	1254.77
614.518	1249.75
614.936	1238.69
615.353	1224.3
615.771	1219.31
616.188	1217.31
616.606	1212.15
617.023	1203.18
617.44	1188.69
617.857	1181.97
618.274	1172.6
618.691	1165.31
619.108	1155.31
619.525	1148.86
619.942	1152.84
620.359	1154.54
620.776	1148.5
621.192	1143.88
621.609	1141.82
622.026	1147.89
622.442	1152.06
622.859	1154.81
623.275	1147.92
623.691	1153.03
624.108	1163.08
624.524	1175.89
624.94	1175.33
625.356	1184.97
625.772	1196.26
626.188	1207.3
626.604	1207.06
627.02	1202.96
627.436	1200.45
627.852	1207.52
628.268	1217.23
628.683	1207.3
629.099	1199.56
629.514	1195.66
629.93	1198.79
630.345	1202.81
630.761	1197.26
631.176	1200.61
631.591	1195.08
632.007	1188.5
632.422	1184.74
632.837	1174.16
633.252	1172.01
633.667	1160.73
634.082	1150.04
634.497	1136.48
634.911	1117.85
635.326	1113.06
635.741	1095.36
636.155	1084.65
636.57	1084.15
636.984	1081.7
637.399	1080.69
637.813	1078.56
638.228	1074.52
638.642	1075.25
639.056	1064.21
639.47	1060.66
639.884	1050.7
640.298	1042.76
640.712	1039.09
641.126	1024.1
641.54	1012.66
641.954	1004.28
642.368	990.61
642.781	981.31
643.195	962.89
643.609	959.53
644.022	951.36
644.436	944.54
644.849	930.53
645.262	916.7
645.676	914.84
646.089	908.62
646.502	894.3
646.915	886.14
647.328	869.4
647.741	865.98
648.154	852.99
648.567	849.64
648.98	836.58
649.393	834.39
649.805	829.76
650.218	823.21
650.631	810.02
651.043	802.79
651.456	797.01
651.868	796.49
652.28	809.08
652.693	818.32
653.105	820.47
653.517	827.24
653.929	827.3
654.341	830.13
654.753	818.25
655.165	820.61
655.577	817.44
655.989	812.16
656.401	803.17
656.813	773.04
657.224	755.58
657.636	732.18
658.047	717.79
658.459	700.73
658.87	691.39
659.282	680.43
659.693	662.3
660.104	649.18
660.515	636.96
660.926	635.33
661.338	630.42
661.749	622.98
662.159	614.62
662.57	608.36
662.981	603.52
663.392	596.54
663.803	599.56
664.213	596.64
664.624	592.41
665.035	592.7
665.445	579.81
665.855	573.93
666.266	568.58
666.676	566.1
667.086	559.22
667.497	558.58
667.907	553.96
668.317	545.32
668.727	544.77
669.137	545.14
669.547	544.57
669.956	546.98
670.366	549.37
670.776	550.6
671.186	553.94
671.595	557.92
672.005	559.91
672.414	560.9
672.824	561.36
673.233	562.77
673.642	565.23
674.052	567.97
674.461	571.04
674.87	574.67
675.279	575.45
675.688	576.25
676.097	577.84
676.506	576.84
676.915	588.49
677.323	591.81
677.732	592.74
678.141	593.64
678.549	587.4
678.958	588.03
679.366	588.94
679.775	592.59
680.183	604.28
680.592	610.24
681	616.34
681.408	613.03
681.816	621.13
682.224	629.14
682.632	638.74
683.04	663.28
683.448	684.39
683.856	711.61
684.264	742.96
684.671	770.11
685.079	804.1
685.487	843.65
685.894	897.82
686.302	943.86
686.709	985.14
687.116	1031.98
687.524	1073.31
687.931	1108.76
688.338	1141.19
688.745	1169.28
689.152	1201.76
689.559	1244.55
689.966	1287.79
690.373	1312.91
690.78	1354.97
691.187	1416.93
691.593	1466.72
692	1510.18
692.407	1573.85
692.813	1652.37
693.22	1715.92
693.626	1782.8
694.032	1836.79
694.439	1916.32
694.845	1980.48
695.251	2059.58
695.657	2131.21
696.063	2234.45
696.469	2315.29
696.875	2390.93
697.281	2435.44
697.687	2490.87
698.093	2537.01
