Data from N_3_HIR_IL_4N_Splice17_13-40-53-621.txt Node
Date: Sat Mar 14 13:40:53 EDT 2020
User: sa697716
Spectrometer: FLMS03696
Trigger mode: 0
Integration Time (sec): 3.180400E-1
Scans to average: 20
Electric dark correction enabled: true
Nonlinearity correction enabled: true
Boxcar width: 5
XAxis mode: Wavelengths
Number of Pixels in Spectrum: 2048
>>>>>Begin Spectral Data<<<<<
187.83	-496993.25
188.298	3641.92
188.766	1933.89
189.233	1811.63
189.701	2498.68
190.169	3431.2
190.636	1233.56
191.104	1023.63
191.571	130.68
192.039	-78.46
192.506	-89.03
192.974	665.3
193.441	-801.58
193.908	-164.07
194.375	-46.83
194.842	77.33
195.31	141.88
195.777	157.35
196.244	444.4
196.711	500.46
197.177	643.81
197.644	929.02
198.111	1627.24
198.578	2263.94
199.045	1837
199.511	3024.64
199.978	3481.97
200.445	2966.69
200.911	3282.36
201.378	3636.86
201.844	3278.01
202.31	5589.18
202.777	5844.86
203.243	3259.87
203.709	3108.82
204.176	3684.85
204.642	3050.29
205.108	2854.84
205.574	2335.93
206.04	2111.64
206.506	1983.21
206.972	1877.54
207.438	1818.81
207.903	2049.92
208.369	1789.5
208.835	1767.91
209.301	1869.53
209.766	1891.81
210.232	1859.56
210.697	2290.77
211.163	2824.11
211.628	4265.44
212.094	3561.33
212.559	4375.15
213.024	2726.85
213.49	3333.58
213.955	3257.37
214.42	3151.5
214.885	2954.13
215.35	2843.96
215.815	2766.48
216.28	2944.42
216.745	2377.64
217.21	2577.05
217.675	2337.72
218.14	2601.39
218.604	2875.57
219.069	3278.02
219.534	3436.63
219.998	3955.76
220.463	4756.74
220.927	5777.49
221.392	5409.48
221.856	5486.17
222.32	6877.05
222.785	8488.63
223.249	10683.16
223.713	11911.54
224.177	11889.59
224.642	15181
225.106	18683.96
225.57	20411.05
226.034	15207.14
226.497	23161.68
226.961	20907.14
227.425	24351.3
227.889	26963.68
228.353	26970.17
228.816	55669.65
229.28	53151.94
229.744	44811.06
230.207	27259.02
230.671	26797.83
231.134	44215.89
231.597	51008.21
232.061	50913.1
232.524	49574.37
232.987	34125.86
233.45	30679.37
233.914	27430.36
234.377	28092.83
234.84	25678.6
235.303	30189.44
235.766	33651.49
236.229	34770.26
236.691	21843.9
237.154	24533.82
237.617	18450.28
238.08	18881.58
238.542	22081.49
239.005	15801.78
239.468	15663.79
239.93	14757.32
240.393	13402.34
240.855	11760.42
241.317	12017.45
241.78	14612.5
242.242	15109.28
242.704	16342.7
243.166	14218.74
243.629	12947.62
244.091	14924.91
244.553	16378.3
245.015	17595.97
245.477	22768.77
245.939	33360.57
246.4	35447.41
246.862	34442.01
247.324	32435.29
247.786	36210.68
248.247	47525.12
248.709	48915.07
249.17	36564.76
249.632	34486.33
250.093	40050.29
250.555	34611.28
251.016	21145.66
251.477	20061.46
251.939	21683.42
252.4	22757.43
252.861	27071.51
253.322	25182.69
253.783	29980.89
254.244	38885.75
254.705	30616.37
255.166	27224.89
255.627	26792.23
256.088	37785.3
256.549	40142.03
257.009	34540.37
257.47	41884.73
257.931	34108.31
258.391	25541.45
258.852	26350.99
259.312	27613.76
259.773	34130.1
260.233	28857.02
260.694	24356.26
261.154	27596.42
261.614	22176.55
262.074	19826.22
262.534	20627.48
262.994	19455.51
263.455	25939.79
263.915	21831.8
264.374	20583.76
264.834	22473.93
265.294	24900.88
265.754	25812.57
266.214	24418.08
266.673	22859.94
267.133	28865.28
267.593	28625.17
268.052	35016.15
268.512	30429.57
268.971	36738.76
269.431	40278.16
269.89	36049.96
270.349	54077.81
270.809	60302.78
271.268	54313.7
271.727	121764.77
272.186	78896.45
272.645	59198.71
273.104	42701.91
273.563	61843.49
274.022	48596.1
274.481	41361.17
274.94	31876.78
275.399	23659.29
275.857	27548.69
276.316	37202.36
276.775	33155.4
277.233	32668.38
277.692	30619.92
278.15	34677.41
278.609	35720.91
279.067	33067.36
279.525	30728.63
279.984	39672.67
280.442	47701.67
280.9	47020.11
281.358	30961.97
281.816	28830.17
282.274	28223.54
282.732	29088.94
283.19	29188.88
283.648	25182.5
284.106	26822.73
284.564	27243.38
285.021	25286.91
285.479	18814.79
285.937	17095.03
286.394	14993.64
286.852	15429.71
287.309	16179.72
287.767	15657.43
288.224	14877.84
288.682	16296.91
289.139	17875.23
289.596	16344.99
290.053	16960.14
290.511	21388.06
290.968	25944.43
291.425	35202.36
291.882	29297.02
292.339	25510.93
292.796	25270.11
293.252	23798.24
293.709	18915.48
294.166	16951.86
294.623	18743.08
295.079	17983.17
295.536	18097.27
295.992	16404.14
296.449	16212.92
296.905	16830.12
297.362	16136.97
297.818	16948.12
298.274	17611.02
298.731	17911.57
299.187	17683.55
299.643	18950.16
300.099	22902.49
300.555	25089.61
301.011	20970.99
301.467	20247.06
301.923	23664.93
302.379	23116.6
302.835	22720.35
303.291	22699.44
303.746	25826.39
304.202	32648.59
304.658	32806.02
305.113	22065.31
305.569	21609.88
306.024	22990.06
306.479	21833.84
306.935	18422.82
307.39	20060.37
307.845	18489.07
308.301	18627.29
308.756	18110.95
309.211	17455.94
309.666	17892.8
310.121	22218.61
310.576	22519.08
311.031	22363.73
311.486	25572.04
311.94	25506.32
312.395	34165.04
312.85	64203.1
313.305	314970.58
313.759	1636331.98
314.214	118693.38
314.668	93921.26
315.123	78957.86
315.577	28310.32
316.032	25168.36
316.486	31529.71
316.94	24874.39
317.394	17315.15
317.849	13466.02
318.303	12727.68
318.757	11990.16
319.211	13223.09
319.665	11580.03
320.119	11699.27
320.572	16756.89
321.026	15640.98
321.48	13014.32
321.934	14195.8
322.387	14201.31
322.841	15332.44
323.295	13823.38
323.748	15908.4
324.202	16158.53
324.655	19389.45
325.108	27124.57
325.562	19186.12
326.015	22821.22
326.468	17249.47
326.921	19281
327.374	17982.81
327.827	18747.71
328.28	21224.15
328.733	14225.67
329.186	12490.85
329.639	11898.25
330.092	10017.56
330.545	9528.43
330.997	9604.33
331.45	10522.49
331.903	12343.53
332.355	21213.12
332.808	20586.76
333.26	16926.12
333.713	18414.54
334.165	18534.61
334.617	24700.12
335.069	19945.53
335.522	36030.54
335.974	39905
336.426	36327.83
336.878	25113.37
337.33	12747.61
337.782	12428.54
338.234	15611.08
338.686	18642.02
339.137	22071.37
339.589	20792.28
340.041	16294.84
340.493	13995
340.944	14331.22
341.396	15471.76
341.847	13027.97
342.299	15384.99
342.75	18800.28
343.201	16384.48
343.653	18813.34
344.104	23128.77
344.555	18210.19
345.006	28306.53
345.457	21767.98
345.908	17284.23
346.359	16241.2
346.81	13218.18
347.261	13906.95
347.712	13675.48
348.163	14642.87
348.613	14860.87
349.064	13868.95
349.515	12130
349.965	12439.71
350.416	14938.31
350.866	16392.03
351.317	18502.89
351.767	30611.12
352.217	38680.25
352.668	32095.81
353.118	29431.48
353.568	28288.4
354.018	22390.67
354.468	23634.91
354.918	16946.16
355.368	14856.24
355.818	20998.48
356.268	60351.91
356.718	253313.34
357.168	63143.34
357.617	31653.97
358.067	35109.32
358.517	32917.93
358.966	38583.37
359.416	43319.71
359.865	46751.31
360.315	55429.76
360.764	25832.61
361.213	14485.1
361.663	13672.37
362.112	16848.22
362.561	27247.6
363.01	20630.59
363.459	17345.36
363.908	18742.61
364.357	15897.21
364.806	26892.42
365.255	18538.09
365.703	17019.73
366.152	17035.36
366.601	13819.72
367.05	11214.07
367.498	10170.83
367.947	10590.15
368.395	11013.33
368.844	9775.91
369.292	11776.23
369.74	8132.13
370.189	12429.27
370.637	14522.59
371.085	12526.22
371.533	15212.25
371.981	14626.02
372.429	14000.97
372.877	14538.68
373.325	12159.33
373.773	12350.8
374.221	10971.73
374.669	13619.82
375.116	11754.82
375.564	11864.28
376.012	13237.18
376.459	10934.17
376.907	13072.14
377.354	15743.85
377.801	14746.81
378.249	16943.49
378.696	21647.49
379.143	26180.82
379.591	27792.54
380.038	47046.8
380.485	34007.96
380.932	36726.41
381.379	33604.9
381.826	24797.26
382.273	17611.69
382.72	15317.76
383.166	14962.28
383.613	9698.08
384.06	8758.83
384.506	10146.05
384.953	7451.23
385.4	7488.4
385.846	6553.33
386.292	6363.51
386.739	6201.33
387.185	6113.8
387.631	6129.11
388.078	5947.07
388.524	6352.24
388.97	5870.96
389.416	4903.09
389.862	5211.96
390.308	4928.68
390.754	5010.22
391.2	5442.49
391.645	5578.94
392.091	5384.16
392.537	5207.6
392.983	5206.73
393.428	5149.97
393.874	5513.29
394.319	5543.95
394.765	5268.85
395.21	5410.42
395.655	5074.25
396.101	4757.23
396.546	4299.52
396.991	4314.74
397.436	4007.98
397.881	3873.5
398.326	3656.99
398.771	3465.66
399.216	3029.6
399.661	2726.83
400.106	2728.08
400.551	2805.33
400.995	2524.21
401.44	2496.55
401.885	2348.18
402.329	2379.82
402.774	2288.98
403.218	2233.91
403.663	2158.5
404.107	2221.66
404.551	2245.94
404.995	2061.37
405.44	1982.97
405.884	2013.73
406.328	1948.36
406.772	1944.61
407.216	1774.55
407.66	1713.02
408.104	1615.66
408.547	1511.27
408.991	1464.88
409.435	1408.95
409.879	1395.36
410.322	1381.12
410.766	1339.37
411.209	1278.14
411.653	1231.18
412.096	1207.24
412.54	1211.11
412.983	1209.86
413.426	1217.83
413.869	1215.55
414.312	1197.56
414.756	1153.08
415.199	1100.28
415.642	1067.09
416.085	1071.96
416.527	1066.4
416.97	1085.33
417.413	1030.25
417.856	1017.96
418.298	1005.22
418.741	998.82
419.184	992.85
419.626	1031.05
420.069	1030.07
420.511	1037.3
420.953	1016.69
421.396	1007.76
421.838	978.41
422.28	1002.57
422.722	1010.17
423.164	1026.02
423.606	1011.68
424.048	1010.08
424.49	963.89
424.932	961.35
425.374	947.22
425.816	959.65
426.258	978.18
426.699	992.4
427.141	977.61
427.582	989.32
428.024	982.41
428.465	973.52
428.907	951.63
429.348	937.83
429.789	940.68
430.231	922.82
430.672	937.15
431.113	912.6
431.554	898.21
431.995	874.58
432.436	847.52
432.877	833.01
433.318	822.37
433.759	816.38
434.2	819.21
434.64	809.19
435.081	811.52
435.522	768.72
435.962	739.9
436.403	726.15
436.843	734.12
437.284	715.59
437.724	692.57
438.164	690.39
438.604	675.3
439.045	648
439.485	622.29
439.925	606.99
440.365	591.41
440.805	582.7
441.245	576.02
441.685	556.48
442.125	550.44
442.564	553.19
443.004	541.45
443.444	541.76
443.883	544.78
444.323	538.01
444.762	538.74
445.202	545.22
445.641	558.02
446.081	551.23
446.52	555.77
446.959	555.19
447.398	544.62
447.837	540.55
448.276	530.29
448.716	534.04
449.154	540.06
449.593	528.97
450.032	529.57
450.471	517.2
450.91	517.95
451.349	519.5
451.787	515.38
452.226	522.1
452.664	520.56
453.103	520.56
453.541	519.07
453.98	519.06
454.418	521.56
454.856	514.43
455.295	513.98
455.733	518.64
456.171	519.29
456.609	518
457.047	517.51
457.485	526.09
457.923	528.67
458.361	521.27
458.798	521.92
459.236	519.99
459.674	520.51
460.111	522.86
460.549	519.33
460.987	515.81
461.424	514.56
461.862	511.46
462.299	503.01
462.736	502.41
463.173	503.89
463.611	502.4
464.048	502.27
464.485	507.73
464.922	503.17
465.359	498.33
465.796	500.89
466.233	498.33
466.67	495.79
467.106	495.3
467.543	490.3
467.98	484.66
468.416	468.44
468.853	463.41
469.29	447.8
469.726	442.94
470.162	431.28
470.599	417.51
471.035	412.6
471.471	401.14
471.907	397.46
472.344	394.34
472.78	395.83
473.216	400.41
473.652	396.67
474.088	396.01
474.523	396.09
474.959	400.96
475.395	398.87
475.831	397.61
476.266	400.41
476.702	399.4
477.138	394.84
477.573	393.11
478.008	391.85
478.444	394.11
478.879	399.86
479.314	402.45
479.75	402.08
480.185	404.09
480.62	406.79
481.055	408.36
481.49	412.02
481.925	418.38
482.36	427.57
482.795	439.16
483.229	449.96
483.664	458.46
484.099	458.68
484.534	465.63
484.968	470.55
485.403	472.4
485.837	471.75
486.271	470.69
486.706	470.62
487.14	463.85
487.574	457.85
488.009	454.3
488.443	450.19
488.877	456.14
489.311	457.81
489.745	462.65
490.179	467.81
490.613	478.62
491.046	482.67
491.48	487.19
491.914	488.23
492.348	491.87
492.781	494.89
493.215	496.89
493.648	497.25
494.082	501.78
494.515	503.39
494.948	509.9
495.382	512.57
495.815	516.83
496.248	522.49
496.681	533.01
497.114	541.96
497.547	551.6
497.98	563.4
498.413	570.63
498.846	579.48
499.279	587.68
499.711	591.57
500.144	596.11
500.577	607.59
501.009	618.16
501.442	628.96
501.874	633.48
502.306	637.51
502.739	647.85
503.171	661.71
503.603	666.56
504.036	676.05
504.468	684.49
504.9	696.53
505.332	704.12
505.764	710.08
506.196	718.66
506.627	732.6
507.059	746.63
507.491	753.81
507.923	755.84
508.354	772.02
508.786	785.47
509.217	803.21
509.649	818.59
510.08	836.97
510.512	854.81
510.943	870.25
511.374	883.91
511.805	904.53
512.237	925.78
512.668	956.82
513.099	984.18
513.53	1010.56
513.961	1033.07
514.391	1064.05
514.822	1099.43
515.253	1135.67
515.684	1163.38
516.114	1194.17
516.545	1217.91
516.975	1245.14
517.406	1266.17
517.836	1273.14
518.267	1284.56
518.697	1306.09
519.127	1316.88
519.558	1326.86
519.988	1334.75
520.418	1348.8
520.848	1369.19
521.278	1381.19
521.708	1423.38
522.138	1440.8
522.567	1473.77
522.997	1501.83
523.427	1519.29
523.857	1538.3
524.286	1552.05
524.716	1569.9
525.145	1591.96
525.575	1606.24
526.004	1623.79
526.433	1601.33
526.863	1603.95
527.292	1599.05
527.721	1607.55
528.15	1617.33
528.579	1621.45
529.008	1635.59
529.437	1660.31
529.866	1675.35
530.295	1694.56
530.724	1710.09
531.152	1739.31
531.581	1755.33
532.01	1774.14
532.438	1785.04
532.867	1801.51
533.295	1821.84
533.723	1828.45
534.152	1828.48
534.58	1830.59
535.008	1816.92
535.436	1820.47
535.865	1828.68
536.293	1844.06
536.721	1860.29
537.149	1886.96
537.576	1890.04
538.004	1903.15
538.432	1911.5
538.86	1910.9
539.287	1918.02
539.715	1931.22
540.143	1933
540.57	1929.51
540.998	1925.69
541.425	1904.25
541.852	1882.94
542.28	1881.78
542.707	1864.88
543.134	1852.3
543.561	1849.23
543.988	1842.55
544.415	1843.54
544.842	1840.27
545.269	1834.79
545.696	1839.09
546.123	1852.22
546.549	1842.89
546.976	1830.67
547.403	1832.21
547.829	1835.27
548.256	1837.55
548.682	1835.4
549.108	1829.52
549.535	1830.07
549.961	1833.01
550.387	1820
550.813	1816.13
551.24	1823.58
551.666	1826.68
552.092	1819.35
552.518	1813.84
552.943	1809.77
553.369	1819.49
553.795	1826.35
554.221	1828.05
554.646	1826.04
555.072	1838.99
555.498	1844.66
555.923	1855.16
556.349	1871.53
556.774	1879.79
557.199	1881.69
557.625	1888.39
558.05	1881.89
558.475	1892.59
558.9	1893.1
559.325	1885.6
559.75	1879.66
560.175	1874.49
560.6	1867.98
561.025	1866.17
561.449	1867.96
561.874	1874.28
562.299	1879.01
562.723	1887.19
563.148	1877.45
563.572	1880.75
563.997	1891.34
564.421	1896.17
564.846	1895.14
565.27	1899.25
565.694	1896.6
566.118	1908.55
566.542	1916.35
566.966	1908.6
567.39	1902.51
567.814	1890.61
568.238	1889.74
568.662	1893.28
569.086	1894.5
569.509	1901.4
569.933	1883.7
570.357	1874.87
570.78	1852.19
571.204	1838.45
571.627	1826.73
572.05	1824.74
572.474	1824.44
572.897	1810.04
573.32	1802.34
573.743	1792.64
574.166	1773.59
574.589	1774.03
575.012	1766.87
575.435	1765.88
575.858	1756.27
576.281	1745.63
576.704	1728.34
577.126	1715.61
577.549	1706.25
577.972	1695.33
578.394	1685.04
578.817	1680.31
579.239	1661.39
579.661	1646.88
580.084	1631.42
580.506	1618.3
580.928	1613.93
581.35	1604.04
581.772	1599.75
582.194	1586.46
582.616	1575.41
583.038	1560.72
583.46	1548.43
583.882	1545.77
584.303	1551.06
584.725	1546.59
585.147	1551.35
585.568	1562.73
585.99	1575.9
586.411	1582.85
586.833	1597.38
587.254	1598.2
587.675	1613.2
588.096	1626.72
588.518	1621.5
588.939	1604.31
589.36	1601.75
589.781	1587.33
590.202	1558.85
590.623	1548.72
591.043	1545.68
591.464	1531.08
591.885	1527.68
592.305	1521.56
592.726	1506.34
593.147	1507.02
593.567	1501.79
593.987	1493.54
594.408	1487.82
594.828	1483.97
595.248	1478.69
595.669	1459.41
596.089	1453.48
596.509	1445.59
596.929	1431.2
597.349	1432.35
597.769	1423.23
598.189	1416.41
598.608	1417.22
599.028	1419.34
599.448	1419.61
599.867	1405.18
600.287	1401.22
600.706	1396.75
601.126	1388.6
601.545	1388.15
601.965	1387.62
602.384	1381.13
602.803	1383.67
603.222	1379.57
603.641	1371.84
604.061	1368.78
604.48	1365.3
604.898	1373.02
605.317	1377.69
605.736	1378.09
606.155	1374.06
606.574	1363.04
606.992	1368.16
607.411	1362.81
607.829	1352.63
608.248	1349.86
608.666	1345.56
609.085	1344.23
609.503	1335.2
609.921	1328.5
610.339	1329.69
610.758	1327.82
611.176	1322.33
611.594	1312.93
612.012	1307.38
612.43	1311.01
612.847	1315.24
613.265	1316.85
613.683	1320.38
614.101	1320.97
614.518	1315.33
614.936	1304.45
615.353	1289.4
615.771	1286.05
616.188	1285.37
616.606	1281.97
617.023	1274.54
617.44	1260.98
617.857	1252.12
618.274	1242.6
618.691	1235.26
619.108	1225.34
619.525	1218.89
619.942	1225.11
620.359	1226.63
620.776	1219.62
621.192	1216.69
621.609	1213.71
622.026	1219.68
622.442	1225.17
622.859	1228.33
623.275	1220.86
623.691	1226.41
624.108	1236.27
624.524	1249.07
624.94	1249.52
625.356	1260.27
625.772	1271.04
626.188	1282.42
626.604	1283.48
627.02	1278.89
627.436	1276.28
627.852	1284.4
628.268	1294.86
628.683	1286.08
629.099	1278.22
629.514	1272.36
629.93	1275.22
630.345	1280.05
630.761	1274.83
631.176	1278.47
631.591	1273.52
632.007	1268.04
632.422	1264.16
632.837	1253.13
633.252	1250.77
633.667	1240.82
634.082	1231.05
634.497	1218.45
634.911	1199.16
635.326	1194.57
635.741	1176.35
636.155	1164.63
636.57	1164.45
636.984	1163.04
637.399	1165.23
637.813	1162.98
638.228	1159.68
638.642	1162.98
639.056	1149.82
639.47	1146.52
639.884	1137.63
640.298	1129.59
640.712	1127.71
641.126	1113.16
641.54	1101.72
641.954	1091.47
642.368	1077.92
642.781	1068.4
643.195	1048.5
643.609	1047.54
644.022	1040.12
644.436	1032.84
644.849	1018.13
645.262	1002.91
645.676	1001.93
646.089	994.59
646.502	980.33
646.915	972.72
647.328	954.66
647.741	950.06
648.154	934.86
648.567	931.2
648.98	918.21
649.393	916.89
649.805	913.33
650.218	904.91
650.631	890.41
651.043	881.95
651.456	875.65
651.868	874.39
652.28	888.56
652.693	899.34
653.105	901.27
653.517	907.34
653.929	906.48
654.341	908.08
654.753	894.95
655.165	896.91
655.577	893.56
655.989	887.87
656.401	877.98
656.813	845.02
657.224	825.32
657.636	797.95
658.047	780.82
658.459	761.35
658.87	750.3
659.282	736.83
659.693	718.27
660.104	702.05
660.515	686.93
660.926	681.93
661.338	675.07
661.749	666.19
662.159	657.16
662.57	648.78
662.981	641.73
663.392	633.17
663.803	633.51
664.213	627.37
664.624	620.81
665.035	619.25
665.445	606.52
665.855	599.91
666.266	592.24
666.676	587.14
667.086	578.01
667.497	575.7
667.907	568.74
668.317	560.15
668.727	558.13
669.137	557.01
669.547	553.97
669.956	553.54
670.366	553.13
670.776	552.01
671.186	553.09
671.595	555.45
672.005	555.75
672.414	555.17
672.824	553.83
673.233	554.14
673.642	554.99
674.052	557.21
674.461	558.86
674.87	561.53
675.279	560.67
675.688	561.37
676.097	562.7
676.506	561.39
676.915	571.83
677.323	574.12
677.732	573.45
678.141	573.94
678.549	567.71
678.958	567.82
679.366	567.92
679.775	572
680.183	584.03
680.592	590.37
681	596.36
681.408	593.5
681.816	600.95
682.224	610.57
682.632	622.45
683.04	647.92
683.448	671.05
683.856	700.68
684.264	734.38
684.671	762.96
685.079	799.99
685.487	842.51
685.894	900.66
686.302	950.66
686.709	994.29
687.116	1045.8
687.524	1091.23
687.931	1132.82
688.338	1167.99
688.745	1198.53
689.152	1235.14
689.559	1281.2
689.966	1328.7
690.373	1354.61
690.78	1400.02
691.187	1464.12
691.593	1515.21
692	1559.46
692.407	1621.45
692.813	1700.78
693.22	1764.77
693.626	1829.35
694.032	1883.72
694.439	1962.29
694.845	2024.64
695.251	2103.01
695.657	2173.21
696.063	2273.68
696.469	2351.2
696.875	2424.7
697.281	2467.33
697.687	2520.48
698.093	2566.51
