Data from N_3_DEC_CT_2N_Splice17_13-02-03-700.txt Node
Date: Sat Mar 14 13:02:03 EDT 2020
User: sa697716
Spectrometer: FLMS03696
Trigger mode: 0
Integration Time (sec): 3.180400E-1
Scans to average: 20
Electric dark correction enabled: true
Nonlinearity correction enabled: true
Boxcar width: 5
XAxis mode: Wavelengths
Number of Pixels in Spectrum: 2048
>>>>>Begin Spectral Data<<<<<
187.83	-429778.52
188.298	3115.33
188.766	1583.43
189.233	1519.31
189.701	2141.03
190.169	2968.49
190.636	1118.53
191.104	851.38
191.571	211.93
192.039	20.51
192.506	46.7
192.974	472.29
193.441	-627.87
193.908	-79.24
194.375	57.78
194.842	124.01
195.31	226.34
195.777	211.35
196.244	410.93
196.711	515.47
197.177	616.81
197.644	846.73
198.111	1430.21
198.578	1974.14
199.045	1556.21
199.511	2505.08
199.978	2914.54
200.445	2490.7
200.911	2744.61
201.378	3037.47
201.844	2744.07
202.31	4633.62
202.777	4835.06
203.243	2687.74
203.709	2568.24
204.176	3085.94
204.642	2575.77
205.108	2417.48
205.574	1967.89
206.04	1790.28
206.506	1692.55
206.972	1598.6
207.438	1556.78
207.903	1769.08
208.369	1542.6
208.835	1549.18
209.301	1604.67
209.766	1641.06
210.232	1635.26
210.697	2025.82
211.163	2494.72
211.628	3760.23
212.094	3182.67
212.559	3945.74
213.024	2471.04
213.49	3041.51
213.955	2944.92
214.42	2877.7
214.885	2671.08
215.35	2565.55
215.815	2489.39
216.28	2658.8
216.745	2164.42
217.21	2357.48
217.675	2170.47
218.14	2472.88
218.604	2782.23
219.069	3227.02
219.534	3435.43
219.998	4048.89
220.463	4945.11
220.927	6105.79
221.392	5782.94
221.856	5886.21
222.32	7441.95
222.785	9216.79
223.249	11601.38
223.713	12966.37
224.177	12963.2
224.642	16666.68
225.106	20510.32
225.57	22425.88
226.034	16722.62
226.497	25470.61
226.961	23077.61
227.425	26897.58
227.889	29882.37
228.353	29889.66
228.816	61751.19
229.28	59056.05
229.744	49770.03
230.207	30271.2
230.671	29789.83
231.134	49231.6
231.597	56755.15
232.061	56668.91
232.524	55271.3
232.987	38032.68
233.45	34253.87
233.914	30716.87
234.377	31534.03
234.84	28872.68
235.303	34000.39
235.766	37926.88
236.229	39201.52
236.691	24708.24
237.154	27768.23
237.617	20890.14
238.08	21375.73
238.542	25007.13
239.005	17868.3
239.468	17722.52
239.93	16684.66
240.393	15178.57
240.855	13317.24
241.317	13637.52
241.78	16587.67
242.242	17160.92
242.704	18509.66
243.166	16125.28
243.629	14643.25
244.091	16888.75
244.553	18529.52
245.015	19933.24
245.477	25787.21
245.939	37816.21
246.4	40179.03
246.862	39064.38
247.324	36824.02
247.786	41232.7
248.247	54144.95
248.709	55982.32
249.17	41864.12
249.632	39426.59
250.093	45748.95
250.555	39506.38
251.016	24125.25
251.477	22903.79
251.939	24720.75
252.4	25939.65
252.861	30875.14
253.322	28724.32
253.783	34188.05
254.244	44415.83
254.705	35004.94
255.166	31145.83
255.627	30698.24
256.088	43333.38
256.549	45992.71
257.009	39663.93
257.47	48113.93
257.931	39225.46
258.391	29408.53
258.852	30330.13
259.312	31798.94
259.773	39340.7
260.233	33263.62
260.694	28070.3
261.154	31824.11
261.614	25564.03
262.074	22874.33
262.534	23802.13
262.994	22432.71
263.455	29900.04
263.915	25229.4
264.374	23755.37
264.834	25940.81
265.294	28753.13
265.754	29807.53
266.214	28238.25
266.673	26489.58
267.133	33424.89
267.593	33165.6
268.052	40619.06
268.512	35364.59
268.971	42606.96
269.431	46789.17
269.89	41921.2
270.349	62914.36
270.809	70154.48
271.268	63077.92
271.727	141492.04
272.186	91743.25
272.645	68846.06
273.104	49645.53
273.563	71891.36
274.022	56585.96
274.481	48131.11
274.94	37108.03
275.399	27587.11
275.857	32129.29
276.316	43503.07
276.775	38712.25
277.233	38117.84
277.692	35688.2
278.15	40385.95
278.609	41524.87
279.067	38414.73
279.525	35710.89
279.984	46071.07
280.442	55309.71
280.9	54496.65
281.358	35822.1
281.816	33410.53
282.274	32722.4
282.732	33773.24
283.19	33942.56
283.648	29278.01
284.106	31185.58
284.564	31684.15
285.021	29403.65
285.479	21911.96
285.937	19946.6
286.394	17486.85
286.852	17976.4
287.309	18895.93
287.767	18287.52
288.224	17382.59
288.682	19075.92
289.139	20928.08
289.596	19153.64
290.053	19904.2
290.511	25146.23
290.968	30476.31
291.425	41414.67
291.882	34483
292.339	29976.94
292.796	29736.02
293.252	28043.86
293.709	22300.55
294.166	19998.09
294.623	22088.18
295.079	21219.64
295.536	21311.07
295.992	19366.52
296.449	19142.69
296.905	19895.67
297.362	19076.12
297.818	20057.03
298.274	20788.61
298.731	21159.25
299.187	20940.53
299.643	22493.44
300.099	27156.51
300.555	29753.14
301.011	24821.46
301.467	23900.53
301.923	27928.76
302.379	27270.39
302.835	26768.78
303.291	26790.15
303.746	30469.97
304.202	38459.31
304.658	38576.68
305.113	25970.42
305.569	25433.64
306.024	27131.96
306.479	25812.7
306.935	21776.34
307.39	23777.07
307.845	21922.56
308.301	22056.45
308.756	21502.03
309.211	20694.69
309.666	21215.38
310.121	26283.99
310.576	26676.37
311.031	26426.14
311.486	30265.82
311.94	30234.18
312.395	40419.78
312.85	75993.12
313.305	373329.25
313.759	1932487.38
314.214	140083.41
314.668	111159.84
315.123	93501.18
315.577	33516.39
316.032	29823.9
316.486	37374.49
316.94	29476.67
317.394	20494.39
317.849	15932.44
318.303	15080.74
318.757	14228.97
319.211	15725.79
319.665	13729.4
320.119	13896.75
320.572	19923.43
321.026	18592.73
321.48	15468.81
321.934	16863.64
322.387	16905.89
322.841	18245.9
323.295	16404.63
323.748	18897.87
324.202	19191.82
324.655	23057.28
325.108	32178.25
325.562	22727.77
326.015	27046.03
326.468	20445.12
326.921	22832.54
327.374	21285.91
327.827	22163.73
328.28	25059.32
328.733	16774.04
329.186	14732.42
329.639	14004.89
330.092	11803.02
330.545	11230.46
330.997	11313.52
331.45	12370.57
331.903	14499.85
332.355	24926.83
332.808	24221.79
333.26	19976.13
333.713	21680
334.165	21816.68
334.617	29156.03
335.069	23566.17
335.522	42647.76
335.974	47152.97
336.426	43049.31
336.878	29806.6
337.33	15109.41
337.782	14754.88
338.234	18499.58
338.686	22086.06
339.137	26148.79
339.589	24603.03
340.041	19238.06
340.493	16521.39
340.944	16927.05
341.396	18222.98
341.847	15311.69
342.299	18092.93
342.75	22080.21
343.201	19251.42
343.653	22136.48
344.104	27219.79
344.555	21425.67
345.006	33379.4
345.457	25564.26
345.908	20345.24
346.359	19138.18
346.81	15591.25
347.261	16392.05
347.712	16117.94
348.163	17293.95
348.613	17524.23
349.064	16363.5
349.515	14331.82
349.965	14701.11
350.416	17693.7
350.866	19398.58
351.317	21905.46
351.767	36246.05
352.217	45806.11
352.668	38017.72
353.118	34786.98
353.568	33537.98
354.018	26508.32
354.468	27936.26
354.918	20026.31
355.368	17518.18
355.818	24732.59
356.268	71112.3
356.718	297701.12
357.168	74047.71
357.617	37204.34
358.067	41395.3
358.517	38769.12
358.966	45472.22
359.416	50951.51
359.865	55111.17
360.315	65504.66
360.764	30529.18
361.213	17109.76
361.663	16186.87
362.112	19973.76
362.561	32187.55
363.01	24240.32
363.459	20392.92
363.908	22007.62
364.357	18708.33
364.806	31542.74
365.255	21704.23
365.703	19892.93
366.152	19930.19
366.601	16163.71
367.05	13136.05
367.498	11949.44
367.947	12495.02
368.395	12967.55
368.844	11496.72
369.292	13834.96
369.74	9560.14
370.189	14618.69
370.637	17099.77
371.085	14719.56
371.533	17913.14
371.981	17219.54
372.429	16405.31
372.877	17083.26
373.325	14308.52
373.773	14571.61
374.221	12947.21
374.669	16023.87
375.116	13861.8
375.564	13973.19
376.012	15632.75
376.459	12886.61
376.907	15395.61
377.354	18584.99
377.801	17286.47
378.249	19828.43
378.696	25277.76
379.143	30577.93
379.591	32583.91
380.038	55012.99
380.485	39766.49
380.932	42861.06
381.379	39158.62
381.826	28777.29
382.273	20401.12
382.72	17805.69
383.166	17366.51
383.613	11263.13
384.06	10145.57
384.506	11732.57
384.953	8593.96
385.4	8625.51
385.846	7530.52
386.292	7303.22
386.739	7126.97
387.185	7038.15
387.631	7037
388.078	6806.4
388.524	7240.49
388.97	6676.48
389.416	5545.25
389.862	5874.68
390.308	5547.4
390.754	5628.94
391.2	6112.21
391.645	6247.47
392.091	5963.49
392.537	5750.02
392.983	5739.74
393.428	5656.95
393.874	6047.41
394.319	6074.83
394.765	5760.18
395.21	5911.66
395.655	5534.28
396.101	5173.35
396.546	4666.72
396.991	4695.46
397.436	4353.7
397.881	4203.2
398.326	3966.17
398.771	3752.16
399.216	3268.61
399.661	2938.41
400.106	2925.73
400.551	2991.93
400.995	2677.84
401.44	2647.26
401.885	2485.02
402.329	2505.26
402.774	2402.16
403.218	2327.52
403.663	2236.03
404.107	2293.83
404.551	2309.22
404.995	2114.78
405.44	2033.79
405.884	2063.01
406.328	1989.24
406.772	1980.92
407.216	1803.65
407.66	1739.63
408.104	1646.99
408.547	1540.98
408.991	1491.44
409.435	1432.21
409.879	1411.09
410.322	1392.43
410.766	1344.52
411.209	1276.53
411.653	1225
412.096	1197.95
412.54	1198.75
412.983	1188.75
413.426	1194.76
413.869	1192.45
414.312	1171.93
414.756	1129.84
415.199	1074.03
415.642	1043.77
416.085	1047.3
416.527	1039.21
416.97	1055.57
417.413	998.82
417.856	989.24
418.298	974.11
418.741	965.2
419.184	959.57
419.626	994.45
420.069	996.59
420.511	1000.97
420.953	979.79
421.396	969.81
421.838	944.43
422.28	966.38
422.722	970.94
423.164	985.42
423.606	971.94
424.048	969.38
424.49	924.02
424.932	919.26
425.374	905.17
425.816	918.98
426.258	937.98
426.699	947.08
427.141	931.1
427.582	943.39
428.024	937.76
428.465	931.13
428.907	909.92
429.348	900.01
429.789	900.25
430.231	882.27
430.672	894.56
431.113	871.95
431.554	857.42
431.995	835.64
432.436	806.83
432.877	789.26
433.318	775.22
433.759	772.35
434.2	769.97
434.64	759.82
435.081	759.13
435.522	717.86
435.962	690.69
436.403	677.58
436.843	686.63
437.284	671.05
437.724	652.16
438.164	651.96
438.604	635
439.045	609.57
439.485	585.06
439.925	572.83
440.365	558.65
440.805	551.39
441.245	544.6
441.685	524
442.125	518.57
442.564	520.78
443.004	508.02
443.444	507.35
443.883	509.24
444.323	503.68
444.762	502.47
445.202	507.85
445.641	516.32
446.081	512.08
446.52	516.46
446.959	512.61
447.398	500.6
447.837	495.43
448.276	485.95
448.716	489.83
449.154	493.36
449.593	483.06
450.032	481.85
450.471	472.55
450.91	472.55
451.349	470.45
451.787	468.95
452.226	476.46
452.664	475.21
453.103	476.4
453.541	475.28
453.98	475.58
454.418	477.57
454.856	470.04
455.295	468.88
455.733	472.01
456.171	474.26
456.609	473.02
457.047	471.19
457.485	477.7
457.923	477.5
458.361	469.52
458.798	470.29
459.236	468.53
459.674	469.75
460.111	472
460.549	467.32
460.987	465.47
461.424	463.31
461.862	460.86
462.299	454.18
462.736	453.79
463.173	455.06
463.611	451.11
464.048	450.17
464.485	454.17
464.922	449.58
465.359	446.36
465.796	444.69
466.233	442.13
466.67	439.31
467.106	438.14
467.543	432.96
467.98	428.05
468.416	414.65
468.853	411.67
469.29	398.69
469.726	393.75
470.162	383.17
470.599	374.05
471.035	369.78
471.471	360.13
471.907	357.08
472.344	354.57
472.78	355.79
473.216	360.32
473.652	355.39
474.088	355.18
474.523	354.28
474.959	357.31
475.395	354.55
475.831	353.32
476.266	354.44
476.702	353.62
477.138	349.55
477.573	347.99
478.008	346.37
478.444	349.16
478.879	352.6
479.314	353.95
479.75	353.56
480.185	354.42
480.62	355.48
481.055	357.31
481.49	359.93
481.925	365.69
482.36	373.14
482.795	383.01
483.229	391.59
483.664	398.62
484.099	399.06
484.534	405.34
484.968	408.48
485.403	410.51
485.837	409.31
486.271	407.98
486.706	407.45
487.14	400.94
487.574	394.45
488.009	389.82
488.443	386.55
488.877	391.22
489.311	392.46
489.745	397.77
490.179	401.44
490.613	409.67
491.046	411.85
491.48	414.61
491.914	415.13
492.348	418.55
492.781	421.95
493.215	422.86
493.648	423.09
494.082	425.61
494.515	425.77
494.948	430.79
495.382	433.84
495.815	437.5
496.248	441.2
496.681	449
497.114	456.16
497.547	462.96
497.98	471.12
498.413	476.29
498.846	483.23
499.279	489.36
499.711	492.27
500.144	494.27
500.577	502.65
501.009	510.97
501.442	519.93
501.874	522.61
502.306	525.77
502.739	534.37
503.171	545.65
503.603	550.52
504.036	558.48
504.468	564.86
504.9	573.94
505.332	580.84
505.764	586.22
506.196	593.16
506.627	605.64
507.059	617.15
507.491	624.48
507.923	626.48
508.354	638.81
508.786	649.86
509.217	665.99
509.649	680.87
510.08	696.81
510.512	713.42
510.943	727.87
511.374	740.53
511.805	759.03
512.237	777.02
512.668	803.77
513.099	828.36
513.53	852.51
513.961	871.83
514.391	899.72
514.822	930.37
515.253	960.89
515.684	984.4
516.114	1010.68
516.545	1031.68
516.975	1056.56
517.406	1075.09
517.836	1082.48
518.267	1093
518.697	1112.4
519.127	1120.93
519.558	1131.27
519.988	1138.51
520.418	1150.99
520.848	1169.49
521.278	1181.83
521.708	1214.1
522.138	1228.98
522.567	1258.26
522.997	1282.45
523.427	1299.74
523.857	1317.42
524.286	1329.96
524.716	1346.35
525.145	1366.07
525.575	1379.55
526.004	1394.28
526.433	1380.28
526.863	1383.63
527.292	1378.52
527.721	1386.73
528.15	1393.45
528.579	1396.82
529.008	1408.66
529.437	1431.54
529.866	1445.43
530.295	1461.66
530.724	1475.58
531.152	1501.91
531.581	1517.83
532.01	1534.87
532.438	1543.78
532.867	1558.09
533.295	1575.47
533.723	1582.16
534.152	1580.9
534.58	1582.7
535.008	1570.75
535.436	1574.18
535.865	1580.82
536.293	1592.47
536.721	1607.5
537.149	1629.25
537.576	1632.54
538.004	1645.3
538.432	1651.88
538.86	1650.49
539.287	1656.75
539.715	1668.48
540.143	1670.07
540.57	1666.15
540.998	1663.25
541.425	1643.4
541.852	1627.18
542.28	1625.76
542.707	1611.01
543.134	1599.25
543.561	1596.31
543.988	1589.71
544.415	1590.47
544.842	1585.36
545.269	1580.68
545.696	1583.12
546.123	1594.73
546.549	1585.77
546.976	1575.36
547.403	1574.75
547.829	1577.7
548.256	1581.21
548.682	1579.05
549.108	1572.88
549.535	1573.96
549.961	1576.23
550.387	1564.91
550.813	1561.62
551.24	1567.54
551.666	1568.48
552.092	1561.5
552.518	1556.04
552.943	1550.68
553.369	1558.4
553.795	1563.59
554.221	1564.3
554.646	1561.15
555.072	1573.02
555.498	1576.6
555.923	1584.34
556.349	1597.97
556.774	1604.73
557.199	1604.32
557.625	1609.04
558.05	1603.01
558.475	1611.73
558.9	1610.07
559.325	1604.19
559.75	1595.85
560.175	1588.61
560.6	1581.47
561.025	1577.89
561.449	1577.78
561.874	1582.75
562.299	1585.03
562.723	1589.01
563.148	1578.58
563.572	1580.14
563.997	1585.64
564.421	1588.55
564.846	1587.48
565.27	1589.17
565.694	1585.69
566.118	1592.73
566.542	1597.42
566.966	1589.5
567.39	1583.72
567.814	1572.05
568.238	1568.95
568.662	1570.08
569.086	1569.76
569.509	1573.12
569.933	1557.56
570.357	1548.64
570.78	1529.41
571.204	1515.19
571.627	1503.87
572.05	1499.8
572.474	1496.9
572.897	1484.72
573.32	1476.62
573.743	1465.66
574.166	1448.01
574.589	1446.01
575.012	1437.63
575.435	1433.93
575.858	1424.55
576.281	1413.33
576.704	1397.47
577.126	1384.73
577.549	1374.57
577.972	1364.49
578.394	1354.6
578.817	1348.69
579.239	1332.09
579.661	1319.21
580.084	1305.7
580.506	1293.22
580.928	1288.42
581.35	1279.15
581.772	1275.42
582.194	1262.54
582.616	1250.18
583.038	1237.31
583.46	1225.26
583.882	1220.99
584.303	1222.97
584.725	1217.7
585.147	1219.9
585.568	1227.78
585.99	1236.3
586.411	1240.17
586.833	1251.54
587.254	1251.71
587.675	1262.09
588.096	1273.5
588.518	1268.3
588.939	1253.85
589.36	1251.84
589.781	1240.24
590.202	1216.56
590.623	1208.97
591.043	1205.78
591.464	1194.19
591.885	1191.95
592.305	1186.95
592.726	1174.21
593.147	1174.65
593.567	1171.46
593.987	1164.06
594.408	1159.41
594.828	1157.04
595.248	1151.41
595.669	1137.16
596.089	1130.07
596.509	1123.28
596.929	1112.4
597.349	1112.44
597.769	1103.35
598.189	1096.77
598.608	1097.32
599.028	1098.76
599.448	1097.11
599.867	1086.45
600.287	1081.8
600.706	1079.22
601.126	1070.36
601.545	1068.07
601.965	1065.45
602.384	1059.87
602.803	1060.4
603.222	1056.05
603.641	1049.39
604.061	1045.94
604.48	1042.14
604.898	1047.61
605.317	1050.05
605.736	1051.69
606.155	1048.9
606.574	1041.18
606.992	1045.75
607.411	1041.81
607.829	1039.28
608.248	1035.28
608.666	1032.93
609.085	1031.13
609.503	1022.29
609.921	1016.14
610.339	1015.65
610.758	1013.24
611.176	1009.16
611.594	1000.46
612.012	995.12
612.43	990.75
612.847	994.15
613.265	993.3
613.683	994.61
614.101	994.42
614.518	989.52
614.936	981.51
615.353	968.56
615.771	964.07
616.188	963.05
616.606	960.34
617.023	954.05
617.44	942.01
617.857	935.62
618.274	928.05
618.691	923.1
619.108	915.39
619.525	909.26
619.942	914.87
620.359	916.21
620.776	910.95
621.192	907.4
621.609	904.91
622.026	910.04
622.442	913.51
622.859	915.86
623.275	909.79
623.691	912.98
624.108	919.99
624.524	928.26
624.94	926.96
625.356	933.31
625.772	941.53
626.188	949.75
626.604	950.62
627.02	947.41
627.436	945.52
627.852	950.28
628.268	959.29
628.683	953.18
629.099	946.51
629.514	941.86
629.93	944.44
630.345	947.63
630.761	944.19
631.176	945.05
631.591	940.35
632.007	935.05
632.422	932.84
632.837	923.86
633.252	921.98
633.667	913.6
634.082	907.21
634.497	897.05
634.911	882.52
635.326	877.77
635.741	864.84
636.155	855.81
636.57	855.34
636.984	852
637.399	851.05
637.813	846.89
638.228	844.2
638.642	843.5
639.056	833.07
639.47	829.47
639.884	820.41
640.298	811.7
640.712	808.03
641.126	795.82
641.54	787.23
641.954	779.13
642.368	769.05
642.781	761.86
643.195	747.37
643.609	745.48
644.022	738.4
644.436	733.02
644.849	722.9
645.262	711.81
645.676	709.9
646.089	703.78
646.502	691.74
646.915	685.45
647.328	671.52
647.741	669.01
648.154	657.82
648.567	654.78
648.98	645.54
649.393	644.52
649.805	641.98
650.218	637.09
650.631	626.95
651.043	622.68
651.456	617.67
651.868	616.55
652.28	626.36
652.693	635
653.105	637.91
653.517	642.84
653.929	641.63
654.341	642.99
654.753	633.28
655.165	636
655.577	633.76
655.989	630.9
656.401	624.85
656.813	602.47
657.224	588.31
657.636	569.46
658.047	558.1
658.459	545.42
658.87	538.89
659.282	530.27
659.693	517.57
660.104	508.05
660.515	497.45
660.926	495.52
661.338	491.64
661.749	486.37
662.159	480.93
662.57	476.14
662.981	473.31
663.392	468.63
663.803	470.75
664.213	467.45
664.624	463.05
665.035	464.42
665.445	455.85
665.855	451.94
666.266	448.05
666.676	445.56
667.086	441.07
667.497	441.1
667.907	437.8
668.317	432.06
668.727	432.03
669.137	432.38
669.547	430.15
669.956	431.36
670.366	432.37
670.776	434.44
671.186	437.76
671.595	440.32
672.005	441.8
672.414	440.84
672.824	441.36
673.233	442.18
673.642	444.82
674.052	449.37
674.461	452.85
674.87	457.16
675.279	457.39
675.688	458.54
676.097	460.29
676.506	458.76
676.915	469.46
677.323	472.17
677.732	473.33
678.141	475.04
678.549	469.83
678.958	470.26
679.366	469.86
679.775	473.06
680.183	481.93
680.592	485.76
681	491.8
681.408	487.74
681.816	494.27
682.224	500.27
682.632	508.24
683.04	528.51
683.448	543
683.856	563.66
684.264	586.32
684.671	606.53
685.079	635.04
685.487	664.28
685.894	706.31
686.302	740.1
686.709	771.33
687.116	805.55
687.524	835.71
687.931	864.96
688.338	890.71
688.745	913.64
689.152	940.56
689.559	975.48
689.966	1011.71
690.373	1032.54
690.78	1067.57
691.187	1117.88
691.593	1160.84
692	1198.93
692.407	1251.94
692.813	1315.96
693.22	1370.29
693.626	1425.89
694.032	1471.73
694.439	1538.27
694.845	1594.61
695.251	1663.43
695.657	1725.81
696.063	1812.21
696.469	1879.57
696.875	1944.53
697.281	1986.6
697.687	2034.72
698.093	2078.11
698.498	2150.87
698.904	2209.08
699.31	2293.71
699.715	2357.12
700.12	2444.83
700.526	2471.35
700.931	2542.01
