Data from N_3_DEC_ON_6N_Splice17_13-37-58-105.txt Node
Date: Sat Mar 14 13:37:58 EDT 2020
User: sa697716
Spectrometer: FLMS03696
Trigger mode: 0
Integration Time (sec): 3.180400E-1
Scans to average: 20
Electric dark correction enabled: true
Nonlinearity correction enabled: true
Boxcar width: 5
XAxis mode: Wavelengths
Number of Pixels in Spectrum: 2048
>>>>>Begin Spectral Data<<<<<
187.83	-475128.47
188.298	3408.49
188.766	1772.88
189.233	1619.07
189.701	2207.24
190.169	2966.43
190.636	1134.36
191.104	926.12
191.571	164.2
192.039	-45.12
192.506	-74.72
192.974	630.94
193.441	-935.73
193.908	-224.42
194.375	-94.3
194.842	-45.46
195.31	103.1
195.777	202.63
196.244	483.36
196.711	586.55
197.177	745.94
197.644	1045.26
198.111	1813.98
198.578	2521.24
199.045	2000.94
199.511	3296.31
199.978	3808.75
200.445	3206.25
200.911	3553.27
201.378	3964.41
201.844	3600.37
202.31	6145.15
202.777	6429.85
203.243	3553.05
203.709	3397.64
204.176	4034.79
204.642	3306.6
205.108	3083.47
205.574	2482.78
206.04	2257.7
206.506	2097.63
206.972	1970.51
207.438	1894.4
207.903	2150.83
208.369	1875.2
208.835	1871.64
209.301	1945.84
209.766	1976.74
210.232	1962.86
210.697	2445.91
211.163	2986.7
211.628	4521.59
212.094	3778.21
212.559	4638.43
213.024	2862.32
213.49	3502.28
213.955	3395.38
214.42	3341.44
214.885	3117.66
215.35	2989.26
215.815	2875.63
216.28	3061.37
216.745	2478.24
217.21	2663.4
217.675	2409.74
218.14	2664.65
218.604	2926.35
219.069	3281.15
219.534	3388.69
219.998	3877.11
220.463	4634.57
220.927	5612.38
221.392	5219.12
221.856	5249.16
222.32	6546.03
222.785	8044.13
223.249	10091.96
223.713	11217.14
224.177	11186.61
224.642	14304.83
225.106	17595.67
225.57	19148.9
226.034	14221.23
226.497	21661.54
226.961	19568.71
227.425	22797.36
227.889	25241.93
228.353	25211.77
228.816	51986.15
229.28	49648.14
229.744	41834.24
230.207	25425.32
230.671	25009.33
231.134	41328.82
231.597	47678.7
232.061	47512.47
232.524	46188.8
232.987	31802.12
233.45	28603.29
233.914	25627.87
234.377	26215.58
234.84	24010.42
235.303	28287.61
235.766	31524.84
236.229	32525.09
236.691	20393.94
237.154	22890.49
237.617	17231.6
238.08	17619.63
238.542	20608.74
239.005	14752.8
239.468	14657.12
239.93	13797.36
240.393	12522.01
240.855	10996.77
241.317	11253.06
241.78	13695.9
242.242	14163.44
242.704	15310.49
243.166	13335.16
243.629	12133.17
244.091	13956.05
244.553	15283.02
245.015	16384.4
245.477	21185.3
245.939	31013.02
246.4	32906.07
246.862	31994.55
247.324	30184.13
247.786	33671.05
248.247	44077.25
248.709	45338.85
249.17	33904.79
249.632	31978.03
250.093	37150.82
250.555	32095.07
251.016	19590.81
251.477	18591.91
251.939	20070.95
252.4	21040.01
252.861	25030.97
253.322	23310.28
253.783	27778.06
254.244	36044.89
254.705	28386.35
255.166	25232.12
255.627	24825.16
256.088	35049.34
256.549	37197.83
257.009	32030.83
257.47	38881.22
257.931	31684.43
258.391	23746.75
258.852	24467.13
259.312	25603.66
259.773	31597.42
260.233	26698.77
260.694	22522.84
261.154	25509.12
261.614	20494.69
262.074	18300.43
262.534	18992.53
262.994	17899.18
263.455	23820.54
263.915	20052.95
264.374	18887.19
264.834	20619.5
265.294	22850.34
265.754	23673.96
266.214	22376.65
266.673	20967.33
267.133	26458.88
267.593	26235.77
268.052	32111.96
268.512	27926.12
268.971	33706.76
269.431	36958.3
269.89	33107.05
270.349	49628.73
270.809	55378.28
271.268	49852.84
271.727	111746.26
272.186	72372.08
272.645	54317.52
273.104	39165.89
273.563	56683.67
274.022	44523.37
274.481	37935.19
274.94	29220.1
275.399	21731.99
275.857	25290.03
276.316	34210.49
276.775	30474.44
277.233	30022.84
277.692	28135.53
278.15	31846.87
278.609	32846.65
279.067	30429.46
279.525	28290.19
279.984	36556.56
280.442	43877.2
280.9	43302.94
281.358	28495.48
281.816	26552.06
282.274	26024.72
282.732	26855.84
283.19	26974.55
283.648	23263.59
284.106	24787.46
284.564	25185.05
285.021	23381.75
285.479	17433.94
285.937	15844.79
286.394	13921.76
286.852	14327.68
287.309	15054.35
287.767	14579.73
288.224	13882.73
288.682	15227.43
289.139	16710.95
289.596	15298.27
290.053	15894.81
290.511	20059.69
290.968	24332.64
291.425	32979.06
291.882	27452.74
292.339	23878.95
292.796	23657.97
293.252	22272.19
293.709	17714.13
294.166	15903.73
294.623	17566.92
295.079	16844.83
295.536	16925.54
295.992	15365.27
296.449	15188.54
296.905	15773.13
297.362	15159.01
297.818	15932.04
298.274	16537.08
298.731	16817.69
299.187	16610.94
299.643	17821.8
300.099	21552.27
300.555	23639.56
301.011	19753.64
301.467	19080.47
301.923	22307.78
302.379	21769.06
302.835	21404.56
303.291	21431.96
303.746	24387.36
304.202	30840.5
304.658	30957.92
305.113	20834.65
305.569	20432.33
306.024	21772.43
306.479	20723.91
306.935	17502.42
307.39	19103.96
307.845	17652.24
308.301	17778.42
308.756	17341.52
309.211	16718.55
309.666	17179.29
310.121	21369.85
310.576	21686.69
311.031	21528.07
311.486	24606.57
311.94	24586.82
312.395	32941.8
312.85	61941.61
313.305	304397.64
313.759	1580198.38
314.214	114502.55
314.668	90669.41
315.123	76160.12
315.577	27368.07
316.032	24366.22
316.486	30613.22
316.94	24239.95
317.394	16890.44
317.849	13140.14
318.303	12434.16
318.757	11729.92
319.211	13002.03
319.665	11401.45
320.119	11549.33
320.572	16524.96
321.026	15453.23
321.48	12850.19
321.934	13972.87
322.387	13988.91
322.841	15113.71
323.295	13638.89
323.748	15702.32
324.202	15914.11
324.655	19106.7
325.108	26745.02
325.562	18920.5
326.015	22493.27
326.468	17030.36
326.921	19085.09
327.374	17841.98
327.827	18608.45
328.28	21057.83
328.733	14115.84
329.186	12433.65
329.639	11859.83
330.092	9997.5
330.545	9529.58
330.997	9606.23
331.45	10513.58
331.903	12330.11
332.355	21165.17
332.808	20513.39
333.26	16904.18
333.713	18381.22
334.165	18472.55
334.617	24642.91
335.069	19880.96
335.522	35916.1
335.974	39877.18
336.426	36412.07
336.878	25227.23
337.33	12809.67
337.782	12542.65
338.234	15738.26
338.686	18827.05
339.137	22334.4
339.589	21057.9
340.041	16515.94
340.493	14221.21
340.944	14561.47
341.396	15707.36
341.847	13232.95
342.299	15633.09
342.75	19102.29
343.201	16639.13
343.653	19101.68
344.104	23468.69
344.555	18475.39
345.006	28730.16
345.457	22049.66
345.908	17510.75
346.359	16444.69
346.81	13360.26
347.261	14039.4
347.712	13804.99
348.163	14795.23
348.613	15015.4
349.064	14029.5
349.515	12278.68
349.965	12620.03
350.416	15174.21
350.866	16623.5
351.317	18790.98
351.767	31170.8
352.217	39463.2
352.668	32796.9
353.118	30164.24
353.568	29099.97
354.018	23052.85
354.468	24358.69
354.918	17506.12
355.368	15319.92
355.818	21698.68
356.268	62565.17
356.718	262533.87
357.168	65418.3
357.617	32842.27
358.067	36490.93
358.517	34217.22
358.966	40208.33
359.416	45148.04
359.865	48774.55
360.315	58241.16
360.764	27219.57
361.213	15305.45
361.663	14474.77
362.112	17892.28
362.561	29004.13
363.01	21994.55
363.459	18573.28
363.908	20120.55
364.357	17148.5
364.806	29012
365.255	19991.02
365.703	18411.65
366.152	18495.72
366.601	15118.91
367.05	12375.63
367.498	11316.5
367.947	11860.53
368.395	12411.99
368.844	11097.28
369.292	13470.78
369.74	9405.68
370.189	14554.88
370.637	17226.44
371.085	15029.62
371.533	18479.98
371.981	18009.03
372.429	17368.29
372.877	18339.76
373.325	15558.46
373.773	16089.95
374.221	14545.01
374.669	18329.59
375.116	16088.54
375.564	16490.56
376.012	18779.18
376.459	15757.51
376.907	19169.12
377.354	23666.56
377.801	22552.32
378.249	26441.27
378.696	34448.94
379.143	42581.14
379.591	46351.81
380.038	80137.86
380.485	59215.85
380.932	65206.02
381.379	61119.91
381.826	45998.64
382.273	33410.52
382.72	29868.59
383.166	29781.7
383.613	19746.9
384.06	18214.94
384.506	21561.16
384.953	16191.63
385.4	16674.66
385.846	14936.79
386.292	14884.04
386.739	14867.29
387.185	15004.72
387.631	15293.35
388.078	15124.66
388.524	16497.43
388.97	15517.91
389.416	13172.69
389.862	14246.75
390.308	13728.89
390.754	14177.65
391.2	15609.85
391.645	16237.15
392.091	15709.94
392.537	15380.47
392.983	15639.36
393.428	15548.41
393.874	16894.31
394.319	17149.91
394.765	16455.98
395.21	17138.26
395.655	16249.44
396.101	15392.29
396.546	14021.91
396.991	14327.64
397.436	13441.43
397.881	13107.48
398.326	12549.85
398.771	11948.44
399.216	10547.14
399.661	9579.97
400.106	9602.43
400.551	9894.26
400.995	8936.1
401.44	8899.77
401.885	8410.51
402.329	8548.28
402.774	8234.03
403.218	7982.91
403.663	7735.42
404.107	7983.37
404.551	8072.22
404.995	7438.08
405.44	7200.04
405.884	7337.79
406.328	7138.59
406.772	7144.32
407.216	6527.64
407.66	6333.29
408.104	6052.69
408.547	5683.69
408.991	5516.33
409.435	5328.63
409.879	5261.9
410.322	5203.7
410.766	5029.01
411.209	4781.32
411.653	4595.18
412.096	4502.75
412.54	4512.93
412.983	4488.07
413.426	4499.64
413.869	4502.93
414.312	4411.93
414.756	4256.53
415.199	4063.9
415.642	3949.47
416.085	3956.12
416.527	3933.63
416.97	4003.84
417.413	3797.35
417.856	3768.45
418.298	3734.43
418.741	3719.21
419.184	3726.25
419.626	3895.2
420.069	3899.56
420.511	3919.25
420.953	3832.47
421.396	3800.98
421.838	3709.39
422.28	3795.87
422.722	3806.2
423.164	3864.75
423.606	3791.79
424.048	3784.78
424.49	3589.31
424.932	3576.26
425.374	3533.61
425.816	3602.11
426.258	3667.85
426.699	3708.69
427.141	3650.12
427.582	3710.93
428.024	3693.96
428.465	3677.27
428.907	3581.14
429.348	3536.56
429.789	3524.68
430.231	3438.12
430.672	3480.62
431.113	3395.48
431.554	3337.37
431.995	3252.86
432.436	3125.2
432.877	3045
433.318	2982.59
433.759	2968.05
434.2	2961.58
434.64	2930.25
435.081	2939.7
435.522	2782.56
435.962	2680.65
436.403	2619.61
436.843	2660.34
437.284	2609.43
437.724	2549.25
438.164	2564.51
438.604	2512.73
439.045	2420.86
439.485	2318.27
439.925	2276.82
440.365	2223.8
440.805	2198.68
441.245	2174.2
441.685	2095.56
442.125	2087.19
442.564	2104.81
443.004	2062.18
443.444	2063.34
443.883	2071.58
444.323	2071.92
444.762	2087.63
445.202	2125.95
445.641	2167.18
446.081	2165.45
446.52	2191.65
446.959	2172.95
447.398	2120.99
447.837	2100.77
448.276	2070.85
448.716	2096.81
449.154	2122.17
449.593	2073.44
450.032	2069.04
450.471	2042.34
450.91	2050.95
451.349	2049.13
451.787	2049.46
452.226	2088.27
452.664	2093.6
453.103	2099.51
453.541	2105.59
453.98	2099.76
454.418	2118.03
454.856	2086.12
455.295	2085.03
455.733	2103.16
456.171	2118.44
456.609	2118.63
457.047	2119.8
457.485	2148.38
457.923	2151.37
458.361	2121.8
458.798	2132.59
459.236	2127.19
459.674	2145.02
460.111	2152.46
460.549	2129.54
460.987	2122.5
461.424	2118.88
461.862	2107.61
462.299	2072.55
462.736	2065.85
463.173	2070.91
463.611	2037.52
464.048	2027.96
464.485	2039.86
464.922	2021.07
465.359	2010.05
465.796	1962.6
466.233	1942.63
466.67	1916.26
467.106	1909.01
467.543	1893.21
467.98	1870.04
468.416	1827.57
468.853	1816.86
469.29	1765.37
469.726	1746.5
470.162	1702.36
470.599	1698.33
471.035	1688.18
471.471	1653.74
471.907	1651.12
472.344	1644.5
472.78	1650.05
473.216	1675.53
473.652	1657.59
474.088	1656.56
474.523	1652.61
474.959	1670.22
475.395	1656.95
475.831	1647.91
476.266	1659.52
476.702	1658.47
477.138	1641.7
477.573	1640.11
478.008	1636.58
478.444	1645.67
478.879	1662.22
479.314	1672.4
479.75	1675.09
480.185	1688.62
480.62	1708.84
481.055	1721.24
481.49	1735.07
481.925	1763.89
482.36	1791.55
482.795	1846.11
483.229	1901.96
483.664	1944.78
484.099	1956.11
484.534	1987.38
484.968	2006.04
485.403	2015.66
485.837	2017.87
486.271	2017.39
486.706	2021.73
487.14	2004.88
487.574	1972.48
488.009	1955.11
488.443	1939.85
488.877	1958.3
489.311	1966.48
489.745	1989.44
490.179	2005.23
490.613	2036.68
491.046	2054.21
491.48	2069.87
491.914	2072.14
492.348	2087.61
492.781	2098.32
493.215	2103.38
493.648	2108.42
494.082	2122.3
494.515	2121.28
494.948	2141.36
495.382	2158.37
495.815	2169.12
496.248	2180.36
496.681	2217.06
497.114	2249.01
497.547	2274.07
497.98	2304.87
498.413	2315.52
498.846	2338.61
499.279	2360.53
499.711	2369.52
500.144	2368.91
500.577	2388.71
501.009	2412.29
501.442	2428.11
501.874	2419.05
502.306	2414.73
502.739	2420.88
503.171	2451.3
503.603	2445.91
504.036	2456.88
504.468	2455.71
504.9	2472.13
505.332	2475.7
505.764	2470.67
506.196	2472.01
506.627	2491.19
507.059	2506.07
507.491	2513.64
507.923	2485.82
508.354	2503.71
508.786	2509.16
509.217	2531.62
509.649	2542.45
510.08	2565.77
510.512	2579.68
510.943	2590.02
511.374	2591.81
511.805	2615.53
512.237	2634.03
512.668	2684.15
513.099	2719.95
513.53	2753.58
513.961	2770.12
514.391	2812.56
514.822	2853.89
515.253	2902.81
515.684	2928.83
516.114	2960
516.545	2970.41
516.975	2993.33
517.406	2998.55
517.836	2971.52
518.267	2953.23
518.697	2957.4
519.127	2935.4
519.558	2919.44
519.988	2897.41
520.418	2889.01
520.848	2896.8
521.278	2887.62
521.708	2871.01
522.138	2868.95
522.567	2903.48
522.997	2925.76
523.427	2933.49
523.857	2942.45
524.286	2940.1
524.716	2946.75
525.145	2959.7
525.575	2958.79
526.004	2967.08
526.433	2954.37
526.863	2938.01
527.292	2903.26
527.721	2898.64
528.15	2894.34
528.579	2881.47
529.008	2886.26
529.437	2912.36
529.866	2924.66
530.295	2942.48
530.724	2951.16
531.152	2985.98
531.581	2999.89
532.01	3019.5
532.438	3023.3
532.867	3038.35
533.295	3060.45
533.723	3063.44
534.152	3053.08
534.58	3044.59
535.008	3011.91
535.436	3009.5
535.865	3015.78
536.293	3034.74
536.721	3055.61
537.149	3092.83
537.576	3091.05
538.004	3107.3
538.432	3116.64
538.86	3109.82
539.287	3117.76
539.715	3137.37
540.143	3138.81
540.57	3131.29
540.998	3121.17
541.425	3080.63
541.852	3044.35
542.28	3039.96
542.707	3010.54
543.134	2985.03
543.561	2976.25
543.988	2962.93
544.415	2961.02
544.842	2949.71
545.269	2936.75
545.696	2939.77
546.123	2959.65
546.549	2942.05
546.976	2920.62
547.403	2920.97
547.829	2925.05
548.256	2928.92
548.682	2923.06
549.108	2910.63
549.535	2910.82
549.961	2914.9
550.387	2893.09
550.813	2886.17
551.24	2897.42
551.666	2901.78
552.092	2887.77
552.518	2879.66
552.943	2871.77
553.369	2886.43
553.795	2898.98
554.221	2904.19
554.646	2901.77
555.072	2923.17
555.498	2934.77
555.923	2954.42
556.349	2983.33
556.774	3004.21
557.199	3011
557.625	3027.57
558.05	3023.05
558.475	3046.48
558.9	3051.24
559.325	3045.36
559.75	3042.68
560.175	3040.75
560.6	3038.75
561.025	3043.57
561.449	3053.15
561.874	3072.11
562.299	3088.84
562.723	3111.29
563.148	3102.86
563.572	3120.39
563.997	3147.87
564.421	3168.87
564.846	3180.8
565.27	3197.87
565.694	3206.91
566.118	3240.5
566.542	3265.79
566.966	3267.57
567.39	3274.57
567.814	3269.05
568.238	3282.5
568.662	3307.4
569.086	3325.79
569.509	3353.58
569.933	3339.92
570.357	3340.35
570.78	3314.78
571.204	3305.13
571.627	3300.05
572.05	3311.56
572.474	3326.29
572.897	3317.18
573.32	3315.36
573.743	3313.72
574.166	3294.42
574.589	3311.57
575.012	3312.32
575.435	3326.85
575.858	3325.33
576.281	3318.5
576.704	3301.3
577.126	3293.28
577.549	3286.69
577.972	3282.21
578.394	3275.11
578.817	3272.65
579.239	3247.6
579.661	3233.37
580.084	3211.72
580.506	3197.75
580.928	3202.35
581.35	3192.75
581.772	3195.63
582.194	3179.59
582.616	3165.69
583.038	3147.85
583.46	3136.92
583.882	3139.89
584.303	3159.61
584.725	3162.05
585.147	3170.63
585.568	3201.74
585.99	3235.48
586.411	3256.34
586.833	3296.48
587.254	3308.43
587.675	3346.76
588.096	3381.37
588.518	3379.08
588.939	3349.32
589.36	3353.61
589.781	3344.19
590.202	3285.89
590.623	3273.2
591.043	3275.2
591.464	3251.76
591.885	3247.95
592.305	3240.49
592.726	3217.15
593.147	3225.08
593.567	3220.2
593.987	3208.35
594.408	3202.69
594.828	3208.3
595.248	3199.85
595.669	3163.68
596.089	3154.63
596.509	3145.27
596.929	3119.5
597.349	3126.44
597.769	3108.07
598.189	3097.87
598.608	3103.98
599.028	3110.85
599.448	3114.8
599.867	3090.95
600.287	3087.33
600.706	3080.63
601.126	3063.16
601.545	3064.13
601.965	3066.24
602.384	3060.26
602.803	3072.13
603.222	3067.07
603.641	3059.61
604.061	3056.39
604.48	3054.29
604.898	3080.22
605.317	3099.94
605.736	3113.2
606.155	3114.91
606.574	3102.55
606.992	3124.08
607.411	3122.09
607.829	3113.75
608.248	3116.19
608.666	3121.65
609.085	3130.58
609.503	3120.32
609.921	3116.37
610.339	3132.09
610.758	3142.77
611.176	3143.25
611.594	3131.85
612.012	3135.47
612.43	3153.56
612.847	3180.44
613.265	3193.39
613.683	3216.52
614.101	3231.02
614.518	3234.26
614.936	3223.01
615.353	3198.75
615.771	3200.74
616.188	3211.77
616.606	3214.1
617.023	3207.11
617.44	3180.96
617.857	3175.65
618.274	3163.66
618.691	3156.21
619.108	3142.06
619.525	3134.34
619.942	3158.11
620.359	3172.69
620.776	3166.75
621.192	3161.86
621.609	3161.91
622.026	3184.64
622.442	3203.81
622.859	3218.02
623.275	3205
623.691	3221.77
624.108	3253.82
624.524	3295.01
624.94	3299.06
625.356	3328.2
625.772	3366.16
626.188	3399.84
626.604	3406.85
627.02	3399.22
627.436	3393.41
627.852	3412.57
628.268	3445.5
628.683	3425.25
629.099	3404.56
629.514	3394.3
629.93	3406.3
630.345	3420.24
630.761	3414.6
631.176	3426.62
631.591	3412.15
632.007	3400.65
632.422	3401.59
632.837	3379.01
633.252	3376.35
633.667	3355.79
634.082	3338.62
634.497	3311.86
634.911	3264.02
635.326	3261.84
635.741	3225.26
636.155	3210.88
636.57	3224.49
636.984	3233.41
637.399	3245.25
637.813	3256.63
638.228	3265.84
638.642	3290.58
639.056	3276.31
639.47	3293.86
639.884	3284.88
640.298	3282.92
640.712	3292.01
641.126	3272.93
641.54	3264.9
641.954	3271.02
642.368	3250.65
642.781	3238.4
643.195	3202.63
643.609	3218.93
644.022	3217.8
644.436	3220.18
644.849	3199.83
645.262	3181.73
645.676	3201.14
646.089	3199.69
646.502	3165.03
646.915	3164.42
647.328	3129.04
647.741	3134.42
648.154	3104.8
648.567	3099.41
648.98	3069.77
649.393	3077.87
649.805	3072.93
650.218	3057.17
650.631	3015.34
651.043	3003.59
651.456	2990.46
651.868	3002.5
652.28	3062.49
652.693	3115.62
653.105	3148.24
653.517	3185.88
653.929	3195.86
654.341	3222.4
654.753	3193.2
655.165	3223.91
655.577	3224.97
655.989	3222.12
656.401	3209.48
656.813	3103.39
657.224	3049.72
657.636	2972.92
658.047	2924.86
658.459	2873.36
658.87	2860
659.282	2834.35
659.693	2777.18
660.104	2741.53
660.515	2709.48
660.926	2711.58
661.338	2714.63
661.749	2703
662.159	2677.72
662.57	2673.77
662.981	2665.94
663.392	2646.15
663.803	2663.98
664.213	2662.04
664.624	2653.64
665.035	2668.04
665.445	2625.98
665.855	2599.73
666.266	2572.23
666.676	2566.9
667.086	2537.5
667.497	2533.24
667.907	2509.91
668.317	2478.27
668.727	2455.37
669.137	2454.51
669.547	2441.35
669.956	2448.64
670.366	2454
670.776	2455.23
671.186	2462.96
671.595	2467.13
672.005	2474.36
672.414	2465.91
672.824	2453.5
673.233	2471.34
673.642	2472.1
674.052	2472.13
674.461	2467.67
674.87	2474.51
675.279	2458.81
675.688	2460.79
676.097	2456.98
676.506	2440.61
676.915	2483.24
677.323	2488.16
677.732	2476.23
678.141	2471.06
678.549	2436.31
678.958	2434.29
679.366	2431.87
679.775	2449.69
680.183	2475.57
680.592	2497.16
681	2517.64
681.408	2496.7
681.816	2524.77
682.224	2557.38
682.632	2590.43
683.04	2688.97
683.448	2770.04
683.856	2865.12
684.264	2974.36
684.671	3078.47
685.079	3200.77
685.487	3332.46
685.894	3515.41
686.302	3655.87
686.709	3758.23
687.116	3877.71
687.524	3957.84
687.931	4011.65
688.338	4046.84
688.745	4061.32
689.152	4080.99
689.559	4122.99
689.966	4155.97
