Data from N_3_DEC_OH_4N_Splice17_13-34-48-557.txt Node
Date: Sat Mar 14 13:34:48 EDT 2020
User: sa697716
Spectrometer: FLMS03696
Trigger mode: 0
Integration Time (sec): 3.180400E-1
Scans to average: 20
Electric dark correction enabled: true
Nonlinearity correction enabled: true
Boxcar width: 5
XAxis mode: Wavelengths
Number of Pixels in Spectrum: 2048
>>>>>Begin Spectral Data<<<<<
187.83	-373178.75
188.298	2770.47
188.766	1541.88
189.233	1389.3
189.701	1958.05
190.169	2673.75
190.636	1027.65
191.104	842.68
191.571	144.31
192.039	-95.39
192.506	-128.99
192.974	595.84
193.441	-887.03
193.908	-141.89
194.375	-22.69
194.842	33.47
195.31	104.63
195.777	157.38
196.244	383.8
196.711	485.17
197.177	613.28
197.644	871.71
198.111	1561.85
198.578	2198.93
199.045	1758.55
199.511	2871.42
199.978	3357.31
200.445	2886.38
200.911	3200.3
201.378	3604.68
201.844	3280.25
202.31	5643.68
202.777	5850.99
203.243	3245.43
203.709	3095.19
204.176	3690.01
204.642	3048.4
205.108	2870.26
205.574	2325.84
206.04	2129.65
206.506	1999.88
206.972	1882.48
207.438	1814.67
207.903	2078.99
208.369	1819.32
208.835	1816.34
209.301	1917.47
209.766	1965.93
210.232	1944.53
210.697	2410.28
211.163	2978.54
211.628	4508.27
212.094	3763.26
212.559	4671.14
213.024	2924.53
213.49	3574.28
213.955	3490.76
214.42	3420.18
214.885	3208.04
215.35	3084.69
215.815	2990.69
216.28	3199.73
216.745	2609.64
217.21	2853.54
217.675	2627.03
218.14	2969.53
218.604	3357.24
219.069	3885.58
219.534	4121.19
219.998	4827.33
220.463	5883.35
220.927	7313.78
221.392	6953.77
221.856	7089.05
222.32	9003.32
222.785	11198.48
223.249	14180.54
223.713	15910.46
224.177	15981.66
224.642	20590.89
225.106	25429.21
225.57	27888.19
226.034	20766.2
226.497	31636.89
226.961	28625.66
227.425	33420.64
227.889	37071.69
228.353	37110.34
228.816	76611.5
229.28	73310.22
229.744	61854.16
230.207	37614.91
230.671	37060.7
231.134	61374.08
231.597	70819.74
232.061	70853.5
232.524	69059.93
232.987	47671
233.45	42910.28
233.914	38483.73
234.377	39467.59
234.84	36150.14
235.303	42628.19
235.766	47579.45
236.229	49231.08
236.691	30998.14
237.154	34823.61
237.617	26201.9
238.08	26822.53
238.542	31399.7
239.005	22460.22
239.468	22289.31
239.93	20994.26
240.393	19089.91
240.855	16756.91
241.317	17143.81
241.78	20879.52
242.242	21593.18
242.704	23309.06
243.166	20283.68
243.629	18420.89
244.091	21230.74
244.553	23281.73
245.015	25029.55
245.477	32387.63
245.939	47518
246.4	50477.68
246.862	49072.08
247.324	46290.8
247.786	51857.41
248.247	68071.65
248.709	70340.06
249.17	52687.35
249.632	49726.62
250.093	57666.11
250.555	49785.04
251.016	30366.08
251.477	28807.52
251.939	31090.01
252.4	32628.77
252.861	38786.03
253.322	36101.14
253.783	43015.2
254.244	55835.64
254.705	43971.71
255.166	39149.23
255.627	38614.35
256.088	54519.2
256.549	57958.82
257.009	50006.39
257.47	60746.38
257.931	49568.27
258.391	37189.69
258.852	38364.76
259.312	40263.15
259.773	49796
260.233	42127.15
260.694	35579
261.154	40428.06
261.614	32501.74
262.074	29097.02
262.534	30289.58
262.994	28548.61
263.455	38076.82
263.915	32133.19
264.374	30298.78
264.834	33130.76
265.294	36769.69
265.754	38124.11
266.214	36130.02
266.673	33890.04
267.133	42819.38
267.593	42518.79
268.052	52158.77
268.512	45393.06
268.971	54755.67
269.431	60111.05
269.89	53879.64
270.349	80918.27
270.809	90285.73
271.268	81192.08
271.727	182138.75
272.186	118038.17
272.645	88624.5
273.104	63969.73
273.563	92738.53
274.022	72985.22
274.481	62154.65
274.94	47912.77
275.399	35641.57
275.857	41548.17
276.316	56243.44
276.775	50126.68
277.233	49398.07
277.692	46230.32
278.15	52324.84
278.609	53852.71
279.067	49889.61
279.525	46342.84
279.984	59905.28
280.442	71907.55
280.9	70852.39
281.358	46612.59
281.816	43434.1
282.274	42544.99
282.732	43998.4
283.19	44219.19
283.648	38177.68
284.106	40680.04
284.564	41376.86
285.021	38367.58
285.479	28610.09
285.937	26063.99
286.394	22897.69
286.852	23592.31
287.309	24812.39
287.767	23971.52
288.224	22817.79
288.682	25046.46
289.139	27508.71
289.596	25186.3
290.053	26192.19
290.511	33085.78
290.968	40121.65
291.425	54447.26
291.882	45288.4
292.339	39435.34
292.796	39132.4
293.252	36865.73
293.709	29287.98
294.166	26259.91
294.623	28999.87
295.079	27849.72
295.536	27988.55
295.992	25412.58
296.449	25126.53
296.905	26097.07
297.362	25031.19
297.818	26366.92
298.274	27374.16
298.731	27890.82
299.187	27610.96
299.643	29670.33
300.099	35871.61
300.555	39323.11
301.011	32860.01
301.467	31679.88
301.923	37141.55
302.379	36240.67
302.835	35594.29
303.291	35634.37
303.746	40594.47
304.202	51298.06
304.658	51542.5
305.113	34678.67
305.569	34005.44
306.024	36284.73
306.479	34586.47
306.935	29174.5
307.39	31881.23
307.845	29458.09
308.301	29650.08
308.756	28915.43
309.211	27876.26
309.666	28556.21
310.121	35461.49
310.576	35988.44
311.031	35698.49
311.486	40900.59
311.94	40847.56
312.395	54671.73
312.85	102653.56
313.305	504755.12
313.759	2610112.65
314.214	188807.2
314.668	149524.16
315.123	125656.27
315.577	45057.78
316.032	40108.56
316.486	50310.02
316.94	39738.91
317.394	27669.9
317.849	21514.79
318.303	20348.73
318.757	19205.13
319.211	21252.01
319.665	18628.39
320.119	18879.88
320.572	27098.06
321.026	25306.28
321.48	21034.68
321.934	22929.5
322.387	22972.27
322.841	24787.29
323.295	22281.92
323.748	25672.97
324.202	26058.96
324.655	31301.25
325.108	43672.39
325.562	30846.37
326.015	36650.19
326.468	27686.86
326.921	30958.4
327.374	28840.03
327.827	30028.67
328.28	33998.26
328.733	22753.05
329.186	20009.38
329.639	19055.12
330.092	16071.77
330.545	15291.46
330.997	15417.29
331.45	16844.5
331.903	19728.04
332.355	33977.02
332.808	33030.54
333.26	27241.25
333.713	29581.47
334.165	29783.82
334.617	39759.63
335.069	32136.55
335.522	58132.18
335.974	64428.85
336.426	58914.24
336.878	40814.3
337.33	20670.56
337.782	20200.99
338.234	25279.16
338.686	30249.74
339.137	35802.02
339.589	33688.38
340.041	26405.31
340.493	22734.92
340.944	23268.76
341.396	25046.04
341.847	21055.67
342.299	24876.21
342.75	30360.06
343.201	26562.3
343.653	30568.1
344.104	37565.32
344.555	29632.49
345.006	46118.06
345.457	35277.91
345.908	28044.62
346.359	26390.74
346.81	21517.58
347.261	22683.53
347.712	22353.26
348.163	23994.95
348.613	24286.55
349.064	22707.75
349.515	19856.63
349.965	20347.93
350.416	24523.72
350.866	26920.5
351.317	30452.4
351.767	50425.31
352.217	63717.81
352.668	52891.04
353.118	48434.8
353.568	46703.66
354.018	36943.21
354.468	38992.02
354.918	27976.66
355.368	24467.78
355.818	34561.43
356.268	99456.77
356.718	416174.92
357.168	103535.4
357.617	51924.17
358.067	57769.06
358.517	54131.65
358.966	63453.91
359.416	71192.72
359.865	76968.97
360.315	91580.81
360.764	42803.39
361.213	23963.34
361.663	22696.29
362.112	28046.79
362.561	45300.56
363.01	34140.2
363.459	28712.47
363.908	31071.15
364.357	26304.32
364.806	44433.65
365.255	30541.17
365.703	27924.68
366.152	27970.3
366.601	22692.44
367.05	18393.27
367.498	16716.35
367.947	17488.63
368.395	18185.61
368.844	16107.41
369.292	19449.14
369.74	13431.29
370.189	20596.67
370.637	24136.52
371.085	20836.11
371.533	25353.51
371.981	24448.3
372.429	23291.23
372.877	24233.04
373.325	20267.19
373.773	20613.85
374.221	18355.45
374.669	22734.02
375.116	19613.23
375.564	19765
376.012	22075.45
376.459	18196.35
376.907	21718.13
377.354	26204.81
377.801	24384.02
378.249	28003.58
378.696	35760.03
379.143	43266.39
379.591	46183.99
380.038	78073.59
380.485	56407.98
380.932	60871.31
381.379	55542.97
381.826	40836.39
382.273	29046.92
382.72	25391.29
383.166	24747.23
383.613	16039.87
384.06	14420.03
384.506	16642.88
384.953	12216.2
385.4	12271.23
385.846	10730.35
386.292	10456.8
386.739	10239.61
387.185	10112.78
387.631	10103.3
388.078	9797.68
388.524	10477.84
388.97	9689.02
389.416	8088.22
389.862	8576.16
390.308	8127.23
390.754	8249.03
391.2	8956.84
391.645	9148.14
392.091	8751.61
392.537	8474.52
392.983	8495.88
393.428	8349.51
393.874	8949.82
394.319	8977.18
394.765	8530.86
395.21	8775.6
395.655	8235.97
396.101	7706.4
396.546	6973.93
396.991	7034
397.436	6514.98
397.881	6299.06
398.326	5979.86
398.771	5655.07
399.216	4944.78
399.661	4453.08
400.106	4435.92
400.551	4547.75
400.995	4080.61
401.44	4034.47
401.885	3795.32
402.329	3851.65
402.774	3691
403.218	3568.39
403.663	3439.55
404.107	3535.72
404.551	3566.72
404.995	3275.3
405.44	3153.09
405.884	3201.14
406.328	3091.89
406.772	3080.34
407.216	2798.63
407.66	2702.31
408.104	2562.15
408.547	2394.59
408.991	2313.66
409.435	2224.24
409.879	2187.93
410.322	2158.38
410.766	2083.58
411.209	1980.82
411.653	1900.5
412.096	1859.13
412.54	1858.22
412.983	1845.9
413.426	1850.88
413.869	1847.25
414.312	1806.3
414.756	1741.04
415.199	1654.43
415.642	1604.11
416.085	1605.73
416.527	1593.35
416.97	1616.53
417.413	1531.49
417.856	1511.77
418.298	1495.99
418.741	1484.61
419.184	1481.69
419.626	1540.71
420.069	1543.98
420.511	1550.37
420.953	1513.41
421.396	1498.84
421.838	1460.24
422.28	1492.1
422.722	1500.65
423.164	1518.69
423.606	1494.25
424.048	1492.2
424.49	1417.09
424.932	1408.25
425.374	1389.49
425.816	1414.18
426.258	1438.22
426.699	1451.14
427.141	1430.33
427.582	1450.03
428.024	1441.85
428.465	1430.51
428.907	1392.81
429.348	1375.02
429.789	1372.31
430.231	1343.01
430.672	1359.27
431.113	1323.91
431.554	1303.01
431.995	1268.58
432.436	1224.28
432.877	1196.49
433.318	1176.12
433.759	1169.02
434.2	1168.99
434.64	1155.52
435.081	1155.67
435.522	1094.19
435.962	1054.7
436.403	1032.97
436.843	1047.2
437.284	1023.89
437.724	994.35
438.164	997.62
438.604	974.23
439.045	935.03
439.485	898.71
439.925	880.86
440.365	859.3
440.805	847.14
441.245	835.27
441.685	806.4
442.125	799.66
442.564	807.8
443.004	790.32
443.444	791.99
443.883	794.47
444.323	788.41
444.762	791.02
445.202	802.72
445.641	822.28
446.081	821.13
446.52	827.63
446.959	822.98
447.398	804.93
447.837	796.85
448.276	785.47
448.716	795.56
449.154	806.04
449.593	790.22
450.032	792.34
450.471	777.78
450.91	779.47
451.349	781.19
451.787	779.48
452.226	793.53
452.664	796.33
453.103	798.11
453.541	799.61
453.98	799.34
454.418	805.36
454.856	792.61
455.295	791.57
455.733	799.72
456.171	804.23
456.609	805.12
457.047	804.99
457.485	815.98
457.923	818.58
458.361	807.4
458.798	810.47
459.236	808
459.674	813.17
460.111	818.14
460.549	810.02
460.987	807.57
461.424	805.3
461.862	800.13
462.299	786.76
462.736	784.99
463.173	786.48
463.611	777.41
464.048	775.21
464.485	780.87
464.922	771.87
465.359	766.55
465.796	758.03
466.233	751.98
466.67	744.64
467.106	743.97
467.543	736.02
467.98	727.62
468.416	708.62
468.853	703.3
469.29	683.15
469.726	677.05
470.162	659.75
470.599	649.43
471.035	643.68
471.471	629.52
471.907	626.64
472.344	624.03
472.78	627.21
473.216	636.81
473.652	631.02
474.088	630.86
474.523	630.6
474.959	638.59
475.395	634.56
475.831	633.29
476.266	637.64
476.702	637.65
477.138	632.11
477.573	630.98
478.008	629.27
478.444	632.82
478.879	639.87
479.314	643.12
479.75	643.65
480.185	646.97
480.62	653.13
481.055	658.07
481.49	663.56
481.925	674.85
482.36	687.7
482.795	709.09
483.229	730.21
483.664	746.38
484.099	750.43
484.534	763.3
484.968	773.68
485.403	777.85
485.837	777.85
486.271	778.17
486.706	780.36
487.14	772.92
487.574	760.78
488.009	754.83
488.443	750.21
488.877	760.74
489.311	765.64
489.745	775.67
490.179	784.55
490.613	801.63
491.046	809.53
491.48	818
491.914	821.99
492.348	830.83
492.781	839.19
493.215	843.91
493.648	848.22
494.082	857.53
494.515	861.03
494.948	874.37
495.382	883.95
495.815	894.73
496.248	905.2
496.681	925.27
497.114	944.39
497.547	961.08
497.98	982.04
498.413	993.69
498.846	1010.06
499.279	1026.25
499.711	1036.58
500.144	1043.62
500.577	1061.7
501.009	1081.34
501.442	1097.54
501.874	1103.21
502.306	1109.97
502.739	1124.52
503.171	1148.91
503.603	1157.81
504.036	1174.37
504.468	1185.97
504.9	1205.68
505.332	1218.19
505.764	1227.29
506.196	1240.17
506.627	1263.61
507.059	1284.81
507.491	1300.31
507.923	1299.73
508.354	1322.89
508.786	1339.33
509.217	1365.7
509.649	1388.31
510.08	1415.39
510.512	1438.86
510.943	1460.94
511.374	1475.76
511.805	1504.18
512.237	1530.66
512.668	1575.51
513.099	1612.58
513.53	1650.09
513.961	1677.29
514.391	1719.62
514.822	1763.37
515.253	1810.9
515.684	1843.4
516.114	1882.84
516.545	1909.27
516.975	1942.02
517.406	1962.74
517.836	1962.87
518.267	1969.26
518.697	1989.36
519.127	1992.12
519.558	1998.71
519.988	1999.01
520.418	2010.03
520.848	2029.99
521.278	2038.46
521.708	2057.35
522.138	2071.62
522.567	2109.42
522.997	2139.38
523.427	2156.51
523.857	2174.3
524.286	2184.69
524.716	2202.17
525.145	2224.32
525.575	2236.37
526.004	2252
526.433	2240.19
526.863	2236.84
527.292	2220.47
527.721	2224.83
528.15	2230.2
528.579	2228.15
529.008	2239.73
529.437	2266.93
529.866	2283.51
530.295	2303.6
530.724	2318.31
531.152	2351.63
531.581	2369.21
532.01	2390.85
532.438	2400.41
532.867	2418.27
533.295	2441.7
533.723	2448.5
534.152	2444.13
534.58	2440.22
535.008	2416.18
535.436	2416.04
535.865	2424.59
536.293	2440.54
536.721	2459.89
537.149	2490.18
537.576	2491.64
538.004	2505.63
538.432	2514.12
538.86	2510.9
539.287	2520.34
539.715	2538.35
540.143	2540.71
540.57	2534.5
540.998	2529.53
541.425	2497.78
541.852	2468.98
542.28	2466.2
542.707	2444.77
543.134	2426.36
543.561	2419.95
543.988	2407.63
544.415	2405.89
544.842	2398.52
545.269	2387.76
545.696	2389.36
546.123	2406.89
546.549	2393.79
546.976	2376.76
547.403	2376.51
547.829	2377.65
548.256	2381.55
548.682	2378.06
549.108	2368.73
549.535	2368.48
549.961	2372.42
550.387	2356.09
550.813	2348.88
551.24	2357.45
551.666	2360.02
552.092	2348.16
552.518	2340.94
552.943	2333.76
553.369	2345.57
553.795	2355.16
554.221	2357.71
554.646	2355.31
555.072	2371.79
555.498	2380.89
555.923	2395.8
556.349	2417.98
556.774	2431.74
557.199	2437.25
557.625	2446.9
558.05	2440.92
558.475	2456.39
558.9	2458.53
559.325	2450.18
559.75	2444.12
560.175	2437.61
560.6	2432.13
561.025	2431.96
561.449	2436.23
561.874	2446.45
562.299	2455.92
562.723	2468.54
563.148	2457.24
563.572	2465.28
563.997	2482.24
564.421	2491.93
564.846	2495.18
565.27	2503.8
565.694	2503.83
566.118	2523.43
566.542	2537.06
566.966	2531.09
567.39	2527.78
567.814	2517.29
568.238	2521.28
568.662	2532.41
569.086	2540.62
569.509	2554.21
569.933	2535.35
570.357	2529.66
570.78	2504.45
571.204	2489.44
571.627	2479.75
572.05	2481.29
572.474	2486.95
572.897	2471.3
573.32	2463.47
573.743	2452.14
574.166	2430.84
574.589	2435.84
575.012	2429.06
575.435	2430.89
575.858	2421.87
576.281	2407.78
576.704	2389.51
577.126	2374.96
577.549	2364.84
577.972	2356.11
578.394	2346.07
578.817	2338.42
579.239	2314.29
579.661	2297.71
580.084	2277.79
580.506	2262.02
580.928	2260.8
581.35	2247.79
581.772	2244.07
582.194	2226.79
582.616	2209.93
583.038	2192.62
583.46	2180.76
583.882	2179.75
584.303	2188.86
584.725	2185.12
585.147	2188.07
585.568	2205.15
585.99	2225.05
586.411	2235.68
586.833	2259.87
587.254	2264.94
587.675	2287.96
588.096	2308.45
588.518	2301.57
588.939	2277.61
589.36	2276.58
589.781	2264.21
590.202	2224.04
590.623	2210.96
591.043	2208.79
591.464	2190.89
591.885	2184.73
592.305	2175.53
592.726	2155.96
593.147	2158.88
593.567	2150.67
593.987	2141.26
594.408	2135.25
594.828	2132.65
595.248	2125.07
595.669	2098.32
596.089	2088.34
596.509	2080.63
596.929	2061.52
597.349	2063.55
597.769	2048.97
598.189	2042.18
598.608	2043.61
599.028	2046.24
599.448	2047.58
599.867	2030.62
600.287	2025.73
600.706	2020.28
601.126	2006.13
601.545	2005.43
601.965	2003.58
602.384	1997.25
602.803	2001.64
603.222	1996.95
603.641	1989.59
604.061	1985.71
604.48	1981.36
604.898	1994.37
605.317	2003.85
605.736	2009.39
606.155	2006.51
606.574	1997.39
606.992	2007.36
607.411	2002.42
607.829	1991.45
608.248	1988.45
608.666	1987.6
609.085	1987.57
609.503	1977.42
609.921	1970.14
610.339	1974.47
610.758	1975.7
611.176	1969.64
611.594	1957.68
612.012	1955.02
612.43	1960.65
612.847	1971.64
613.265	1974.15
613.683	1983.56
614.101	1986.58
614.518	1982.87
614.936	1968.75
615.353	1948.9
615.771	1946.09
616.188	1947.88
616.606	1942.92
617.023	1934.36
617.44	1915.27
617.857	1907.11
618.274	1895.85
618.691	1887.81
619.108	1874.86
619.525	1869.22
619.942	1879.29
620.359	1882.68
620.776	1875.65
621.192	1871.59
621.609	1870.03
622.026	1879.99
622.442	1888.4
622.859	1894.82
623.275	1885.05
623.691	1893.36
624.108	1908.72
624.524	1932.23
624.94	1933.85
625.356	1949.1
625.772	1967.69
626.188	1986.03
626.604	1989.08
627.02	1983.38
627.436	1979.23
627.852	1988.4
628.268	2006.06
628.683	1993.47
629.099	1979.24
629.514	1971.7
629.93	1977.82
630.345	1984.89
630.761	1978.56
631.176	1983.19
631.591	1972.53
632.007	1961.42
632.422	1958.45
632.837	1942.1
633.252	1937.28
633.667	1921.22
634.082	1906.13
634.497	1883.8
634.911	1852.9
635.326	1845.72
635.741	1817.85
636.155	1802.21
636.57	1803.87
636.984	1802.54
637.399	1802.08
637.813	1800.07
638.228	1797.39
638.642	1802.86
639.056	1787.69
639.47	1787.19
639.884	1772.11
640.298	1761.6
640.712	1758
641.126	1737.83
641.54	1721.17
641.954	1712.26
642.368	1692.6
642.781	1677.77
643.195	1648.66
643.609	1647.33
644.022	1635.82
644.436	1627.98
644.849	1608.28
645.262	1589.81
645.676	1589.79
646.089	1581.24
646.502	1555.69
646.915	1545.14
647.328	1519.05
647.741	1513.48
648.154	1491.4
648.567	1485.19
648.98	1464.14
649.393	1461.6
649.805	1452.99
650.218	1440.1
650.631	1416.91
651.043	1407.15
651.456	1398.76
651.868	1399.23
652.28	1424.16
652.693	1444.07
653.105	1451.66
653.517	1464.9
653.929	1465.27
654.341	1473.51
654.753	1455.04
655.165	1463.35
655.577	1459.29
655.989	1450.55
656.401	1437.07
656.813	1383.45
657.224	1353.36
657.636	1312.4
658.047	1284.82
658.459	1255.63
658.87	1241.43
659.282	1222.52
659.693	1190.42
660.104	1167.54
660.515	1145.72
660.926	1139.56
661.338	1132.65
661.749	1120.84
662.159	1103.63
662.57	1092.55
662.981	1081.84
663.392	1065.83
663.803	1066.7
664.213	1057.8
664.624	1045.8
665.035	1043.27
665.445	1020.99
665.855	1006.37
666.266	990.39
666.676	982.98
667.086	966.41
667.497	961.19
667.907	949.01
668.317	932.35
668.727	924.82
669.137	921.78
669.547	916.31
669.956	916.16
670.366	914.56
670.776	913.99
671.186	915.48
671.595	918.59
672.005	918.95
672.414	916.19
672.824	913.06
673.233	915.6
673.642	917.77
674.052	919.35
674.461	918.88
674.87	921.75
675.279	917.03
675.688	915.73
676.097	915.39
676.506	912.05
676.915	927.82
677.323	929.69
677.732	928.7
678.141	927.62
678.549	915.42
678.958	916.28
679.366	918.39
679.775	926.93
680.183	944.95
680.592	956.79
681	967.99
681.408	965.76
681.816	981.6
682.224	997.94
682.632	1019.44
683.04	1064.8
683.448	1105.66
683.856	1155.07
684.264	1211.52
684.671	1266.19
685.079	1332.27
685.487	1404.58
685.894	1501.74
686.302	1588.34
686.709	1661.3
687.116	1742.96
687.524	1814.55
687.931	1875.87
688.338	1928.57
688.745	1973.33
689.152	2022.67
689.559	2084.73
689.966	2145.66
690.373	2174.75
690.78	2227.74
691.187	2312.84
691.593	2372.23
692	2422
692.407	2498.66
692.813	2592.03
693.22	2663.12
693.626	2737.17
694.032	2788.86
694.439	2876.75
694.845	2938.12
