Data from N_3_HIR_WI_4N_Splice17_13-11-53-412.txt Node
Date: Sat Mar 14 13:11:53 EDT 2020
User: sa697716
Spectrometer: FLMS03696
Trigger mode: 0
Integration Time (sec): 3.180400E-1
Scans to average: 20
Electric dark correction enabled: true
Nonlinearity correction enabled: true
Boxcar width: 5
XAxis mode: Wavelengths
Number of Pixels in Spectrum: 2048
>>>>>Begin Spectral Data<<<<<
187.83	-313024.93
188.298	2342.22
188.766	1228.16
189.233	1025.25
189.701	1422.38
190.169	2046.7
190.636	811.18
191.104	671.26
191.571	114.07
192.039	-73.52
192.506	-105.29
192.974	372.12
193.441	-645.47
193.908	-220.99
194.375	-107.13
194.842	-43.88
195.31	55.48
195.777	150.8
196.244	370.55
196.711	463.9
197.177	581.2
197.644	815.41
198.111	1421.69
198.578	2003.79
199.045	1622.4
199.511	2664.65
199.978	3110.47
200.445	2630.29
200.911	2914.93
201.378	3235.09
201.844	2937.33
202.31	5002.29
202.777	5271.42
203.243	2919.48
203.709	2797.16
204.176	3341.51
204.642	2744.05
205.108	2569.08
205.574	2119.24
206.04	1929.71
206.506	1818.23
206.972	1710.65
207.438	1664.9
207.903	1886.41
208.369	1657.12
208.835	1656.07
209.301	1729.32
209.766	1769.83
210.232	1750.47
210.697	2179.28
211.163	2722.56
211.628	4149.71
212.094	3530.62
212.559	4378.16
213.024	2727.96
213.49	3375.05
213.955	3335.84
214.42	3276.42
214.885	3076.81
215.35	2984.27
215.815	2904.57
216.28	3097.94
216.745	2557.7
217.21	2796.82
217.675	2622.65
218.14	3024.59
218.604	3463.1
219.069	4034.03
219.534	4323.06
219.998	5146.17
220.463	6346.14
220.927	7967.06
221.392	7617.29
221.856	7774.14
222.32	9925.79
222.785	12334.4
223.249	15652.06
223.713	17561.04
224.177	17653.18
224.642	22802.19
225.106	28127.84
225.57	30856.02
226.034	22917.92
226.497	34907.23
226.961	31554.9
227.425	36693.28
227.889	40782.82
228.353	40766.1
228.816	84177.65
229.28	80484.92
229.744	67784.63
230.207	41162.36
230.671	40489.67
231.134	67144.41
231.597	77469.68
232.061	77509.96
232.524	75707.09
232.987	52139.73
233.45	46912.24
233.914	42052.13
234.377	43125.24
234.84	39460.12
235.303	46535.26
235.766	51891.24
236.229	53521.53
236.691	33691.94
237.154	37808.07
237.617	28403.3
238.08	29078.47
238.542	34032.63
239.005	24336.48
239.468	24105.83
239.93	22711.32
240.393	20618.36
240.855	18090.58
241.317	18547.99
241.78	22559.04
242.242	23334.35
242.704	25167.85
243.166	21890.34
243.629	19842.98
244.091	22845.39
244.553	25045.71
245.015	26886.31
245.477	34785.98
245.939	51003.37
246.4	54057.68
246.862	52504.46
247.324	49448.45
247.786	55368.03
248.247	72583.52
248.709	74953.58
249.17	56036.36
249.632	52757.05
250.093	61084.24
250.555	52685.83
251.016	32080.08
251.477	30392.8
251.939	32776.29
252.4	34380.32
252.861	40837.65
253.322	37926.13
253.783	45128.31
254.244	58454.19
254.705	46071.08
255.166	40995.73
255.627	40343.89
256.088	56798.43
256.549	60266.91
257.009	51878.19
257.47	62924.21
257.931	51193.7
258.391	38344.47
258.852	39483.48
259.312	41419.02
259.773	51102.01
260.233	43161.24
260.694	36402.86
261.154	41320.59
261.614	33132.36
262.074	29621.41
262.534	30719.7
262.994	28937.54
263.455	38543.64
263.915	32478.91
264.374	30567.82
264.834	33367.71
265.294	36949.21
265.754	38228.66
266.214	36167.98
266.673	33893.15
267.133	42725.81
267.593	42383.42
268.052	51823.15
268.512	45014.18
268.971	54191
269.431	59328.95
269.89	53038.5
270.349	79436.31
270.809	88498.94
271.268	79405.64
271.727	177896.23
272.186	115089.7
272.645	86216.85
273.104	62148.89
273.563	89913.23
274.022	70628.81
274.481	60008.94
274.94	46197.55
275.399	34304.29
275.857	39903.73
276.316	53954.62
276.775	47912.26
277.233	47109.7
277.692	44031.78
278.15	49740.82
278.609	51052.37
279.067	47199.58
279.525	43793.73
279.984	56514.67
280.442	67810.5
280.9	66736.84
281.358	43828.74
281.816	40825.05
282.274	39938.02
282.732	41246.51
283.19	41413.31
283.648	35778.23
284.106	38077.68
284.564	38676.71
285.021	35807.97
285.479	26650.99
285.937	24239.22
286.394	21261.45
286.852	21869.83
287.309	22972.65
287.767	22190.97
288.224	21071.24
288.682	23093.37
289.139	25321.67
289.596	23158.81
290.053	24043.01
290.511	30330.54
290.968	36707.19
291.425	49799.3
291.882	41417.78
292.339	36043.79
292.796	35710.01
293.252	33632.23
293.709	26646.96
294.166	23868.06
294.623	26364.9
295.079	25291.33
295.536	25392.93
295.992	23046
296.449	22744.54
296.905	23590.6
297.362	22600.29
297.818	23771.37
298.274	24645.71
298.731	25120.76
299.187	24827.28
299.643	26626.42
300.099	32155.78
300.555	35229.53
301.011	29391.48
301.467	28287.86
301.923	33127.8
302.379	32302.19
302.835	31659.09
303.291	31644.61
303.746	35987.51
304.202	45453.04
304.658	45562.09
305.113	30628.29
305.569	29978.12
306.024	31950.69
306.479	30439.75
306.935	25605.15
307.39	27953.12
307.845	25826.36
308.301	25977.75
308.756	25267.99
309.211	24303.53
309.666	24905.01
310.121	30885.64
310.576	31352.06
311.031	31064.05
311.486	35508.88
311.94	35469.21
312.395	47333.75
312.85	88698.52
313.305	435168.69
313.759	2251460.09
314.214	162945.44
314.668	128800.9
315.123	108214.88
315.577	38763.65
316.032	34489.62
316.486	43196.66
316.94	34043.97
317.394	23718.62
317.849	18429.03
318.303	17457.56
318.757	16464
319.211	18197.75
319.665	15930.33
320.119	16118.15
320.572	23065.74
321.026	21543.58
321.48	17917.73
321.934	19545.84
322.387	19569.76
322.841	21135.56
323.295	18968.71
323.748	21848.46
324.202	22157.13
324.655	26602.2
325.108	37104.76
325.562	26187.95
326.015	31096.39
326.468	23470
326.921	26215.71
327.374	24394.18
327.827	25358.02
328.28	28653.43
328.733	19198.09
329.186	16851.13
329.639	16052.89
330.092	13512.6
330.545	12867.78
330.997	12963.93
331.45	14160.42
331.903	16568.53
332.355	28505.95
332.808	27713.4
333.26	22867.09
333.713	24765.87
334.165	24936.8
334.617	33229.55
335.069	26882.15
335.522	48566.62
335.974	53722.11
336.426	49009.44
336.878	33931.69
337.33	17189.49
337.782	16750.86
338.234	20957.02
338.686	25048.08
339.137	29646.89
339.589	27889.31
340.041	21827.4
340.493	18727.49
340.944	19135.31
341.396	20606.41
341.847	17323.41
342.299	20412.45
342.75	24887.89
343.201	21747.46
343.653	25022.44
344.104	30758.21
344.555	24226.57
345.006	37714.23
345.457	28846.07
345.908	22942.52
346.359	21577.54
346.81	17557.25
347.261	18501.36
347.712	18224.47
348.163	19520.76
348.613	19714.11
349.064	18369.27
349.515	16053.92
349.965	16421.06
350.416	19796.51
350.866	21716.37
351.317	24533.16
351.767	40585.66
352.217	51260.49
352.668	42422.69
353.118	38807.12
353.568	37397.43
354.018	29562.4
354.468	31173.51
354.918	22359.92
355.368	19540.98
355.818	27539.06
356.268	79234.11
356.718	331541.45
357.168	82432.8
357.617	41391.87
358.067	46046.42
358.517	43104.51
358.966	50494.05
359.416	56541.3
359.865	61144.47
360.315	72698.47
360.764	33923.13
361.213	18972.02
361.663	17923.9
362.112	22097.76
362.561	35680.74
363.01	26881.57
363.459	22622.24
363.908	24501.37
364.357	20802.45
364.806	35103.02
365.255	24131.8
365.703	22082.11
366.152	22090.61
366.601	17920.99
367.05	14544.62
367.498	13201.92
367.947	13781.23
368.395	14299.88
368.844	12629.12
369.292	15208.76
369.74	10491.52
370.189	16027.93
370.637	18753.25
371.085	16172.13
371.533	19661.7
371.981	18923.54
372.429	18026.26
372.877	18752.76
373.325	15698.46
373.773	16000.03
374.221	14215.42
374.669	17573.41
375.116	15206.34
375.564	15333.38
376.012	17108.6
376.459	14112.42
376.907	16836.62
377.354	20334.33
377.801	18971.63
378.249	21765.84
378.696	27739.97
379.143	33607.22
379.591	35906.28
380.038	60679.33
380.485	43751.51
380.932	47243.53
381.379	43163.56
381.826	31793.43
382.273	22579.17
382.72	19704.96
383.166	19180.1
383.613	12456.44
384.06	11232.46
384.506	12972.86
384.953	9526.03
385.4	9603.45
385.846	8408.66
386.292	8186.78
386.739	8001.67
387.185	7922.57
387.631	7931.4
388.078	7711.09
388.524	8242.25
388.97	7600.78
389.416	6335.75
389.862	6729.75
390.308	6371.85
390.754	6467
391.2	7008.79
391.645	7182.52
392.091	6865.25
392.537	6624.36
392.983	6630.76
393.428	6530.71
393.874	6998.61
394.319	7025.33
394.765	6662.2
395.21	6853.17
395.655	6426.79
396.101	6032.94
396.546	5435.15
396.991	5474.44
397.436	5084.71
397.881	4915.8
398.326	4638.23
398.771	4385.17
399.216	3825.09
399.661	3435.06
400.106	3414.52
400.551	3492.53
400.995	3118.75
401.44	3082.84
401.885	2895.42
402.329	2917.18
402.774	2788.99
403.218	2697.08
403.663	2592.59
404.107	2659.79
404.551	2682.93
404.995	2455.66
405.44	2357.97
405.884	2393.01
406.328	2304.01
406.772	2289.09
407.216	2080.85
407.66	2007.44
408.104	1903.93
408.547	1780.18
408.991	1721.56
409.435	1650.17
409.879	1623.63
410.322	1598.94
410.766	1544.28
411.209	1468.12
411.653	1408.46
412.096	1379.95
412.54	1375.71
412.983	1365.73
413.426	1368.3
413.869	1365.39
414.312	1337.61
414.756	1288.06
415.199	1227.42
415.642	1188.91
416.085	1191.49
416.527	1179.44
416.97	1192.79
417.413	1132.16
417.856	1116.06
418.298	1101.13
418.741	1092.03
419.184	1086.08
419.626	1129.44
420.069	1127.66
420.511	1131.15
420.953	1104.34
421.396	1093.69
421.838	1068.01
422.28	1091.29
422.722	1097.17
423.164	1111.57
423.606	1090.83
424.048	1092.27
424.49	1038.98
424.932	1035.62
425.374	1022.24
425.816	1036.63
426.258	1057.2
426.699	1066.03
427.141	1049.02
427.582	1062.31
428.024	1055.63
428.465	1048.89
428.907	1019.17
429.348	1005.46
429.789	1004.59
430.231	982.8
430.672	996.79
431.113	972.68
431.554	957.21
431.995	932.01
432.436	901.87
432.877	881.24
433.318	867.46
433.759	862.82
434.2	860.08
434.64	851.31
435.081	852.86
435.522	807.73
435.962	777.11
436.403	761.7
436.843	772.75
437.284	753.43
437.724	733.48
438.164	733.25
438.604	719.41
439.045	693.29
439.485	664.28
439.925	649.76
440.365	633.1
440.805	625.88
441.245	619.67
441.685	597.39
442.125	593
442.564	598.14
443.004	585.8
443.444	584.05
443.883	585.15
444.323	580.51
444.762	581.62
445.202	591.43
445.641	603.02
446.081	598.74
446.52	603.27
446.959	598.15
447.398	584.69
447.837	578.1
448.276	568.72
448.716	575.08
449.154	579.7
449.593	566.66
450.032	565.53
450.471	554.54
450.91	554.84
451.349	554.8
451.787	552.59
452.226	561.52
452.664	561.4
453.103	562.69
453.541	560.48
453.98	560.87
454.418	564.54
454.856	557.66
455.295	556.81
455.733	560.91
456.171	564.13
456.609	565.19
457.047	563.16
457.485	572.9
457.923	572.87
458.361	565.44
458.798	566.59
459.236	565.07
459.674	565.71
460.111	568.77
460.549	564.47
460.987	561.76
461.424	560.42
461.862	557.17
462.299	547.56
462.736	548.21
463.173	550.5
463.611	546.53
464.048	545.23
464.485	549.42
464.922	543.76
465.359	539.26
465.796	534.64
466.233	531.46
466.67	527.04
467.106	525.7
467.543	520.03
467.98	513.93
468.416	499.19
468.853	494.92
469.29	480.56
469.726	474.23
470.162	463.3
470.599	455.08
471.035	449.79
471.471	439.23
471.907	435.99
472.344	432.86
472.78	433.78
473.216	438.59
473.652	434.7
474.088	434.65
474.523	434.18
474.959	437.09
475.395	433.59
475.831	432.17
476.266	434.94
476.702	433.57
477.138	429.48
477.573	428.32
478.008	428.04
478.444	429.53
478.879	432.61
479.314	435.06
479.75	435.14
480.185	437.55
480.62	440.77
481.055	443.14
481.49	447.17
481.925	453.55
482.36	462.27
482.795	474.02
483.229	486.91
483.664	496.82
484.099	498.62
484.534	507.02
484.968	511.74
485.403	513.79
485.837	512.77
486.271	511.98
486.706	512.53
487.14	506.36
487.574	498.43
488.009	494.48
488.443	490.76
488.877	496.78
489.311	498.51
489.745	504.71
490.179	510.19
490.613	521.31
491.046	525.91
491.48	530.97
491.914	531.33
492.348	536.57
492.781	540.35
493.215	543.8
493.648	545.29
494.082	550.76
494.515	552.5
494.948	560.46
495.382	565.43
495.815	571.27
496.248	577.34
496.681	590.35
497.114	601.35
497.547	611.76
497.98	624.46
498.413	632.31
498.846	642.75
499.279	652.1
499.711	657.06
500.144	661.04
500.577	672.21
501.009	684.1
501.442	695.79
501.874	700.95
502.306	705.36
502.739	716.01
503.171	731.23
503.603	737.27
504.036	749.25
504.468	758.48
504.9	772.98
505.332	783.21
505.764	790.32
506.196	799.8
506.627	815.59
507.059	831.68
507.491	842.2
507.923	844.98
508.354	861.73
508.786	874.96
509.217	895.22
509.649	911.38
510.08	932
510.512	951.42
510.943	968.68
511.374	983.47
511.805	1005.41
512.237	1026.24
512.668	1059.34
513.099	1088.37
513.53	1117.84
513.961	1139.83
514.391	1173.71
514.822	1208.83
515.253	1245.61
515.684	1274.49
516.114	1306.7
516.545	1330.94
516.975	1360.39
517.406	1381.52
517.836	1387.07
518.267	1396.15
518.697	1417.27
519.127	1423.77
519.558	1432.71
519.988	1439.1
520.418	1450.57
520.848	1468.6
521.278	1478.63
521.708	1500.67
522.138	1515.33
522.567	1548.27
522.997	1575.99
523.427	1592.96
523.857	1612.84
524.286	1624.77
524.716	1642.01
525.145	1662.25
525.575	1675.65
526.004	1691.94
526.433	1684.31
526.863	1685.43
527.292	1678.08
527.721	1685.5
528.15	1691.58
528.579	1691.57
529.008	1703.68
529.437	1727.43
529.866	1742.47
530.295	1759.5
530.724	1772.87
531.152	1800.11
531.581	1815.02
532.01	1831.39
532.438	1839.37
532.867	1854.64
533.295	1875.18
533.723	1881.29
534.152	1878.61
534.58	1877.7
535.008	1862.62
535.436	1864.77
535.865	1873.36
536.293	1888.69
536.721	1905.65
537.149	1931.2
537.576	1933.85
538.004	1946.16
538.432	1954.89
538.86	1953.2
539.287	1961.17
539.715	1974.56
540.143	1977.29
540.57	1972.57
540.998	1966.8
541.425	1942.87
541.852	1920.7
542.28	1919.59
542.707	1902.43
543.134	1888.32
543.561	1884.94
543.988	1877.01
544.415	1876.47
544.842	1870.8
545.269	1864.54
545.696	1867.63
546.123	1880.9
546.549	1870.49
546.976	1857
547.403	1856.73
547.829	1857.85
548.256	1858.86
548.682	1856.43
549.108	1849.19
549.535	1849.26
549.961	1851.66
550.387	1838.73
550.813	1833.88
551.24	1841.2
551.666	1843.6
552.092	1835.62
552.518	1831.44
552.943	1826.61
553.369	1834.82
553.795	1841.92
554.221	1844.8
554.646	1842.78
555.072	1854.57
555.498	1861.34
555.923	1871.24
556.349	1886.12
556.774	1895.07
557.199	1896.72
557.625	1903.56
558.05	1897.82
558.475	1908.43
558.9	1906.64
559.325	1898.6
559.75	1891.08
560.175	1883.07
560.6	1875.7
561.025	1874.27
561.449	1874.89
561.874	1879.16
562.299	1883.98
562.723	1891.11
563.148	1881.35
563.572	1885.87
563.997	1895.15
564.421	1902.09
564.846	1902.36
565.27	1907.41
565.694	1905.01
566.118	1917.27
566.542	1924.59
566.966	1916.72
567.39	1911.17
567.814	1898.94
568.238	1896.48
568.662	1901.58
569.086	1903.6
569.509	1910.05
569.933	1891.75
570.357	1883.76
570.78	1860.13
571.204	1845.84
571.627	1834.17
572.05	1831.73
572.474	1830.59
572.897	1818.06
573.32	1808.61
573.743	1797.19
574.166	1777.89
574.589	1778.63
575.012	1769.16
575.435	1768.06
575.858	1758.87
576.281	1747.51
576.704	1730.16
577.126	1717.1
577.549	1704.83
577.972	1694.64
578.394	1683.37
578.817	1676.38
579.239	1656.99
579.661	1643.77
580.084	1628.18
580.506	1615.06
580.928	1611.12
581.35	1600.37
581.772	1595.64
582.194	1582.9
582.616	1569.41
583.038	1554.62
583.46	1544.13
583.882	1541.17
584.303	1545.06
584.725	1539.8
585.147	1541.55
585.568	1551.04
585.99	1563.31
586.411	1570.31
586.833	1584.66
587.254	1587
587.675	1601.91
588.096	1613.94
588.518	1607.96
588.939	1591.09
589.36	1589.62
589.781	1577.87
590.202	1549.24
590.623	1539.58
591.043	1536.31
591.464	1522.69
591.885	1518.38
592.305	1511.9
592.726	1498.98
593.147	1500.06
593.567	1493.51
593.987	1485.81
594.408	1480.86
594.828	1479.38
595.248	1472.88
595.669	1454.11
596.089	1447.89
596.509	1441.14
596.929	1427.51
597.349	1426.98
597.769	1416.91
598.189	1412.16
598.608	1412.95
599.028	1414.27
599.448	1414.07
599.867	1402.35
600.287	1398.87
600.706	1393.59
601.126	1383.69
601.545	1382.98
601.965	1380.89
602.384	1375.47
602.803	1377.12
603.222	1371.51
603.641	1364.22
604.061	1359.5
604.48	1354.71
604.898	1361.76
605.317	1365.96
605.736	1367.02
606.155	1362.61
606.574	1353.54
606.992	1357.69
607.411	1352.31
607.829	1343.23
608.248	1339.57
608.666	1337
609.085	1335.79
609.503	1326.04
609.921	1318.62
610.339	1319.82
610.758	1318.34
611.176	1313.03
611.594	1303.58
612.012	1298.14
612.43	1301.18
612.847	1307.1
613.265	1307.41
613.683	1309.83
614.101	1310.55
614.518	1306.15
614.936	1296.27
615.353	1281.61
615.771	1277.5
616.188	1277.34
616.606	1273.95
617.023	1266.84
617.44	1251.8
617.857	1243.71
618.274	1235.39
618.691	1227.59
619.108	1218.41
619.525	1210.83
619.942	1216.95
620.359	1217.36
620.776	1210.98
621.192	1207.01
621.609	1204.13
622.026	1210.02
622.442	1214.73
622.859	1217.07
623.275	1210.47
623.691	1214.27
624.108	1226.2
624.524	1238.73
624.94	1239.87
625.356	1248.78
625.772	1260.24
626.188	1270.25
626.604	1271.21
627.02	1266.72
627.436	1264.4
627.852	1271.11
628.268	1283.03
628.683	1273.12
629.099	1263.34
629.514	1258.41
629.93	1261.92
630.345	1266.11
630.761	1261.35
631.176	1264.76
631.591	1259.77
632.007	1253.58
632.422	1250.39
632.837	1238.26
633.252	1234.68
633.667	1225.25
634.082	1215.68
634.497	1202.56
634.911	1182.87
635.326	1178.55
635.741	1160.28
636.155	1149.36
636.57	1149.32
636.984	1148.17
637.399	1148.33
637.813	1145.91
638.228	1142.49
638.642	1144.12
639.056	1130.49
639.47	1127.44
639.884	1117.41
640.298	1108.63
640.712	1103.71
641.126	1088.35
641.54	1076.45
641.954	1069.17
642.368	1054.35
642.781	1045.57
643.195	1026.12
643.609	1025.79
644.022	1018.15
644.436	1010.82
644.849	997.68
645.262	985.8
645.676	985.72
646.089	979.48
646.502	963.57
646.915	957.5
647.328	938.99
647.741	936.05
648.154	922.48
648.567	918.46
648.98	906.81
649.393	906.05
649.805	901.18
650.218	892.39
650.631	877.36
651.043	870.51
651.456	864.62
651.868	864.78
652.28	877.82
652.693	888.08
653.105	892.68
653.517	898.63
653.929	896.51
654.341	899.25
654.753	886.82
655.165	890.68
655.577	887.29
655.989	881.46
656.401	872.26
656.813	840.86
657.224	821.46
657.636	794.07
658.047	777
658.459	758.71
658.87	748.61
659.282	736.2
659.693	715.81
660.104	700.46
660.515	686.38
660.926	682.15
661.338	675.21
661.749	665.6
662.159	656.18
662.57	649.37
662.981	643.63
663.392	634.19
663.803	635.23
664.213	630.17
664.624	624.55
665.035	623.43
665.445	609.84
665.855	603.44
666.266	596.61
666.676	592.5
667.086	583.83
667.497	580.85
667.907	575.26
668.317	565.82
668.727	564.13
669.137	563.33
669.547	560.72
669.956	561.66
670.366	561.38
670.776	562.8
671.186	565.18
671.595	567.03
672.005	568.38
672.414	567.72
672.824	567.45
673.233	568.21
673.642	568.82
674.052	571.65
674.461	573.99
674.87	576.87
675.279	575.8
675.688	576.57
676.097	579.29
676.506	577.45
676.915	589.05
677.323	591.39
677.732	591.48
678.141	592.64
678.549	585.31
678.958	585.63
679.366	587.06
679.775	591.39
680.183	602.17
680.592	607.87
681	614.64
681.408	611.21
681.816	620.71
682.224	629.76
682.632	641.42
683.04	668.99
683.448	691.38
683.856	719.71
684.264	752.15
684.671	782.9
685.079	821.59
685.487	864.37
685.894	922.62
686.302	969.81
686.709	1012.81
687.116	1062.93
687.524	1105.97
687.931	1146.76
688.338	1183.54
688.745	1215.55
689.152	1251.24
689.559	1295.55
689.966	1340.06
690.373	1365.24
690.78	1409.62
691.187	1474.12
691.593	1523.45
692	1567.67
692.407	1627.8
692.813	1703
693.22	1763.94
693.626	1824.04
694.032	1874.64
694.439	1950.93
694.845	2011.23
695.251	2085.81
695.657	2153.51
696.063	2250.56
696.469	2322.6
696.875	2392.07
697.281	2430.76
697.687	2478.22
