Data from N_3_DIV_OH_2N_Splice17_12-50-05-418.txt Node
Date: Sat Mar 14 12:50:05 EDT 2020
User: sa697716
Spectrometer: FLMS03696
Trigger mode: 0
Integration Time (sec): 3.180400E-1
Scans to average: 20
Electric dark correction enabled: true
Nonlinearity correction enabled: true
Boxcar width: 5
XAxis mode: Wavelengths
Number of Pixels in Spectrum: 2048
>>>>>Begin Spectral Data<<<<<
187.83	-442002.06
188.298	3257.35
188.766	1700.55
189.233	1522.13
189.701	2169.78
190.169	2886.85
190.636	1083.98
191.104	843.67
191.571	121.88
192.039	-89.65
192.506	-66.11
192.974	401.19
193.441	-469.13
193.908	-51.24
194.375	-9.93
194.842	104.46
195.31	200.79
195.777	172.02
196.244	368.27
196.711	436.66
197.177	598
197.644	866.68
198.111	1482.77
198.578	2111.92
199.045	1726.66
199.511	2825.5
199.978	3291.48
200.445	2771.41
200.911	3106.95
201.378	3505.44
201.844	3173.14
202.31	5374.29
202.777	5646.12
203.243	3157.48
203.709	3003.18
204.176	3571.83
204.642	2975.32
205.108	2804.04
205.574	2294.3
206.04	2108.57
206.506	1971.08
206.972	1888.29
207.438	1835.7
207.903	2082.24
208.369	1829.24
208.835	1817.43
209.301	1902.56
209.766	1929.48
210.232	1900.86
210.697	2358.7
211.163	2877.07
211.628	4329.49
212.094	3607.15
212.559	4440.59
213.024	2757.5
213.49	3359.81
213.955	3280.71
214.42	3209.22
214.885	2986.19
215.35	2856.19
215.815	2769.64
216.28	2934.68
216.745	2395.95
217.21	2587.89
217.675	2367.76
218.14	2671.64
218.604	2978.13
219.069	3392.16
219.534	3539.29
219.998	4110
220.463	4975.83
220.927	6087.99
221.392	5740.45
221.856	5832.59
222.32	7363.12
222.785	9079.53
223.249	11417.22
223.713	12740.69
224.177	12780.16
224.642	16423.81
225.106	20239.31
225.57	22154.17
226.034	16476.92
226.497	25078.14
226.961	22607.31
227.425	26300.09
227.889	29200.28
228.353	29156.38
228.816	60184.98
229.28	57465.12
229.744	48392.57
230.207	29406.22
230.671	28901.83
231.134	47758.22
231.597	54973.77
232.061	54904
232.524	53470.75
232.987	36783.94
233.45	33066.45
233.914	29624.83
234.377	30339.58
234.84	27763.53
235.303	32657.99
235.766	36392.14
236.229	37595.88
236.691	23692.54
237.154	26614.48
237.617	20007.39
238.08	20496.88
238.542	24015.57
239.005	17155.96
239.468	17022.63
239.93	16045.65
240.393	14600.43
240.855	12826.99
241.317	13129.59
241.78	15953.06
242.242	16473.36
242.704	17784.9
243.166	15460.57
243.629	14029.98
244.091	16179.11
244.553	17710.45
245.015	19015.74
245.477	24561.01
245.939	35946
246.4	38116.79
246.862	36987.87
247.324	34873.32
247.786	39035.03
248.247	51181.95
248.709	52804.57
249.17	39476.44
249.632	37160.67
250.093	43065.88
250.555	37179.37
251.016	22630.61
251.477	21451.12
251.939	23162.79
252.4	24271.08
252.861	28801.51
253.322	26751.69
253.783	31791.79
254.244	41144.83
254.705	32400.14
255.166	28774.83
255.627	28285.14
256.088	39925.34
256.549	42370.76
257.009	36425.74
257.47	44148.64
257.931	35928.92
258.391	26890.41
258.852	27672.65
259.312	28944.87
259.773	35750.46
260.233	30167.54
260.694	25416.44
261.154	28756
261.614	23056.74
262.074	20591.98
262.534	21374.16
262.994	20126.55
263.455	26783.43
263.915	22542.84
264.374	21224
264.834	23117.44
265.294	25595.02
265.754	26478.43
266.214	25033.22
266.673	23416.37
267.133	29528.28
267.593	29287.04
268.052	35779.87
268.512	31077.67
268.971	37478.22
269.431	41040.32
269.89	36735.22
270.349	55046.7
270.809	61374.84
271.268	55205.41
271.727	123740.88
272.186	80194.78
272.645	60085.34
273.104	43332.13
273.563	62703.39
274.022	49243.97
274.481	41932.49
274.94	32285.48
275.399	23984.76
275.857	27873.58
276.316	37663.92
276.775	33502.49
277.233	32983.14
277.692	30854.53
278.15	34919.05
278.609	35952.17
279.067	33274.82
279.525	30890.5
279.984	39911.37
280.442	47903.8
280.9	47321.7
281.358	31112.81
281.816	29015.48
282.274	28371.52
282.732	29309.76
283.19	29386.74
283.648	25360.08
284.106	27023.54
284.564	27462.42
285.021	25466.32
285.479	18970.86
285.937	17221.93
286.394	15120.26
286.852	15550.37
287.309	16332.51
287.767	15782.44
288.224	15027.15
288.682	16454.98
289.139	18028.57
289.596	16497.54
290.053	17133.87
290.511	21612.49
290.968	26211.41
291.425	35530.24
291.882	29550.51
292.339	25684.44
292.796	25433.02
293.252	23915.88
293.709	19004.8
294.166	17033.7
294.623	18809.99
295.079	18035.36
295.536	18111.4
295.992	16419.13
296.449	16223.13
296.905	16837.33
297.362	16137.68
297.818	16978.44
298.274	17620.66
298.731	17931.27
299.187	17728.26
299.643	19000.16
300.099	22959.7
300.555	25192.14
301.011	21047.65
301.467	20306.16
301.923	23756.07
302.379	23217.51
302.835	22804.45
303.291	22855.94
303.746	26027.15
304.202	32885.37
304.658	33023.46
305.113	22218.81
305.569	21762.71
306.024	23195.3
306.479	22079.96
306.935	18615.7
307.39	20333.87
307.845	18780.42
308.301	18907.89
308.756	18409.67
309.211	17746.03
309.666	18213.37
310.121	22601.02
310.576	22930.55
311.031	22763.71
311.486	25979.95
311.94	25962.79
312.395	34653.2
312.85	65050
313.305	319057.6
313.759	1653125.46
314.214	119637.87
314.668	94754.32
315.123	79739.88
315.577	28634.89
316.032	25490.37
316.486	32024.49
316.94	25295.91
317.394	17626.52
317.849	13697.03
318.303	12970.16
318.757	12235.78
319.211	13539.87
319.665	11837.24
320.119	11970.62
320.572	17144.6
321.026	15990.08
321.48	13296.85
321.934	14495.87
322.387	14528.13
322.841	15688.83
323.295	14120.88
323.748	16261.16
324.202	16493.73
324.655	19834.43
325.108	27789.27
325.562	19634.09
326.015	23379.18
326.468	17685.31
326.921	19796.81
327.374	18452.36
327.827	19247.07
328.28	21778.81
328.733	14585.11
329.186	12822.07
329.639	12221.52
330.092	10282.29
330.545	9806.85
330.997	9883.31
331.45	10815.12
331.903	12680.22
332.355	21851.63
332.808	21222.47
333.26	17493.38
333.713	19028.07
334.165	19159.72
334.617	25581.5
335.069	20667.37
335.522	37298.86
335.974	41342.85
336.426	37747.5
336.878	26109.63
337.33	13254.93
337.782	12940.12
338.234	16248.17
338.686	19403.43
339.137	23008.55
339.589	21671.29
340.041	16996.31
340.493	14630.78
340.944	14963.94
341.396	16133
341.847	13584.71
342.299	16037.18
342.75	19556.84
343.201	17045.33
343.653	19627.48
344.104	24108.2
344.555	18989.2
345.006	29485.74
345.457	22596.36
345.908	17969.22
346.359	16914.21
346.81	13768.59
347.261	14491.73
347.712	14272.48
348.163	15310.85
348.613	15495.04
349.064	14478.59
349.515	12678.82
349.965	13031.55
350.416	15670.84
350.866	17181.17
351.317	19405.17
351.767	32166.14
352.217	40604.61
352.668	33730.63
353.118	30877.41
353.568	29801.25
354.018	23596.82
354.468	24877.91
354.918	17845.56
355.368	15616.67
355.818	22097.04
356.268	63614.8
356.718	266012.99
357.168	66257.95
357.617	33278.03
358.067	37058.4
358.517	34718.16
358.966	40746.22
359.416	45750.16
359.865	49469.85
360.315	58962.59
360.764	27568.72
361.213	15422.15
361.663	14637.48
362.112	18077.33
362.561	29203.17
363.01	22040.02
363.459	18563.33
363.908	20068.51
364.357	17023.72
364.806	28720.75
365.255	19707.36
365.703	18032.02
366.152	18083.67
366.601	14669.21
367.05	11941.65
367.498	10864.49
367.947	11325.26
368.395	11767.91
368.844	10420.98
369.292	12553.09
369.74	8694.95
370.189	13335.42
370.637	15632.32
371.085	13487.44
371.533	16386.18
371.981	15735.62
372.429	15004.99
372.877	15659.78
373.325	13107.28
373.773	13371.28
374.221	11930.43
374.669	14764.87
375.116	12770.73
375.564	12868.37
376.012	14382.36
376.459	11875.87
376.907	14197.51
377.354	17184.88
377.801	16049.97
378.249	18441.94
378.696	23568.09
379.143	28543.73
379.591	30481.58
380.038	51613.93
380.485	37401.31
380.932	40404.2
381.379	37017.21
381.826	27356.85
382.273	19439.18
382.72	16967.99
383.166	16590.51
383.613	10765.47
384.06	9708.65
384.506	11252.65
384.953	8271.01
385.4	8323.77
385.846	7311.47
386.292	7146.59
386.739	7002.13
387.185	6932.08
387.631	6962.05
388.078	6772.08
388.524	7266.73
388.97	6733.19
389.416	5629.27
389.862	6000.18
390.308	5695.94
390.754	5798.96
391.2	6298.8
391.645	6459.32
392.091	6203.97
392.537	6010.49
392.983	6025.27
393.428	5942.57
393.874	6392.57
394.319	6430.39
394.765	6113.35
395.21	6301.51
395.655	5913.93
396.101	5537.12
396.546	5002.95
396.991	5042.04
397.436	4684.46
397.881	4526.87
398.326	4278.55
398.771	4042.35
399.216	3533.98
399.661	3177.95
400.106	3169.56
400.551	3247.27
400.995	2915.4
401.44	2878.31
401.885	2705.62
402.329	2732.54
402.774	2618.01
403.218	2537.51
403.663	2435.9
404.107	2499.5
404.551	2519.54
404.995	2306.15
405.44	2217.37
405.884	2243.35
406.328	2165.64
406.772	2150.42
407.216	1953.46
407.66	1888.08
408.104	1790.09
408.547	1673.67
408.991	1618.11
409.435	1551.57
409.879	1527.28
410.322	1504.2
410.766	1455.08
411.209	1384.06
411.653	1327.72
412.096	1298.93
412.54	1294.81
412.983	1283.93
413.426	1291.54
413.869	1287.27
414.312	1263.36
414.756	1213.21
415.199	1156.59
415.642	1121.46
416.085	1122.82
416.527	1113.78
416.97	1132.56
417.413	1074.46
417.856	1060.84
418.298	1043.24
418.741	1034.69
419.184	1029.57
419.626	1070.49
420.069	1069.57
420.511	1073.2
420.953	1049.76
421.396	1038.7
421.838	1008.61
422.28	1032.05
422.722	1032.68
423.164	1048.53
423.606	1030.66
424.048	1027.95
424.49	978.15
424.932	969.91
425.374	954.97
425.816	968.87
426.258	986.18
426.699	995.77
427.141	980.24
427.582	996.03
428.024	989.19
428.465	981.89
428.907	958.34
429.348	948.22
429.789	949.52
430.231	932.22
430.672	943.6
431.113	922.38
431.554	908.27
431.995	885.87
432.436	857.62
432.877	840.29
433.318	826.66
433.759	821.86
434.2	820.22
434.64	812.63
435.081	812.11
435.522	768.44
435.962	741.6
436.403	726.22
436.843	734.61
437.284	716.5
437.724	694.4
438.164	694.94
438.604	679.57
439.045	655.04
439.485	628.95
439.925	616.04
440.365	600.87
440.805	593.53
441.245	590.96
441.685	568.8
442.125	566.11
442.564	569.84
443.004	557.87
443.444	558.89
443.883	559.9
444.323	554.01
444.762	555.11
445.202	566.09
445.641	578.45
446.081	573.37
446.52	581.61
446.959	578.91
447.398	569.46
447.837	564.9
448.276	555.79
448.716	562.02
449.154	568.99
449.593	559.81
450.032	556.95
450.471	546.03
450.91	546.58
451.349	547.86
451.787	544.46
452.226	552.43
452.664	553.29
453.103	554.86
453.541	555.58
453.98	558.77
454.418	561.46
454.856	554.58
455.295	554.76
455.733	559.64
456.171	561.4
456.609	562.64
457.047	562.48
457.485	572
457.923	573.67
458.361	565.98
458.798	566.07
459.236	564.5
459.674	568.07
460.111	570.02
460.549	565.36
460.987	563.17
461.424	561.37
461.862	560.17
462.299	550.66
462.736	550.68
463.173	552.12
463.611	546.84
464.048	545.75
464.485	550.64
464.922	544.66
465.359	540.03
465.796	537.1
466.233	534.05
466.67	528.43
467.106	528.05
467.543	521.61
467.98	514.72
468.416	499.87
468.853	494.65
469.29	478.82
469.726	474.86
470.162	462.48
470.599	453.25
471.035	448.05
471.471	436.9
471.907	433.23
472.344	430.64
472.78	432.71
473.216	438.31
473.652	433.9
474.088	433.34
474.523	431.85
474.959	436.3
475.395	432.18
475.831	431
476.266	433.87
476.702	432.88
477.138	429.38
477.573	427.84
478.008	426.46
478.444	429.34
478.879	434.11
479.314	436.59
479.75	437.42
480.185	439.14
480.62	442.23
481.055	444.72
481.49	448.27
481.925	454.45
482.36	463.79
482.795	476.73
483.229	489.09
483.664	499.16
484.099	500.38
484.534	508.47
484.968	514.54
485.403	517.8
485.837	518.04
486.271	518.22
486.706	519.01
487.14	513.04
487.574	506.59
488.009	503.49
488.443	500.17
488.877	508.08
489.311	511.14
489.745	518.21
490.179	524.38
490.613	536.2
491.046	542.37
491.48	549.27
491.914	552.07
492.348	557.92
492.781	563.75
493.215	567.4
493.648	570.24
494.082	577.37
494.515	581.57
494.948	590.66
495.382	597.57
495.815	604.73
496.248	612.36
496.681	626.91
497.114	641.1
497.547	653.78
497.98	670.09
498.413	680.68
498.846	693.6
499.279	705.4
499.711	713.99
500.144	720.47
500.577	735.36
501.009	750.79
501.442	766.14
501.874	773.42
502.306	780.44
502.739	793.64
503.171	812.75
503.603	822.49
504.036	837.48
504.468	849.01
504.9	866.97
505.332	879.86
505.764	889.74
506.196	901.51
506.627	921.65
507.059	941.5
507.491	955.45
507.923	959.85
508.354	981.01
508.786	998.52
509.217	1022.74
509.649	1043.18
510.08	1068.7
510.512	1093.09
510.943	1115.24
511.374	1132.68
511.805	1160.47
512.237	1187.23
512.668	1227.56
513.099	1261.49
513.53	1294.91
513.961	1323.32
514.391	1363.94
514.822	1404.66
515.253	1448.71
515.684	1481.69
516.114	1519.54
516.545	1547.28
516.975	1581.18
517.406	1605.48
517.836	1612.55
518.267	1624.99
518.697	1648.97
519.127	1656.72
519.558	1667.57
519.988	1674.05
520.418	1688.18
520.848	1710.39
521.278	1722.05
521.708	1730.54
522.138	1747.71
522.567	1785.56
522.997	1815.82
523.427	1835.43
523.857	1856.82
524.286	1870.44
524.716	1889.07
525.145	1912.55
525.575	1925.48
526.004	1944.89
526.433	1952.54
526.863	1952.77
527.292	1941.67
527.721	1948.75
528.15	1955.97
528.579	1958.27
529.008	1971.79
529.437	1999.32
529.866	2015.98
530.295	2037.89
530.724	2052.49
531.152	2084.78
531.581	2102.72
532.01	2123.71
532.438	2133.83
532.867	2152.32
533.295	2173.26
533.723	2181.59
534.152	2178.54
534.58	2177.81
535.008	2158.8
535.436	2160.74
535.865	2170.62
536.293	2185.89
536.721	2204.74
537.149	2235.77
537.576	2236.74
538.004	2252.38
538.432	2261.4
538.86	2259.27
539.287	2267.75
539.715	2284.35
540.143	2287.78
540.57	2281.44
540.998	2278.34
541.425	2250.91
541.852	2224.93
542.28	2223.7
542.707	2202.92
543.134	2186.1
543.561	2182.67
543.988	2173.79
544.415	2172.38
544.842	2164.75
545.269	2156.41
545.696	2159.04
546.123	2174.05
546.549	2161.02
546.976	2145.5
547.403	2146.06
547.829	2148.52
548.256	2149.5
548.682	2144.06
549.108	2134.71
549.535	2135.21
549.961	2138.23
550.387	2122.07
550.813	2115.72
551.24	2124.18
551.666	2126.39
552.092	2114.85
552.518	2106.85
552.943	2100.27
553.369	2110.94
553.795	2118.53
554.221	2120.38
554.646	2116.16
555.072	2129.16
555.498	2134.55
555.923	2145.56
556.349	2162.65
556.774	2172.59
557.199	2174.23
557.625	2181.74
558.05	2174.89
558.475	2186.62
558.9	2182.85
559.325	2173.94
559.75	2166.52
560.175	2159.71
560.6	2152.49
561.025	2149.62
561.449	2150.17
561.874	2156.25
562.299	2161.45
562.723	2169.47
563.148	2157.27
563.572	2163.32
563.997	2174.92
564.421	2180.3
564.846	2180.64
565.27	2184.51
565.694	2181.63
566.118	2195.03
566.542	2203.18
566.966	2193.94
567.39	2187.75
567.814	2174.43
568.238	2173.45
568.662	2177.73
569.086	2180.35
569.509	2188.06
569.933	2168.61
570.357	2158.82
570.78	2133.17
571.204	2117.44
571.627	2104.99
572.05	2101.71
572.474	2101.36
572.897	2085.06
573.32	2075.58
573.743	2063.25
574.166	2039.74
574.589	2039.57
575.012	2030.24
575.435	2029.05
575.858	2018.02
576.281	2004.09
576.704	1985.26
577.126	1970.38
577.549	1957.07
577.972	1944.55
578.394	1931.18
578.817	1923.86
579.239	1901.44
579.661	1885.14
580.084	1865.89
580.506	1849.45
580.928	1844.78
581.35	1830.85
581.772	1824.07
582.194	1808.24
582.616	1793.21
583.038	1776.72
583.46	1763.83
583.882	1758.89
584.303	1763.48
584.725	1757.98
585.147	1760.78
585.568	1771.53
585.99	1785.17
586.411	1793.54
586.833	1809.98
587.254	1811.96
587.675	1827.75
588.096	1841.78
588.518	1835.38
588.939	1814.77
589.36	1812.58
589.781	1799.19
590.202	1766
590.623	1754.64
591.043	1750.67
591.464	1736.83
591.885	1731.14
592.305	1723.9
592.726	1707.69
593.147	1708.49
593.567	1703.24
593.987	1692.57
594.408	1686.79
594.828	1685.36
595.248	1679.53
595.669	1658.27
596.089	1648.97
596.509	1641.67
596.929	1626.23
597.349	1627.08
597.769	1615.14
598.189	1606.41
598.608	1609.06
599.028	1610.31
599.448	1609.29
599.867	1593.92
600.287	1589.2
600.706	1583.68
601.126	1572.85
601.545	1570.88
601.965	1568.32
602.384	1562.21
602.803	1565.85
603.222	1558.15
603.641	1550.55
604.061	1545.72
604.48	1540.93
604.898	1549.36
605.317	1554.1
605.736	1554.29
606.155	1550.56
606.574	1540.03
606.992	1545.81
607.411	1539.33
607.829	1530.47
608.248	1525.52
608.666	1521.39
609.085	1519.16
609.503	1508.4
609.921	1501.69
610.339	1504.19
610.758	1502.9
611.176	1495.94
611.594	1483.74
612.012	1478.45
612.43	1482.25
612.847	1488.55
613.265	1489.39
613.683	1494.75
614.101	1495.29
614.518	1489.79
614.936	1476.66
615.353	1458.63
615.771	1454.38
616.188	1454.27
616.606	1450.68
617.023	1440.4
617.44	1423.82
617.857	1414.87
618.274	1403.72
618.691	1394.65
619.108	1383.22
619.525	1374.6
619.942	1380.84
620.359	1382.48
620.776	1375.13
621.192	1368.61
621.609	1365.87
622.026	1371.22
622.442	1377.13
622.859	1378.73
623.275	1370.7
623.691	1374.98
624.108	1388.22
624.524	1402.83
624.94	1401.49
625.356	1411.93
625.772	1425.34
626.188	1437.12
626.604	1438.56
627.02	1433.44
627.436	1430.56
627.852	1438.52
628.268	1451.37
628.683	1441.05
629.099	1431.44
629.514	1426.66
629.93	1430.19
630.345	1435.72
630.761	1431.19
631.176	1433.82
631.591	1425.54
632.007	1419.25
632.422	1415.58
632.837	1402.11
633.252	1398.57
633.667	1385.23
634.082	1373.95
634.497	1358.74
634.911	1334.47
635.326	1327.89
635.741	1307.44
636.155	1294.91
636.57	1293.59
636.984	1290.21
637.399	1290.19
637.813	1286.58
638.228	1283.2
638.642	1284.14
639.056	1270.48
639.47	1268.47
639.884	1256.48
640.298	1246.61
640.712	1243.8
641.126	1227.32
641.54	1215.08
641.954	1205.66
642.368	1188.97
642.781	1178.4
643.195	1158.36
643.609	1155.59
644.022	1145.7
644.436	1137.83
644.849	1123.27
645.262	1106.96
645.676	1105.5
646.089	1098.21
646.502	1080.49
646.915	1072.86
647.328	1052.07
647.741	1046.31
648.154	1029.74
648.567	1024.34
648.98	1009.52
649.393	1008.42
649.805	1003.29
650.218	993.59
650.631	975.13
651.043	966.66
651.456	959.58
651.868	958.91
652.28	974.17
652.693	986.93
653.105	991.37
653.517	999.07
653.929	996.09
654.341	998.88
654.753	986.45
655.165	990.55
655.577	985.94
655.989	978.61
656.401	967.18
656.813	930.16
657.224	907.54
657.636	877.28
658.047	856.92
658.459	835.05
658.87	822.1
659.282	805.93
659.693	783.35
660.104	767.21
660.515	750.34
660.926	746.04
661.338	738.59
661.749	728.21
662.159	716.18
662.57	706.73
662.981	698.03
663.392	686.79
663.803	686.05
664.213	679.33
664.624	670.03
665.035	668.42
665.445	650.2
665.855	639.78
666.266	629.65
666.676	623.06
667.086	612.64
667.497	609.76
667.907	602.98
668.317	592.77
668.727	589.98
669.137	587.64
669.547	583.59
669.956	583.83
670.366	584.29
670.776	585.27
671.186	587.69
671.595	590.29
672.005	590.5
672.414	588.88
672.824	587.43
673.233	588.12
673.642	589
674.052	591.53
674.461	594.1
674.87	596.74
675.279	593.41
675.688	594.53
676.097	595.46
676.506	594.91
676.915	606.68
677.323	609.15
677.732	608.25
678.141	609.78
678.549	602.65
678.958	603.97
679.366	605.41
679.775	610.99
680.183	623.21
680.592	631.51
681	639.4
681.408	637.76
681.816	647.62
682.224	659.03
682.632	672.57
683.04	702.29
683.448	728.81
683.856	760.72
684.264	799.29
684.671	832.92
685.079	876
685.487	922.55
685.894	987.7
686.302	1044.84
686.709	1095.3
687.116	1153.75
687.524	1204.95
687.931	1250.45
688.338	1292.98
688.745	1329.64
689.152	1373.18
689.559	1423.16
689.966	1476.72
690.373	1508.1
690.78	1558.71
691.187	1631.19
691.593	1688.41
692	1740.48
692.407	1813.99
692.813	1901.03
693.22	1972.62
693.626	2045.52
694.032	2106.39
694.439	2194.04
694.845	2263.08
695.251	2350.31
695.657	2427.7
696.063	2541.05
696.469	2625.43
696.875	2703.46
697.281	2751.67
