Data from N_3_HIR_IL_4N_Splice17_13-40-18-004.txt Node
Date: Sat Mar 14 13:40:18 EDT 2020
User: sa697716
Spectrometer: FLMS03696
Trigger mode: 0
Integration Time (sec): 3.180400E-1
Scans to average: 20
Electric dark correction enabled: true
Nonlinearity correction enabled: true
Boxcar width: 5
XAxis mode: Wavelengths
Number of Pixels in Spectrum: 2048
>>>>>Begin Spectral Data<<<<<
187.83	-392231.81
188.298	2826.83
188.766	1516.49
189.233	1346.19
189.701	1931.61
190.169	2616.66
190.636	985.48
191.104	817.87
191.571	102.91
192.039	-148.2
192.506	-139.6
192.974	556.73
193.441	-1162.4
193.908	-314.92
194.375	-72.38
194.842	-5.23
195.31	0.26
195.777	155.1
196.244	471.01
196.711	611.93
197.177	781.78
197.644	1129.71
198.111	2034.08
198.578	2884.82
199.045	2289.03
199.511	3732.28
199.978	4355.53
200.445	3699.77
200.911	4095.34
201.378	4539.48
201.844	4066.81
202.31	6904.87
202.777	7158.36
203.243	3895.54
203.709	3678.06
204.176	4350.98
204.642	3536.44
205.108	3280.8
205.574	2658.23
206.04	2398.37
206.506	2242.18
206.972	2110.36
207.438	2021.31
207.903	2268.05
208.369	1980.01
208.835	1958.51
209.301	2043.41
209.766	2067.4
210.232	2031.78
210.697	2482.16
211.163	3027.97
211.628	4550.11
212.094	3789.56
212.559	4642.06
213.024	2876.2
213.49	3486.77
213.955	3363.81
214.42	3246.59
214.885	3032.84
215.35	2891.02
215.815	2789.31
216.28	2935.08
216.745	2331.79
217.21	2459.85
217.675	2173.16
218.14	2361.75
218.604	2479.29
219.069	2690.2
219.534	2711.02
219.998	2985.36
220.463	3430.02
220.927	3948.31
221.392	3549.79
221.856	3459.92
222.32	4157.24
222.785	4962
223.249	6051.18
223.713	6614.51
224.177	6503.44
224.642	8115.14
225.106	9785.66
225.57	10462.29
226.034	7733.62
226.497	11638.55
226.961	10430.9
227.425	12068.94
227.889	13213.02
228.353	13049.97
228.816	26634.25
229.28	25206.74
229.744	20995.77
230.207	12746.36
230.671	12515.48
231.134	20390.99
231.597	23419.24
232.061	23222.1
232.524	22399.92
232.987	15387.93
233.45	13891.95
233.914	12457.37
234.377	12661.31
234.84	11570.79
235.303	13530.32
235.766	15103.44
236.229	15600.45
236.691	9795.74
237.154	10973.45
237.617	8274.45
238.08	8466.37
238.542	9824.61
239.005	7018.74
239.468	6996.37
239.93	6603.53
240.393	6012.5
240.855	5264.16
241.317	5364.27
241.78	6492.11
242.242	6704.57
242.704	7284.08
243.166	6336.62
243.629	5817.55
244.091	6702.67
244.553	7321.07
245.015	7867.48
245.477	10117.8
245.939	14764.74
246.4	15717.6
246.862	15236.59
247.324	14394.43
247.786	16032.65
248.247	20976.47
248.709	21420.49
249.17	16041.4
249.632	15240.49
250.093	17775.35
250.555	15420.01
251.016	9444.6
251.477	8958.93
251.939	9711.97
252.4	10158.3
252.861	12058.99
253.322	11243.64
253.783	13356.53
254.244	17313.8
254.705	13583.12
255.166	12002.75
255.627	11838.07
256.088	16752.61
256.549	17809.53
257.009	15305
257.47	18579.72
257.931	15101.99
258.391	11327.65
258.852	11692.07
259.312	12220.9
259.773	15046.52
260.233	12765.22
260.694	10760.87
261.154	12145.07
261.614	9798.07
262.074	8748.39
262.534	9096.52
262.994	8585.81
263.455	11396.15
263.915	9614.45
264.374	9040.8
264.834	9851.52
265.294	10872.06
265.754	11247.13
266.214	10647.38
266.673	9938.91
267.133	12524.78
267.593	12372.6
268.052	15143.28
268.512	13172.6
268.971	15943.66
269.431	17496.26
269.89	15682.47
270.349	23529.54
270.809	26233.17
271.268	23577.68
271.727	52734.77
272.186	34181.2
272.645	25662.51
273.104	18433.36
273.563	26674
274.022	20859.28
274.481	17805.16
274.94	13760.97
275.399	10198.39
275.857	11869.66
276.316	16057.54
276.775	14326.01
277.233	14145.13
277.692	13308.9
278.15	15134.54
278.609	15651.33
279.067	14507.71
279.525	13496.76
279.984	17414.22
280.442	21000.23
280.9	20856.7
281.358	13757.93
281.816	12831.03
282.274	12575.99
282.732	12978.28
283.19	13035.75
283.648	11227.45
284.106	11973.94
284.564	12161.15
285.021	11317.79
285.479	8413
285.937	7604.04
286.394	6701.36
286.852	6907.48
287.309	7277.57
287.767	7083.1
288.224	6764.48
288.682	7443.96
289.139	8198.05
289.596	7528.59
290.053	7811.57
290.511	9880.82
290.968	11981.64
291.425	16205.2
291.882	13539.69
292.339	11765.63
292.796	11609.75
293.252	10913.12
293.709	8686.67
294.166	7767.1
294.623	8570.76
295.079	8208.67
295.536	8251.88
295.992	7508.15
296.449	7417.67
296.905	7667.41
297.362	7376.16
297.818	7739.36
298.274	8047.36
298.731	8166.64
299.187	8080.44
299.643	8659.49
300.099	10503.8
300.555	11508.62
301.011	9618.03
301.467	9339.69
301.923	10932.32
302.379	10672.17
302.835	10506.15
303.291	10521.43
303.746	11974.41
304.202	15144.09
304.658	15237.42
305.113	10207.45
305.569	10059.2
306.024	10696.63
306.479	10114.57
306.935	8556.35
307.39	9299.13
307.845	8590.6
308.301	8676.83
308.756	8474.85
309.211	8180.47
309.666	8377.05
310.121	10484.8
310.576	10574
311.031	10491.01
311.486	11997.24
311.94	11979.29
312.395	16086.63
312.85	30207.8
313.305	147838.79
313.759	771814.82
314.214	56087.79
314.668	44663.16
315.123	37723.49
315.577	13662.41
316.032	12205.48
316.486	15315.2
316.94	12161
317.394	8499.58
317.849	6620.3
318.303	6240.46
318.757	5874.13
319.211	6507.02
319.665	5681
320.119	5726.29
320.572	8146.06
321.026	7623.4
321.48	6339.7
321.934	6855.14
322.387	6840.64
322.841	7398.37
323.295	6733.29
323.748	7683.69
324.202	7762.45
324.655	9328.48
325.108	13137.53
325.562	9293.07
326.015	11025.48
326.468	8341.77
326.921	9386.14
327.374	8794.81
327.827	9221.53
328.28	10399.23
328.733	7029.9
329.186	6180.19
329.639	5909.34
330.092	4969.48
330.545	4755.8
330.997	4818.77
331.45	5312.18
331.903	6241.76
332.355	10701.39
332.808	10366.69
333.26	8557.71
333.713	9309.46
334.165	9414.26
334.617	12540.15
335.069	10066.09
335.522	18160.15
335.974	20103.17
336.426	18319.2
336.878	12617.66
337.33	6407.7
337.782	6268.09
338.234	7904.68
338.686	9402.47
339.137	11153.46
339.589	10495.41
340.041	8241.64
340.493	7096.4
340.944	7259.31
341.396	7840
341.847	6620.94
342.299	7878.6
342.75	9661.39
343.201	8376.8
343.653	9648.02
344.104	11808.97
344.555	9315.73
345.006	14434.23
345.457	11123.11
345.908	8801.42
346.359	8292.36
346.81	6752.05
347.261	7065.93
347.712	6915.29
348.163	7404.08
348.613	7562.66
349.064	7076.46
349.515	6199.72
349.965	6379.65
350.416	7659.77
350.866	8408.17
351.317	9432.5
351.767	15643.8
352.217	19783.09
352.668	16465.1
353.118	15149.48
353.568	14444.63
354.018	11474.4
354.468	12101.99
354.918	8702.78
355.368	7584.3
355.818	10749.69
356.268	30992.1
356.718	130278.88
357.168	32579.71
357.617	16265.04
358.067	18009.46
358.517	16913.52
358.966	19879.94
359.416	22458.81
359.865	24266.41
360.315	29059.8
360.764	13570
361.213	7623.52
361.663	7187.72
362.112	8843.58
362.561	14374.89
363.01	10840.96
363.459	9162.24
363.908	9860.02
364.357	8378.06
364.806	14105.06
365.255	9669.41
365.703	8916.65
366.152	8947.55
366.601	7287.33
367.05	5956.48
367.498	5403
367.947	5660.63
368.395	5862.47
368.844	5213.26
369.292	6242.51
369.74	4340.85
370.189	6630.78
370.637	7753.8
371.085	6666.42
371.533	8079.28
371.981	7746.71
372.429	7425.89
372.877	7732.49
373.325	6468.45
373.773	6581.8
374.221	5853.74
374.669	7247.45
375.116	6258.97
375.564	6285.28
376.012	7027.72
376.459	5797.26
376.907	6904.54
377.354	8305.78
377.801	7789.96
378.249	9005.54
378.696	11509.5
379.143	13983.23
379.591	14925.72
380.038	25427.85
380.485	18543.46
380.932	20177.96
381.379	18763.85
381.826	14008.83
382.273	10014.87
382.72	8788.91
383.166	8685.39
383.613	5709.42
384.06	5218.04
384.506	6139.51
384.953	4577.48
385.4	4677.33
385.846	4185.63
386.292	4166.85
386.739	4203.31
387.185	4331.71
387.631	4519.04
388.078	4621.41
388.524	5177.32
388.97	4998.55
389.416	4327.21
389.862	4741.54
390.308	4627.73
390.754	4866.09
391.2	5522.79
391.645	5972.09
392.091	6072.22
392.537	6205.61
392.983	6472.9
393.428	6615.82
393.874	7359.11
394.319	7811.4
394.765	7996.69
395.21	8964.81
395.655	9181.69
396.101	9330.9
396.546	9094.54
396.991	9906.67
397.436	9926.5
397.881	10377.84
398.326	10697.79
398.771	10961.1
399.216	10349.91
399.661	9967.9
400.106	10510.29
400.551	11336.68
400.995	10657.88
401.44	10982.33
401.885	10682.83
402.329	11142.92
402.774	10987.45
403.218	10889.18
403.663	10795.16
404.107	11402.57
404.551	11833.86
404.995	11226.81
405.44	11221.78
405.884	11807.84
406.328	11829.75
406.772	12155.35
407.216	11408.13
407.66	11427.75
408.104	11332.72
408.547	11028.87
408.991	11045.43
409.435	10968.9
409.879	11083.55
410.322	11189.39
410.766	11059.1
411.209	10780.15
411.653	10658.73
412.096	10728.74
412.54	11026.06
412.983	11182.95
413.426	11412.17
413.869	11647.46
414.312	11624.64
414.756	11437.66
415.199	11120.57
415.642	10981.96
416.085	11164.65
416.527	11252.06
416.97	11597.27
417.413	11110.73
417.856	11129.38
418.298	11117.22
418.741	11104.21
419.184	11145.9
419.626	11681.14
420.069	11733.8
420.511	11852.94
420.953	11680.86
421.396	11676.63
421.838	11497.7
422.28	11871.02
422.722	12024.93
423.164	12379.86
423.606	12342.91
424.048	12528.94
424.49	12045.13
424.932	12164
425.374	12164.41
425.816	12463.41
426.258	12663.43
426.699	12659.16
427.141	12212.28
427.582	12195.65
428.024	11989.27
428.465	11946.9
428.907	11781.66
429.348	11872.65
429.789	12051.87
430.231	11926.58
430.672	12246.49
431.113	12185.32
431.554	12382.24
431.995	12620.49
432.436	12660.49
432.877	12835.16
433.318	12926.73
433.759	13139.35
434.2	13328.82
434.64	13371.03
435.081	13598.87
435.522	13091.66
435.962	12871.76
436.403	12789.87
436.843	13195.07
437.284	13126.29
437.724	12946.06
438.164	13167.81
438.604	13005.26
439.045	12619.22
439.485	12228.26
439.925	12172.94
440.365	12066.54
440.805	12066.46
441.245	12040.81
441.685	11676.55
442.125	11686.79
442.564	11816.59
443.004	11562.65
443.444	11578.95
443.883	11654.02
444.323	11694.07
444.762	11853.64
445.202	12105.13
445.641	12351.76
446.081	12397.03
446.52	12571.42
446.959	12518.81
447.398	12311.41
447.837	12309.36
448.276	12222.73
448.716	12423.08
449.154	12585.72
449.593	12231.21
450.032	12154.68
450.471	11962.89
450.91	11961.66
451.349	11876.44
451.787	11803.32
452.226	11933.36
452.664	11868.02
453.103	11825.82
453.541	11783.94
453.98	11670.21
454.418	11748.69
454.856	11513.36
455.295	11451.08
455.733	11468.69
456.171	11495.83
456.609	11432.29
457.047	11379.73
457.485	11468.22
457.923	11431.86
458.361	11257.73
458.798	11300.72
459.236	11270.93
459.674	11403.14
460.111	11484.29
460.549	11404.02
460.987	11424.21
461.424	11449.07
461.862	11435.54
462.299	11313.35
462.736	11329.72
463.173	11405.81
463.611	11256.28
464.048	11247.02
464.485	11368.46
464.922	11334.18
465.359	11372.24
465.796	11133.23
466.233	11126.93
466.67	11068.04
467.106	11103.8
467.543	11106.06
467.98	11066.76
468.416	10943.94
468.853	11000.72
469.29	10793.88
469.726	10768.08
470.162	10560.92
470.599	10648.6
471.035	10648.37
471.471	10494.47
471.907	10552.72
472.344	10551.16
472.78	10593.97
473.216	10754.55
473.652	10613.08
474.088	10591.04
474.523	10532.72
474.959	10625.01
475.395	10508.81
475.831	10398.43
476.266	10417.54
476.702	10346.52
477.138	10180.34
477.573	10102.06
478.008	10002.19
478.444	9967.42
478.879	9954.95
479.314	9917.29
479.75	9822.73
480.185	9788.94
480.62	9787.96
481.055	9740.07
481.49	9685.58
481.925	9698.12
482.36	9677.44
482.795	9783.19
483.229	9877.11
483.664	9904.8
484.099	9785.31
484.534	9776.39
484.968	9728.52
485.403	9639.99
485.837	9531.4
486.271	9421.68
486.706	9353.18
487.14	9231.79
487.574	9051.12
488.009	8948.77
488.443	8847.38
488.877	8872.48
489.311	8852.17
489.745	8891.21
490.179	8902.68
490.613	8968.26
491.046	8985.27
491.48	8991.74
491.914	8932.8
492.348	8938.86
492.781	8931.9
493.215	8910.65
493.648	8906.33
494.082	8935.57
494.515	8894.54
494.948	8931.57
495.382	8960.06
495.815	8951.56
496.248	8949.48
496.681	9046.36
497.114	9122.67
497.547	9162.62
497.98	9217.44
498.413	9177.13
498.846	9190.67
499.279	9206.72
499.711	9184.75
500.144	9131.9
500.577	9153.62
501.009	9193.31
501.442	9199.43
501.874	9113.98
502.306	9073.71
502.739	9058.64
503.171	9168.54
503.603	9131.7
504.036	9151.11
504.468	9120.18
504.9	9144.04
505.332	9128.37
505.764	9078.83
506.196	9065.09
506.627	9116.79
507.059	9140.04
507.491	9149.32
507.923	9004.74
508.354	9034.26
508.786	9026.16
509.217	9080.78
509.649	9104.79
510.08	9164.22
510.512	9186.25
510.943	9195.23
511.374	9171.13
511.805	9220.96
512.237	9267.09
512.668	9422.75
513.099	9518.94
513.53	9586.08
513.961	9584.23
514.391	9670.88
514.822	9746.03
515.253	9861.25
515.684	9896.42
516.114	9965.58
516.545	9968.84
516.975	10008.87
517.406	9994.45
517.836	9886.16
518.267	9823.66
518.697	9846.34
519.127	9781.08
519.558	9743.28
519.988	9672.72
520.418	9650.5
520.848	9673.41
521.278	9639.94
521.708	9419.46
522.138	9413.44
522.567	9518.37
522.997	9575.09
523.427	9570.68
523.857	9564.56
524.286	9531.55
524.716	9533.98
525.145	9557.63
525.575	9542.35
526.004	9557.44
526.433	9660.52
526.863	9595.59
527.292	9469.89
527.721	9452.22
528.15	9452.16
528.579	9427.77
529.008	9458.51
529.437	9549.96
529.866	9582.96
530.295	9631.86
530.724	9641.5
531.152	9739.05
531.581	9765.5
532.01	9823.37
532.438	9831.35
532.867	9875.66
533.295	9938.37
533.723	9935.9
534.152	9893.79
534.58	9866.32
535.008	9760.24
535.436	9748.97
535.865	9772.96
536.293	9833.61
536.721	9895.36
537.149	9998.64
537.576	9982.29
538.004	10033.82
538.432	10066.56
538.86	10048.74
539.287	10085.65
539.715	10152.95
540.143	10177.87
540.57	10164.4
540.998	10159.91
541.425	10042.94
541.852	9961.56
542.28	9980.77
542.707	9923.7
543.134	9872.36
543.561	9873.55
543.988	9855.51
544.415	9879.9
544.842	9872.65
545.269	9853.11
545.696	9879.01
546.123	9983.43
546.549	9949.24
546.976	9898.38
547.403	9913.08
547.829	9946.26
548.256	9984.12
548.682	9983.52
549.108	9960.03
549.535	9981.28
549.961	10014.05
550.387	9960.72
550.813	9940.38
551.24	9992.06
551.666	10018.01
552.092	9981.74
552.518	9966.13
552.943	9940.92
553.369	10001.57
553.795	10048.49
554.221	10059.53
554.646	10052.81
555.072	10106.86
555.498	10143.41
555.923	10196.78
556.349	10275.93
556.774	10321.66
557.199	10325.6
557.625	10373.44
558.05	10338.88
558.475	10400.95
558.9	10398.53
559.325	10353.09
559.75	10331.07
560.175	10305.05
560.6	10281.69
561.025	10280.32
561.449	10295.34
561.874	10331.79
562.299	10344.69
562.723	10386.11
563.148	10320.94
563.572	10340.38
563.997	10394.85
564.421	10423.75
564.846	10419.58
565.27	10422.31
565.694	10397.97
566.118	10444.16
566.542	10466.43
566.966	10417.75
567.39	10370.98
567.814	10295.92
568.238	10282.56
568.662	10305.95
569.086	10316.5
569.509	10368.97
569.933	10293.66
570.357	10279.65
570.78	10193.23
571.204	10148.41
571.627	10132.67
572.05	10175.36
572.474	10226.47
572.897	10219.11
573.32	10234.3
573.743	10251.5
574.166	10202.86
574.589	10278.71
575.012	10298.68
575.435	10365.55
575.858	10386.32
576.281	10396.46
576.704	10381.62
577.126	10392.34
577.549	10401.85
577.972	10427.3
578.394	10434.35
578.817	10453.39
579.239	10413.03
579.661	10401.59
580.084	10363.52
580.506	10355.99
580.928	10407.28
581.35	10407.11
581.772	10444.27
582.194	10416.51
582.616	10384.46
583.038	10350.13
583.46	10344.51
583.882	10369.39
584.303	10453.12
584.725	10480.86
585.147	10491.53
585.568	10575.8
585.99	10655.27
586.411	10691.33
586.833	10784.1
587.254	10795.72
587.675	10900.81
588.096	10999.13
588.518	10971.02
588.939	10860.45
589.36	10853.01
589.781	10841.14
590.202	10644.74
590.623	10623.55
591.043	10649.91
591.464	10590.7
591.885	10579.07
592.305	10549.03
592.726	10456.67
593.147	10462.79
593.567	10419.3
593.987	10355.02
594.408	10302.18
594.828	10296.81
595.248	10220.37
595.669	10053.62
596.089	9976.99
596.509	9910.09
596.929	9781.92
597.349	9747.86
597.769	9638.92
598.189	9548.5
598.608	9514.33
599.028	9480.65
599.448	9439.09
599.867	9322.83
600.287	9270.99
600.706	9208.77
601.126	9109.11
601.545	9070.55
601.965	9043.46
602.384	8993.2
602.803	9003.97
603.222	8961.54
603.641	8917.23
604.061	8887.54
604.48	8865.93
604.898	8922.53
605.317	8965.59
605.736	8991.58
606.155	8982.68
606.574	8935.61
606.992	8987.81
607.411	8971
607.829	8945.9
608.248	8950.34
608.666	8964.29
609.085	8983.01
609.503	8948.99
609.921	8931.77
610.339	8972.05
610.758	9000.36
611.176	8999.08
611.594	8965.06
612.012	8975.54
612.43	9016.43
612.847	9085.9
613.265	9103.45
613.683	9158.21
614.101	9194.59
614.518	9202.69
614.936	9165.71
615.353	9093.57
615.771	9102.17
616.188	9135.53
616.606	9142.15
617.023	9129.05
617.44	9063.95
617.857	9066.36
618.274	9042.54
618.691	9023.24
619.108	8983.2
619.525	8962.45
619.942	9022.83
620.359	9052.49
620.776	9025.67
621.192	8993.56
621.609	8975.62
622.026	9010.9
622.442	9040.3
622.859	9058.63
623.275	9007.99
623.691	9040.3
624.108	9115.45
624.524	9214.97
624.94	9205.68
625.356	9267.52
625.772	9360.54
626.188	9442.96
626.604	9449.21
627.02	9415.65
627.436	9390.53
627.852	9426.64
628.268	9501.37
628.683	9432.34
629.099	9368.5
629.514	9343.93
629.93	9378.79
630.345	9418.39
630.761	9402.17
631.176	9445.17
631.591	9407.52
632.007	9384.58
632.422	9403.91
632.837	9352.15
633.252	9354.5
633.667	9311.83
634.082	9276.25
634.497	9213.54
634.911	9098.3
635.326	9112.26
635.741	9028.88
636.155	9013.48
636.57	9060.9
636.984	9099.41
637.399	9147.04
637.813	9202.05
638.228	9245.72
638.642	9333.35
639.056	9314.93
639.47	9381.9
639.884	9376.25
640.298	9388.27
640.712	9436.87
641.126	9411.31
641.54	9419.95
641.954	9475.14
642.368	9443.95
642.781	9428.14
643.195	9352.12
643.609	9415.61
644.022	9429.07
644.436	9450.71
644.849	9404.86
645.262	9359.41
645.676	9426.69
646.089	9419.27
646.502	9305.49
646.915	9302.43
647.328	9217.29
647.741	9243.15
648.154	9177.24
648.567	9169.93
648.98	9088.41
649.393	9135.28
649.805	9146.19
650.218	9120.85
650.631	9018.92
651.043	9014.01
651.456	8991.37
651.868	9024.03
652.28	9190.21
652.693	9292.81
653.105	9313.2
653.517	9335.01
653.929	9275.35
654.341	9281.6
654.753	9146.37
655.165	9205.3
655.577	9197.46
655.989	9189.12
656.401	9173.49
656.813	8896.32
657.224	8812.07
657.636	8696.87
658.047	8669.16
658.459	8628.5
658.87	8682.03
659.282	8688.11
659.693	8570.25
660.104	8502.71
660.515	8442.94
660.926	8485.38
661.338	8533.93
661.749	8538.4
662.159	8489.48
662.57	8516.78
662.981	8522.78
663.392	8487.01
663.803	8568.19
664.213	8595.02
664.624	8598.23
665.035	8674.72
665.445	8571.9
665.855	8518.34
666.266	8450.17
666.676	8458.06
667.086	8383.18
667.497	8382.2
667.907	8324.4
668.317	8231.43
668.727	8155.21
669.137	8166.29
669.547	8129.31
669.956	8155.47
670.366	8165.66
670.776	8166.29
671.186	8191.85
671.595	8199.7
672.005	8227.4
672.414	8188.18
672.824	8141.07
673.233	8205.51
673.642	8197.02
674.052	8187.87
674.461	8158.61
674.87	8178.85
675.279	8107.92
675.688	8099.84
676.097	8065.06
676.506	7990.32
676.915	8110.25
677.323	8098.63
677.732	8037.82
678.141	7996.27
678.549	7860.63
678.958	7823.41
679.366	7777.03
679.775	7798.79
680.183	7818.2
680.592	7829.17
681	7821.65
681.408	7682.76
681.816	7688.03
682.224	7698.12
682.632	7688.1
683.04	7854.03
683.448	7931.95
683.856	7996.62
684.264	8050.95
684.671	8082.43
685.079	8148.35
685.487	8235.06
685.894	8442.14
686.302	8538.87
686.709	8533.33
687.116	8579.53
687.524	8553.87
687.931	8516.81
688.338	8501.69
