Data from N_3_DEC_OH_4N_Splice17_13-27-14-439.txt Node
Date: Sat Mar 14 13:27:14 EDT 2020
User: sa697716
Spectrometer: FLMS03696
Trigger mode: 0
Integration Time (sec): 3.180400E-1
Scans to average: 20
Electric dark correction enabled: true
Nonlinearity correction enabled: true
Boxcar width: 5
XAxis mode: Wavelengths
Number of Pixels in Spectrum: 2048
>>>>>Begin Spectral Data<<<<<
187.83	-372715.31
188.298	2650.88
188.766	1450.02
189.233	1302.78
189.701	1654.18
190.169	2248.71
190.636	869.23
191.104	660.18
191.571	70.95
192.039	-103.08
192.506	-203.87
192.974	185.12
193.441	-346.84
193.908	54.19
194.375	34.15
194.842	-38.53
195.31	8.03
195.777	156.99
196.244	350.53
196.711	427.71
197.177	563.63
197.644	806.47
198.111	1391.35
198.578	1938.66
199.045	1566.56
199.511	2571.9
199.978	3031.29
200.445	2596.02
200.911	2847.22
201.378	3214.58
201.844	2927.72
202.31	4959.3
202.777	5195.37
203.243	2919.21
203.709	2797.22
204.176	3334.31
204.642	2746.38
205.108	2568.9
205.574	2079.52
206.04	1897.65
206.506	1743.42
206.972	1634.14
207.438	1583.99
207.903	1770.56
208.369	1541.91
208.835	1544.07
209.301	1619.59
209.766	1651.84
210.232	1619.37
210.697	2008.17
211.163	2470.48
211.628	3743.97
212.094	3154.33
212.559	3899.95
213.024	2447.74
213.49	2988.16
213.955	2932.69
214.42	2878.88
214.885	2694.86
215.35	2620.93
215.815	2545.71
216.28	2715.11
216.745	2226.59
217.21	2405.29
217.675	2209.14
218.14	2481.86
218.604	2766.61
219.069	3141.94
219.534	3303.25
219.998	3826.88
220.463	4608.47
220.927	5639.72
221.392	5320.83
221.856	5403.06
222.32	6806.14
222.785	8388.5
223.249	10554.66
223.713	11781.49
224.177	11761.11
224.642	15063.1
225.106	18535.85
225.57	20270.93
226.034	15093.53
226.497	22975.83
226.961	20711.35
227.425	24103.21
227.889	26740.91
228.353	26692.3
228.816	55029.88
229.28	52618.01
229.744	44187.87
230.207	26885.42
230.671	26413.63
231.134	43613.56
231.597	50246.58
232.061	50215.26
232.524	48931.9
232.987	33658.35
233.45	30309.96
233.914	27189
234.377	27858.28
234.84	25499.87
235.303	29968.27
235.766	33408.04
236.229	34484.8
236.691	21668.88
237.154	24289.88
237.617	18238.98
238.08	18655.95
238.542	21808.51
239.005	15568.9
239.468	15442.56
239.93	14562.27
240.393	13243.21
240.855	11632.48
241.317	11905.86
241.78	14488.72
242.242	14991.64
242.704	16215.28
243.166	14115.62
243.629	12803.78
244.091	14750.36
244.553	16159.42
245.015	17355.43
245.477	22433.2
245.939	32834.45
246.4	34851.31
246.862	33824.01
247.324	31868.36
247.786	35610.74
248.247	46677.2
248.709	48098.39
249.17	35933.92
249.632	33858.8
250.093	39265.77
250.555	33870.72
251.016	20665.41
251.477	19564.04
251.939	21108.26
252.4	22130.58
252.861	26288.5
253.322	24457.86
253.783	29131.24
254.244	37794.91
254.705	29754.19
255.166	26406.49
255.627	25994.42
256.088	36616.02
256.549	38877.36
257.009	33457.33
257.47	40578.35
257.931	33003.8
258.391	24695.87
258.852	25416.49
259.312	26607.3
259.773	32823.98
260.233	27777.5
260.694	23421.85
261.154	26557.66
261.614	21326.89
262.074	19060.17
262.534	19778.14
262.994	18630.8
263.455	24785.45
263.915	20891.04
264.374	19660.89
264.834	21437.86
265.294	23715.85
265.754	24560.77
266.214	23238.67
266.673	21750.78
267.133	27408.51
267.593	27164.81
268.052	33204.59
268.512	28857.78
268.971	34804.01
269.431	38136.64
269.89	34151.37
270.349	51188.94
270.809	57032.98
271.268	51244.94
271.727	114790.73
272.186	74392.95
272.645	55799.67
273.104	40281.49
273.563	58273.37
274.022	45764.76
274.481	38969.32
274.94	30014.55
275.399	22278.93
275.857	25887.35
276.316	34960.92
276.775	31141.25
277.233	30653.96
277.692	28688.22
278.15	32439.57
278.609	33384.63
279.067	30897.56
279.525	28696.03
279.984	37032.11
280.442	44482.92
280.9	43910.07
281.358	28893.57
281.816	26917.6
282.274	26351.62
282.732	27208.04
283.19	27315.86
283.648	23580.5
284.106	25101.04
284.564	25524
285.021	23708.46
285.479	17666.59
285.937	16064.01
286.394	14108.21
286.852	14516.97
287.309	15250.19
287.767	14753.59
288.224	14048.03
288.682	15412.65
289.139	16928.75
289.596	15498.25
290.053	16102.35
290.511	20324.79
290.968	24660.08
291.425	33459.04
291.882	27819.92
292.339	24230.47
292.796	24030.14
293.252	22613.53
293.709	17976.25
294.166	16091.18
294.623	17767.36
295.079	17024.99
295.536	17115.53
295.992	15529.19
296.449	15338.01
296.905	15964
297.362	15309.54
297.818	16084.33
298.274	16697.11
298.731	16991.21
299.187	16831.22
299.643	18041.58
300.099	21812.27
300.555	23888.81
301.011	19965.86
301.467	19277.89
301.923	22525.84
302.379	21985.13
302.835	21595.8
303.291	21628.55
303.746	24635.77
304.202	31069.04
304.658	31191.65
305.113	20978.73
305.569	20574.62
306.024	21940.73
306.479	20880.9
306.935	17628.2
307.39	19245.49
307.845	17773.45
308.301	17901.18
308.756	17446.45
309.211	16849.54
309.666	17288.21
310.121	21477.85
310.576	21797.64
311.031	21626.6
311.486	24757.59
311.94	24715.06
312.395	33062.85
312.85	62129.89
313.305	304543.55
313.759	1577691.9
314.214	114129.79
314.668	90380.93
315.123	76120.49
315.577	27331.28
316.032	24260.61
316.486	30398.57
316.94	24011.54
317.394	16714.67
317.849	12994.89
318.303	12317.65
318.757	11616.4
319.211	12837.1
319.665	11246.22
320.119	11360.92
320.572	16275.09
321.026	15220.35
321.48	12654.25
321.934	13779.8
322.387	13801.14
322.841	14888.56
323.295	13410.7
323.748	15439.37
324.202	15672.58
324.655	18826.07
325.108	26342.35
325.562	18607.31
326.015	22107.05
326.468	16707.83
326.921	18673.28
327.374	17440.28
327.827	18192.13
328.28	20545.31
328.733	13761.75
329.186	12093.24
329.639	11517.15
330.092	9708.13
330.545	9251.77
330.997	9342.44
331.45	10227.08
331.903	12002.23
332.355	20611.99
332.808	20021.21
333.26	16503.39
333.713	17929.71
334.165	18070.67
334.617	24104.16
335.069	19423.53
335.522	35040.11
335.974	38781.25
336.426	35385.09
336.878	24475.7
337.33	12416.36
337.782	12101.89
338.234	15176.93
338.686	18136.43
339.137	21489.33
339.589	20225.31
340.041	15877.66
340.493	13668.11
340.944	14005.43
341.396	15106.17
341.847	12703.74
342.299	14998.11
342.75	18351.75
343.201	16027.66
343.653	18404.21
344.104	22568.61
344.555	17755.29
345.006	27593.66
345.457	21177.75
345.908	16793.28
346.359	15762.03
346.81	12834.91
347.261	13527.46
347.712	13296.53
348.163	14234.07
348.613	14420.26
349.064	13476.45
349.515	11809.09
349.965	12133.31
350.416	14563.71
350.866	15976.44
351.317	18066.21
351.767	29915.16
352.217	37733.4
352.668	31277.3
353.118	28665.31
353.568	27631.27
354.018	21886.89
354.468	23087.61
354.918	16515.9
355.368	14483.98
355.818	20474.92
356.268	58802.35
356.718	245955.96
357.168	61194.53
357.617	30739.52
358.067	34140.43
358.517	31997.52
358.966	37497.97
359.416	42102
359.865	45484.5
360.315	53979.01
360.764	25205.17
361.213	14151.85
361.663	13402.42
362.112	16561.08
362.561	26778.63
363.01	20210.72
363.459	16996.8
363.908	18392.07
364.357	15614.92
364.806	26387.41
365.255	18148.51
365.703	16645.7
366.152	16639
366.601	13512.45
367.05	10984.56
367.498	9982.29
367.947	10427.68
368.395	10865.64
368.844	9634.26
369.292	11582.49
369.74	8005.68
370.189	12256.47
370.637	14357.36
371.085	12391.02
371.533	15037.46
371.981	14401.77
372.429	13704.08
372.877	14238.59
373.325	11860.11
373.773	12034.49
374.221	10689.71
374.669	13226.54
375.116	11408.91
375.564	11469.11
376.012	12817.98
376.459	10570.87
376.907	12636.94
377.354	15240.6
377.801	14241.26
378.249	16385.65
378.696	20876.08
379.143	25239.6
379.591	26886.48
380.038	45435.87
380.485	32786.66
380.932	35301.71
381.379	32284.75
381.826	23762.22
382.273	16884.48
382.72	14715.57
383.166	14315.23
383.613	9298.84
384.06	8365.87
384.506	9673.71
384.953	7096.24
385.4	7113.99
385.846	6216.88
386.292	6032.87
386.739	5889.55
387.185	5807.08
387.631	5799.58
388.078	5628.19
388.524	5999.45
388.97	5539.52
389.416	4622.05
389.862	4916.22
390.308	4658.56
390.754	4733.97
391.2	5151.57
391.645	5267.35
392.091	5060.66
392.537	4893.47
392.983	4894.36
393.428	4838.78
393.874	5193.04
394.319	5217.8
394.765	4968.26
395.21	5102.87
395.655	4803.37
396.101	4502.77
396.546	4076.77
396.991	4114.49
397.436	3836.44
397.881	3723.82
398.326	3528.59
398.771	3358.06
399.216	2948.84
399.661	2655.08
400.106	2677.3
400.551	2754.79
400.995	2484.13
401.44	2474.9
401.885	2338.45
402.329	2376.82
402.774	2295.45
403.218	2246.11
403.663	2178.14
404.107	2252.5
404.551	2291.18
404.995	2112.11
405.44	2043.25
405.884	2090.53
406.328	2032.95
406.772	2040.49
407.216	1872.31
407.66	1819.22
408.104	1738.36
408.547	1636.62
408.991	1591.47
409.435	1538.04
409.879	1525.83
410.322	1518.16
410.766	1476.76
411.209	1415.17
411.653	1365.34
412.096	1346.11
412.54	1355.89
412.983	1353.89
413.426	1367.87
413.869	1375.75
414.312	1362.14
414.756	1319.05
415.199	1264.81
415.642	1233.52
416.085	1242.46
416.527	1240.86
416.97	1264.81
417.413	1203.98
417.856	1192.8
418.298	1183.3
418.741	1177.68
419.184	1175.37
419.626	1228.6
420.069	1233.65
420.511	1241.91
420.953	1217.98
421.396	1208.83
421.838	1180.6
422.28	1211.04
422.722	1220.84
423.164	1239.27
423.606	1222.39
424.048	1221.08
424.49	1162.49
424.932	1154.99
425.374	1140.01
425.816	1158.03
426.258	1182.23
426.699	1193.94
427.141	1173.27
427.582	1190.84
428.024	1183.46
428.465	1175.03
428.907	1146.27
429.348	1130.19
429.789	1132.12
430.231	1109.3
430.672	1126.94
431.113	1097.81
431.554	1080.85
431.995	1054.91
432.436	1018.14
432.877	996.97
433.318	980.36
433.759	979.15
434.2	978.77
434.64	968.64
435.081	970.79
435.522	920.79
435.962	888.87
436.403	872.2
436.843	885.91
437.284	867.3
437.724	845.82
438.164	849.13
438.604	828.26
439.045	799.93
439.485	769.61
439.925	755.1
440.365	736.95
440.805	729.58
441.245	724.34
441.685	701.56
442.125	700.86
442.564	707.65
443.004	696.01
443.444	699.27
443.883	704.5
444.323	702.48
444.762	708.06
445.202	721.2
445.641	740.44
446.081	739.26
446.52	749.56
446.959	747.4
447.398	734.54
447.837	731.54
448.276	724.21
448.716	736.65
449.154	747.36
449.593	734.88
450.032	737.58
450.471	726.9
450.91	731.97
451.349	733.28
451.787	732.34
452.226	745.76
452.664	748.68
453.103	753.08
453.541	754.09
453.98	755.84
454.418	762.55
454.856	752.64
455.295	753.56
455.733	760.07
456.171	766.31
456.609	767.66
457.047	768.51
457.485	779.57
457.923	780.32
458.361	769.56
458.798	771.38
459.236	770.59
459.674	775.17
460.111	778.31
460.549	771.88
460.987	767.9
461.424	764.78
461.862	761.25
462.299	750.03
462.736	749.12
463.173	750.92
463.611	742.57
464.048	738.58
464.485	744.89
464.922	736.96
465.359	731.15
465.796	723.19
466.233	717.67
466.67	710.55
467.106	707.62
467.543	700.6
467.98	691.4
468.416	672.93
468.853	667.98
469.29	647.74
469.726	641.48
470.162	624.9
470.599	614.62
471.035	610.33
471.471	595.36
471.907	593.35
472.344	590.62
472.78	593.48
473.216	602.84
473.652	597.81
474.088	598.15
474.523	597.91
474.959	605.98
475.395	603.11
475.831	600.65
476.266	606.94
476.702	605.06
477.138	599.54
477.573	599.56
478.008	599.18
478.444	602.69
478.879	609.56
479.314	612.84
479.75	613.98
480.185	618.2
480.62	625.62
481.055	629.65
481.49	636.95
481.925	647.41
482.36	659.71
482.795	678.87
483.229	698.94
483.664	714.97
484.099	720.13
484.534	731.99
484.968	740.34
485.403	744.02
485.837	745.07
486.271	745.16
486.706	747.28
487.14	740.34
487.574	730.67
488.009	725.75
488.443	722.22
488.877	731.67
489.311	736.68
489.745	748.43
490.179	758.38
490.613	776.23
491.046	785.18
491.48	795.4
491.914	800.56
492.348	809.56
492.781	819.11
493.215	823.77
493.648	829.79
494.082	840.88
494.515	845.77
494.948	859.8
495.382	869.75
495.815	880.93
496.248	893.07
496.681	913.94
497.114	934.62
497.547	953.23
497.98	975.32
498.413	988.58
498.846	1007.2
499.279	1024.32
499.711	1035.3
500.144	1044.51
500.577	1064.24
501.009	1084.41
501.442	1103.79
501.874	1111.63
502.306	1118.68
502.739	1134.53
503.171	1160.01
503.603	1169.44
504.036	1188.23
504.468	1200.97
504.9	1221.54
505.332	1235.48
505.764	1246.16
506.196	1259.72
506.627	1284.05
507.059	1307.81
507.491	1324.91
507.923	1325.38
508.354	1348.16
508.786	1365.3
509.217	1392.44
509.649	1414.63
510.08	1442.29
510.512	1466.13
510.943	1488.17
511.374	1504.78
511.805	1532.24
512.237	1559.06
512.668	1604.18
513.099	1642.42
513.53	1677.77
513.961	1705.82
514.391	1748.57
514.822	1792.54
515.253	1839.73
515.684	1872.4
516.114	1909.03
516.545	1934.23
516.975	1966.55
517.406	1986.89
517.836	1985.96
518.267	1991.41
518.697	2010.97
519.127	2011.84
519.558	2017.44
519.988	2017.38
520.418	2024.7
520.848	2044.07
521.278	2051.72
521.708	2065.27
522.138	2077.53
522.567	2114.62
522.997	2143.9
523.427	2160.06
523.857	2179.4
524.286	2188.1
524.716	2203.11
525.145	2224.96
525.575	2234.91
526.004	2248.81
526.433	2238.48
526.863	2234.23
527.292	2216.17
527.721	2219.5
528.15	2222.91
528.579	2218.43
529.008	2229.34
529.437	2257.26
529.866	2272.23
530.295	2291.4
530.724	2305.08
531.152	2337.63
531.581	2352.97
532.01	2374.99
532.438	2384.38
532.867	2400.31
533.295	2422.24
533.723	2427.28
534.152	2421.77
534.58	2418.4
535.008	2394.94
535.436	2395.1
535.865	2403.5
536.293	2420.4
536.721	2438.12
537.149	2467.54
537.576	2468.68
538.004	2482.61
538.432	2490.56
538.86	2485.66
539.287	2493.7
539.715	2510.91
540.143	2512.91
540.57	2505.44
540.998	2498.86
541.425	2467.48
541.852	2438.65
542.28	2435.92
542.707	2412.89
543.134	2393.78
543.561	2386.83
543.988	2375.85
544.415	2373.21
544.842	2365.07
545.269	2355.75
545.696	2357.26
546.123	2372.81
546.549	2360.45
546.976	2343.31
547.403	2343.67
547.829	2347.24
548.256	2350.66
548.682	2346.17
549.108	2335.63
549.535	2335.4
549.961	2338.18
550.387	2322.28
550.813	2315.85
551.24	2324.45
551.666	2327.08
552.092	2316.06
552.518	2307.98
552.943	2301.99
553.369	2312.5
553.795	2322.57
554.221	2327.01
554.646	2325.61
555.072	2341.4
555.498	2349.51
555.923	2362.38
556.349	2384.55
556.774	2398.04
557.199	2401.96
557.625	2411.87
558.05	2407.38
558.475	2423.77
558.9	2423.17
559.325	2414.37
559.75	2409.68
560.175	2406.2
560.6	2401.47
561.025	2402.92
561.449	2407.13
561.874	2418.16
562.299	2427.28
562.723	2439.94
563.148	2430.62
563.572	2440.73
563.997	2458.48
564.421	2469.89
564.846	2473.59
565.27	2483.79
565.694	2483.02
566.118	2504.38
566.542	2519.34
566.966	2515.53
567.39	2513.62
567.814	2503.51
568.238	2507.59
568.662	2519.97
569.086	2527.83
569.509	2541.29
569.933	2523.72
570.357	2518.33
570.78	2492.63
571.204	2479.16
571.627	2468.81
572.05	2471.92
572.474	2476.6
572.897	2463.47
573.32	2456.89
573.743	2448.73
574.166	2428.03
574.589	2432.96
575.012	2428.91
575.435	2433.51
575.858	2426.07
576.281	2416.57
576.704	2398.65
577.126	2385.85
577.549	2374.36
577.972	2365.22
578.394	2353.67
578.817	2347.45
579.239	2324.45
579.661	2308.32
580.084	2287.99
580.506	2272.22
580.928	2268.51
581.35	2256.54
581.772	2252.46
582.194	2237.29
582.616	2221.92
583.038	2205.26
583.46	2194.98
583.882	2193.64
584.303	2202.46
584.725	2200.55
585.147	2205.61
585.568	2224.23
585.99	2244.35
586.411	2257.29
586.833	2281.61
587.254	2286.32
587.675	2308.51
588.096	2328.48
588.518	2323.67
588.939	2300.8
589.36	2299.28
589.781	2286.32
590.202	2245.52
590.623	2233.4
591.043	2231.72
591.464	2212.8
591.885	2208.61
592.305	2201.27
592.726	2181.6
593.147	2183.86
593.567	2177.06
593.987	2166.67
594.408	2159.5
594.828	2158.63
595.248	2150.62
595.669	2123.47
596.089	2115.53
596.509	2106.91
596.929	2088.14
597.349	2091.18
597.769	2078.3
598.189	2070.38
598.608	2072.82
599.028	2077.25
599.448	2077.61
599.867	2060.87
600.287	2055.67
600.706	2049.58
601.126	2035.72
601.545	2035.19
601.965	2033.69
602.384	2027.09
602.803	2031.73
603.222	2026.54
603.641	2018.62
604.061	2014.87
604.48	2009.83
604.898	2024.66
605.317	2034.87
605.736	2040.57
606.155	2038.16
606.574	2027.19
606.992	2036.91
607.411	2033.38
607.829	2023.51
608.248	2020.91
608.666	2020.32
609.085	2022.51
609.503	2012.17
609.921	2006.05
610.339	2012.8
610.758	2015.95
611.176	2011.71
611.594	2001.48
612.012	1999.65
612.43	2007.98
612.847	2021.37
613.265	2026.24
613.683	2036.81
614.101	2042.04
614.518	2038
614.936	2024.81
615.353	2005.02
615.771	2002.82
616.188	2004.87
616.606	2002.22
617.023	1994
617.44	1973.67
617.857	1965.38
618.274	1953.97
618.691	1945.09
619.108	1932.76
619.525	1925.03
619.942	1936.03
620.359	1942.62
620.776	1935.71
621.192	1929.36
621.609	1925.92
622.026	1937.04
622.442	1946.14
622.859	1952.45
623.275	1943.6
623.691	1954.15
624.108	1972.72
624.524	1995.19
624.94	1995.48
625.356	2011.29
625.772	2032.76
626.188	2052.26
626.604	2055.61
627.02	2049.25
627.436	2046.54
627.852	2056.99
628.268	2076.54
628.683	2062.06
629.099	2048.23
629.514	2041.03
629.93	2047.58
630.345	2054.26
630.761	2048.18
631.176	2053.37
631.591	2044.67
632.007	2035.32
632.422	2030.9
632.837	2011.37
633.252	2006.96
633.667	1992.25
634.082	1977.69
634.497	1957.03
634.911	1925.32
635.326	1918.37
635.741	1890.44
636.155	1874.65
636.57	1874.02
636.984	1873.1
637.399	1874.27
637.813	1872.84
638.228	1869.55
638.642	1874.2
639.056	1856.22
639.47	1855.41
639.884	1840.97
640.298	1829.02
640.712	1824.11
641.126	1802.91
641.54	1787.5
641.954	1778.16
642.368	1756.62
642.781	1739.3
643.195	1709.91
643.609	1709.09
644.022	1696.23
644.436	1687.94
644.849	1667.21
645.262	1646.55
645.676	1647.29
646.089	1637.71
646.502	1611.81
646.915	1601.25
647.328	1575.94
647.741	1569.24
648.154	1547.2
648.567	1541.04
648.98	1518.71
649.393	1518.62
649.805	1511.95
650.218	1499.26
650.631	1474.71
651.043	1465.38
651.456	1456.62
651.868	1456.93
652.28	1482.94
652.693	1504.12
653.105	1514.62
653.517	1529.68
653.929	1530.25
654.341	1539.54
654.753	1520.52
655.165	1529.59
655.577	1524.71
655.989	1517.21
656.401	1505.25
656.813	1451.33
657.224	1419.86
657.636	1375.55
658.047	1346.88
658.459	1315.63
658.87	1299.9
659.282	1281.41
659.693	1248.32
660.104	1223.66
660.515	1200.02
660.926	1191.71
661.338	1182.74
661.749	1168.28
662.159	1149.24
662.57	1137.25
662.981	1124.24
663.392	1107.22
663.803	1104.87
664.213	1094.6
664.624	1081.59
665.035	1079.62
665.445	1056.11
665.855	1039.05
666.266	1021.19
666.676	1011.56
667.086	993.15
667.497	985.78
667.907	971.22
668.317	952.4
668.727	941.38
669.137	937
669.547	927.4
669.956	923.61
670.366	920.71
670.776	918.43
671.186	918.28
671.595	918.51
672.005	917.82
672.414	912.62
672.824	908.18
673.233	909.46
673.642	908.16
674.052	908.26
674.461	909.21
674.87	911.4
675.279	905.36
675.688	906.42
676.097	906.41
676.506	902.57
676.915	919.41
677.323	922.21
677.732	921.39
678.141	921.72
678.549	911.07
678.958	911.92
679.366	914.74
679.775	925.11
680.183	943.31
680.592	957.05
681	970.08
681.408	970.71
681.816	991.25
682.224	1013.15
682.632	1038.06
683.04	1089.74
683.448	1135.21
683.856	1191.44
684.264	1255.2
684.671	1316.86
685.079	1389.69
685.487	1472.19
685.894	1579.41
686.302	1671
686.709	1751.95
687.116	1844.6
687.524	1922.27
687.931	1992.07
688.338	2050.85
688.745	2100.37
689.152	2152.23
689.559	2219.81
689.966	2283.05
690.373	2311.38
690.78	2367.02
691.187	2450.31
691.593	2508.12
692	2554.8
692.407	2630.55
692.813	2722
693.22	2789.95
693.626	2860.86
694.032	2908.27
694.439	2991.73
694.845	3050.17
695.251	3128.81
695.657	3195.32
