Data from N_3_DEC_NC_4N_Splice17_13-06-51-602.txt Node
Date: Sat Mar 14 13:06:51 EDT 2020
User: sa697716
Spectrometer: FLMS03696
Trigger mode: 0
Integration Time (sec): 3.180400E-1
Scans to average: 20
Electric dark correction enabled: true
Nonlinearity correction enabled: true
Boxcar width: 5
XAxis mode: Wavelengths
Number of Pixels in Spectrum: 2048
>>>>>Begin Spectral Data<<<<<
187.83	-339975.5
188.298	2533.68
188.766	1323.56
189.233	1212.09
189.701	1700
190.169	2252.45
190.636	804.44
191.104	601.54
191.571	67.1
192.039	-65.75
192.506	-20.78
192.974	509.83
193.441	-734.16
193.908	-118.08
194.375	-40.24
194.842	33.66
195.31	37.12
195.777	141.19
196.244	335.89
196.711	384.12
197.177	491.38
197.644	708.1
198.111	1213.43
198.578	1663.67
199.045	1311.45
199.511	2166.19
199.978	2469.62
200.445	2127.49
200.911	2315.98
201.378	2583.68
201.844	2336.14
202.31	3954.09
202.777	4051.36
203.243	2230.65
203.709	2127.3
204.176	2532.4
204.642	2055.56
205.108	1966.69
205.574	1602.37
206.04	1470.53
206.506	1365.15
206.972	1280.1
207.438	1247.66
207.903	1420.66
208.369	1256.57
208.835	1262.03
209.301	1322.67
209.766	1360.63
210.232	1327.55
210.697	1613.59
211.163	1971.23
211.628	2971.43
212.094	2539.7
212.559	3104.44
213.024	1932.77
213.49	2325.45
213.955	2257.8
214.42	2189.24
214.885	2039.39
215.35	1956.22
215.815	1925.38
216.28	2038.97
216.745	1658.24
217.21	1772.84
217.675	1612.51
218.14	1812.53
218.604	2017.91
219.069	2298.18
219.534	2405.79
219.998	2777.92
220.463	3341.7
220.927	4040.32
221.392	3780.55
221.856	3813.79
222.32	4776.49
222.785	5885.08
223.249	7357.31
223.713	8189.01
224.177	8175.27
224.642	10430.84
225.106	12764.28
225.57	13927.48
226.034	10367.16
226.497	15796.94
226.961	14265.34
227.425	16592.95
227.889	18404.03
228.353	18382.38
228.816	37867.99
229.28	36192.74
229.744	30474.75
230.207	18554.21
230.671	18198.37
231.134	29974.32
231.597	34459.2
232.061	34351.94
232.524	33428.32
232.987	22985.02
233.45	20652.5
233.914	18503.94
234.377	18895.21
234.84	17273.34
235.303	20308.39
235.766	22647.28
236.229	23375.59
236.691	14709.8
237.154	16519.35
237.617	12431.27
238.08	12718.05
238.542	14871.61
239.005	10647.28
239.468	10581.03
239.93	9987.81
240.393	9095.17
240.855	7993.71
241.317	8187.79
241.78	9956.6
242.242	10286.27
242.704	11128.39
243.166	9692.87
243.629	8831.71
244.091	10169.25
244.553	11112.51
245.015	11951.82
245.477	15414.78
245.939	22590.86
246.4	23966.21
246.862	23316.57
247.324	22024.7
247.786	24644.6
248.247	32241.65
248.709	33194.94
249.17	24824.85
249.632	23503.25
250.093	27244.15
250.555	23581
251.016	14407.62
251.477	13687.35
251.939	14776.4
252.4	15487.25
252.861	18369.18
253.322	17124.4
253.783	20395.77
254.244	26456.1
254.705	20814.64
255.166	18497.7
255.627	18203.46
256.088	25678.75
256.549	27288.99
257.009	23511.38
257.47	28528.9
257.931	23289.27
258.391	17490.83
258.852	18060.41
259.312	18957.01
259.773	23452.58
260.233	19879.56
260.694	16798.46
261.154	19021.72
261.614	15311.76
262.074	13689.16
262.534	14243.15
262.994	13426.98
263.455	17862.25
263.915	15061.57
264.374	14174.99
264.834	15478.15
265.294	17123.72
265.754	17737.38
266.214	16811.6
266.673	15706.48
267.133	19821.36
267.593	19659.95
268.052	24080.52
268.512	20943.06
268.971	25273.57
269.431	27736.7
269.89	24832.49
270.349	37264.26
270.809	41569.88
271.268	37371.28
271.727	83947.23
272.186	54416.79
272.645	40831.08
273.104	29387.04
273.563	42569.57
274.022	33399.99
274.481	28447.38
274.94	21916.19
275.399	16280.34
275.857	18943.39
276.316	25611.99
276.775	22788.29
277.233	22454.47
277.692	21044.31
278.15	23860.58
278.609	24557.54
279.067	22755.23
279.525	21164.32
279.984	27315.3
280.442	32867.44
280.9	32478.68
281.358	21401.62
281.816	19971.03
282.274	19548.67
282.732	20167.3
283.19	20277.57
283.648	17522.43
284.106	18659.87
284.564	18944.49
285.021	17624.88
285.479	13121.37
285.937	11909.08
286.394	10452.04
286.852	10758.54
287.309	11323.25
287.767	10973.54
288.224	10437.81
288.682	11438.92
289.139	12579.53
289.596	11540.62
290.053	11978.74
290.511	15139.56
290.968	18386.84
291.425	25001.77
291.882	20823.86
292.339	18126.34
292.796	17969.74
293.252	16943.06
293.709	13495.39
294.166	12105.67
294.623	13376.48
295.079	12823.14
295.536	12893.83
295.992	11703.88
296.449	11556.25
296.905	12032.86
297.362	11545.04
297.818	12141.58
298.274	12620.67
298.731	12849.07
299.187	12693.08
299.643	13607.93
300.099	16466.89
300.555	18043.17
301.011	15086.09
301.467	14567.91
301.923	16990.15
302.379	16602.32
302.835	16336.75
303.291	16329.35
303.746	18592.79
304.202	23508.27
304.658	23578.75
305.113	15870.45
305.569	15559.31
306.024	16591.68
306.479	15784.52
306.935	13326.98
307.39	14545.48
307.845	13429.83
308.301	13543.69
308.756	13171.77
309.211	12717.28
309.666	13053.96
310.121	16219.39
310.576	16441.55
311.031	16329.52
311.486	18698.94
311.94	18729.99
312.395	25044.41
312.85	47030.76
313.305	230346.76
313.759	1195909.42
314.214	86666.56
314.668	68779.83
315.123	57924.63
315.577	20846.59
316.032	18564.77
316.486	23259.74
316.94	18357.57
317.394	12802.43
317.849	9948.37
318.303	9430.09
318.757	8925.78
319.211	9872.61
319.665	8645.18
320.119	8748.6
320.572	12518.95
321.026	11687.5
321.48	9738.48
321.934	10581.41
322.387	10603.95
322.841	11476.21
323.295	10341.35
323.748	11863.15
324.202	12018.51
324.655	14456.04
325.108	20265.11
325.562	14337.51
326.015	17038.68
326.468	12872.1
326.921	14435.34
327.374	13458.68
327.827	14003.44
328.28	15842.97
328.733	10619.9
329.186	9356.49
329.639	8918.73
330.092	7508.77
330.545	7168.66
330.997	7227.89
331.45	7921.61
331.903	9304.63
332.355	15994.16
332.808	15558.53
333.26	12844.07
333.713	13970.86
334.165	14058.25
334.617	18710.64
335.069	15078.87
335.522	27157.55
335.974	30158.33
336.426	27521.24
336.878	18997.08
337.33	9673.95
337.782	9430.68
338.234	11820.9
338.686	14141.72
339.137	16771.83
339.589	15827.62
340.041	12448.68
340.493	10729.11
340.944	10979.44
341.396	11858.23
341.847	9981.65
342.299	11791.39
342.75	14471.23
343.201	12670.37
343.653	14593.84
344.104	17910.93
344.555	14110.13
345.006	21923.92
345.457	16858.07
345.908	13397.24
346.359	12602.82
346.81	10283.79
347.261	10814.31
347.712	10607.06
348.163	11329.08
348.613	11504.44
349.064	10761.12
349.515	9429.07
349.965	9664.84
350.416	11589.2
350.866	12698.49
351.317	14331.16
351.767	23752.05
352.217	30103.42
352.668	25023.45
353.118	22978.3
353.568	22085.02
354.018	17514.44
354.468	18469.39
354.918	13300.95
355.368	11657.53
355.818	16476.15
356.268	47357.83
356.718	198907.51
357.168	49360.63
357.617	24805.43
358.067	27585.63
358.517	25923.94
358.966	30342.67
359.416	34144.21
359.865	36828.64
360.315	43812.18
360.764	20501.3
361.213	11508.41
361.663	10850.1
362.112	13394.38
362.561	21592.56
363.01	16310.06
363.459	13722.56
363.908	14817.36
364.357	12585.6
364.806	21230.93
365.255	14597.41
365.703	13429.89
366.152	13480.43
366.601	10942.21
367.05	8914.38
367.498	8121.81
367.947	8486.44
368.395	8784.73
368.844	7813.95
369.292	9388.45
369.74	6496.82
370.189	9952.28
370.637	11641.91
371.085	10025.98
371.533	12217.95
371.981	11757
372.429	11215.18
372.877	11664.69
373.325	9794.31
373.773	9968.24
374.221	8895.11
374.669	11046.62
375.116	9568.04
375.564	9643.68
376.012	10791.32
376.459	8915.53
376.907	10647.53
377.354	12872.33
377.801	12088.52
378.249	13925.06
378.696	17814.88
379.143	21588.25
379.591	23037.32
380.038	38955.62
380.485	28233.68
380.932	30590.2
381.379	28045.38
381.826	20740.52
382.273	14755.55
382.72	12849.38
383.166	12539.51
383.613	8163.24
384.06	7368.85
384.506	8537.39
384.953	6290.41
385.4	6325.38
385.846	5530.91
386.292	5385.74
386.739	5270.88
387.185	5221.44
387.631	5242.67
388.078	5101.53
388.524	5451.42
388.97	5048.83
389.416	4216.68
389.862	4486.55
390.308	4254.92
390.754	4336.69
391.2	4718.57
391.645	4831.12
392.091	4654.94
392.537	4509.78
392.983	4518.87
393.428	4479.85
393.874	4807.58
394.319	4844.26
394.765	4621.82
395.21	4768.14
395.655	4482.93
396.101	4200.94
396.546	3807.16
396.991	3834.59
397.436	3565.86
397.881	3455.36
398.326	3268.29
398.771	3095.6
399.216	2711.07
399.661	2437.79
400.106	2437.83
400.551	2503.45
400.995	2249.25
401.44	2225.6
401.885	2097.12
402.329	2121.68
402.774	2036.23
403.218	1976.76
403.663	1903.74
404.107	1959.31
404.551	1972.26
404.995	1805.43
405.44	1734.2
405.884	1757.74
406.328	1695.33
406.772	1683.07
407.216	1533.91
407.66	1480.75
408.104	1402.27
408.547	1313.49
408.991	1268.64
409.435	1221.88
409.879	1203.69
410.322	1188.31
410.766	1152.32
411.209	1098.07
411.653	1054.49
412.096	1033.05
412.54	1031.2
412.983	1022.64
413.426	1025.55
413.869	1023.11
414.312	1006.03
414.756	970.98
415.199	926.38
415.642	898.22
416.085	900.07
416.527	893
416.97	903.78
417.413	860.59
417.856	850.76
418.298	842.2
418.741	835.67
419.184	831.52
419.626	861.28
420.069	861.55
420.511	866.25
420.953	850.21
421.396	842.9
421.838	822.91
422.28	841.71
422.722	846.32
423.164	855.08
423.606	840.08
424.048	835.15
424.49	796.41
424.932	791.61
425.374	780.22
425.816	790.53
426.258	804.54
426.699	810.97
427.141	797.35
427.582	810.12
428.024	806.37
428.465	801.9
428.907	783.2
429.348	772.33
429.789	770.58
430.231	753.93
430.672	761.88
431.113	742.27
431.554	728.97
431.995	709.66
432.436	684.23
432.877	668.12
433.318	656.81
433.759	652.51
434.2	652.36
434.64	646.47
435.081	646.29
435.522	611.95
435.962	590.55
436.403	580.44
436.843	586.54
437.284	570.41
437.724	553.78
438.164	553.24
438.604	540.7
439.045	518.94
439.485	498.81
439.925	489.52
440.365	477.19
440.805	469.52
441.245	462.74
441.685	444.69
442.125	441.59
442.564	444.97
443.004	435.11
443.444	434.85
443.883	436.4
444.323	429.3
444.762	425.88
445.202	429.98
445.641	439.12
446.081	434.11
446.52	438.7
446.959	435.6
447.398	424.36
447.837	417.13
448.276	407.16
448.716	409.35
449.154	413.7
449.593	407.24
450.032	406.31
450.471	396.53
450.91	395.09
451.349	393.59
451.787	389.96
452.226	396.8
452.664	396.27
453.103	398.14
453.541	395.46
453.98	395.47
454.418	396.47
454.856	391.18
455.295	389.84
455.733	394.19
456.171	395.04
456.609	395.71
457.047	393.96
457.485	401.76
457.923	402.98
458.361	398.39
458.798	398.44
459.236	397.93
459.674	398.38
460.111	401.07
460.549	396.95
460.987	396.01
461.424	393.76
461.862	392.41
462.299	385.65
462.736	383.49
463.173	384.2
463.611	381.18
464.048	379.43
464.485	383.36
464.922	379.38
465.359	375.75
465.796	376.04
466.233	373.68
466.67	370.35
467.106	369.15
467.543	366.05
467.98	361.66
468.416	350.82
468.853	347.45
469.29	335.65
469.726	331.54
470.162	324.47
470.599	315.02
471.035	312.19
471.471	304.25
471.907	301.94
472.344	299.67
472.78	300.5
473.216	304.19
473.652	301.13
474.088	301.4
474.523	301.38
474.959	303.01
475.395	300.77
475.831	299.45
476.266	301.6
476.702	300.54
477.138	297.87
477.573	296.41
478.008	295.95
478.444	296.7
478.879	299.77
479.314	301.17
479.75	301.28
480.185	301.8
480.62	303.27
481.055	304.08
481.49	306.26
481.925	309.94
482.36	317.43
482.795	324.93
483.229	334.1
483.664	341.18
484.099	341.6
484.534	347.1
484.968	351.87
485.403	352.73
485.837	351.32
486.271	350.63
486.706	351.5
487.14	346.29
487.574	341
488.009	337.39
488.443	333.65
488.877	336.96
489.311	337.13
489.745	340.59
490.179	344.2
490.613	352.93
491.046	357.11
491.48	359.62
491.914	360.34
492.348	363.08
492.781	365.9
493.215	367.03
493.648	367.95
494.082	372.25
494.515	372.87
494.948	378.9
495.382	380.84
495.815	383.97
496.248	388.23
496.681	396.03
497.114	403.48
497.547	410.93
497.98	420.53
498.413	426.2
498.846	433.16
499.279	440.4
499.711	444.26
500.144	447.61
500.577	456.12
501.009	464.46
501.442	473.22
501.874	477.17
502.306	480.37
502.739	489.34
503.171	500.56
503.603	505.56
504.036	513.95
504.468	520.47
504.9	530.53
505.332	536.55
505.764	542.87
506.196	549.49
506.627	561.46
507.059	573.05
507.491	579.45
507.923	581.42
508.354	594.29
508.786	604.08
509.217	618.33
509.649	631.06
510.08	646.26
510.512	660.7
510.943	674.32
511.374	685.41
511.805	700.95
512.237	717.22
512.668	742.58
513.099	764.09
513.53	786.11
513.961	803.26
514.391	828.5
514.822	855.98
515.253	883.92
515.684	904.09
516.114	928.12
516.545	947.7
516.975	969.05
517.406	984.4
517.836	990.08
518.267	999.12
518.697	1016.21
519.127	1023.05
519.558	1031.5
519.988	1037.4
520.418	1048.51
520.848	1063.2
521.278	1073.13
521.708	1106.9
522.138	1120.97
522.567	1146.82
522.997	1168.48
523.427	1183.59
523.857	1199.69
524.286	1209.93
524.716	1223.58
525.145	1241.21
525.575	1253.53
526.004	1266.44
526.433	1249.04
526.863	1251.33
527.292	1246.62
527.721	1253.42
528.15	1259.3
528.579	1261.39
529.008	1272.18
529.437	1291.67
529.866	1303.54
530.295	1317.67
530.724	1329.63
531.152	1351.32
531.581	1363.29
532.01	1378.08
532.438	1384.44
532.867	1396.31
533.295	1411.42
533.723	1416.56
534.152	1415.25
534.58	1416.44
535.008	1405.32
535.436	1406.45
535.865	1412.37
536.293	1423.38
536.721	1435.04
537.149	1455.08
537.576	1457.91
538.004	1468.22
538.432	1474.53
538.86	1473.45
539.287	1478.16
539.715	1489.29
540.143	1492.02
540.57	1489.01
540.998	1486
541.425	1469.4
541.852	1453.19
542.28	1450.89
542.707	1438.13
543.134	1427.84
543.561	1425.44
543.988	1419.29
544.415	1418.49
544.842	1414.71
545.269	1408.66
545.696	1411.14
546.123	1421.07
546.549	1413.22
546.976	1403.06
547.403	1402.76
547.829	1403.49
548.256	1404.58
548.682	1402.71
549.108	1397.4
549.535	1397.13
549.961	1400.84
550.387	1390.6
550.813	1386.61
551.24	1392.46
551.666	1394.52
552.092	1387.54
552.518	1383.41
552.943	1379.24
553.369	1385.92
553.795	1390.35
554.221	1390.76
554.646	1388.19
555.072	1396.7
555.498	1400.3
555.923	1407.11
556.349	1419.4
556.774	1425.39
557.199	1425.51
557.625	1430.06
558.05	1424.39
558.475	1431.18
558.9	1430.05
559.325	1422.42
559.75	1415.86
560.175	1409.18
560.6	1402.93
561.025	1399.18
561.449	1399.67
561.874	1402.78
562.299	1405.14
562.723	1409.28
563.148	1400.53
563.572	1403.03
563.997	1408.38
564.421	1410.82
564.846	1409.94
565.27	1410.94
565.694	1407.65
566.118	1414.05
566.542	1418.48
566.966	1410.34
567.39	1404.47
567.814	1394.29
568.238	1391.66
568.662	1393.53
569.086	1393.29
569.509	1396.14
569.933	1382.56
570.357	1374.11
570.78	1355.22
571.204	1343.76
571.627	1335.12
572.05	1331.88
572.474	1329.71
572.897	1316.75
573.32	1309.91
573.743	1300.46
574.166	1285.71
574.589	1283.21
575.012	1276.52
575.435	1274.26
575.858	1265.63
576.281	1254.28
576.704	1240.57
577.126	1230.05
577.549	1220.42
577.972	1210.66
578.394	1201.7
578.817	1196.37
579.239	1182.08
579.661	1170.63
580.084	1158.7
580.506	1146.56
580.928	1142.24
581.35	1133.59
581.772	1128.65
582.194	1119.39
582.616	1109.9
583.038	1098.8
583.46	1087.9
583.882	1084.04
584.303	1086.23
584.725	1081.5
585.147	1084.02
585.568	1091.15
585.99	1098.9
586.411	1102.85
586.833	1110.47
587.254	1109.57
587.675	1118.39
588.096	1126.29
588.518	1122.31
588.939	1110.19
589.36	1108.45
589.781	1098.12
590.202	1078.53
590.623	1071.44
591.043	1068.56
591.464	1060.68
591.885	1057.24
592.305	1052.11
592.726	1042.49
593.147	1042.37
593.567	1037.21
593.987	1030.48
594.408	1025.12
594.828	1022.43
595.248	1018.42
595.669	1006.01
596.089	999.34
596.509	994.41
596.929	984.55
597.349	984.57
597.769	976.38
598.189	970.82
598.608	971.64
599.028	974.15
599.448	972.53
599.867	962.1
600.287	957.33
600.706	954.53
601.126	947.56
601.545	946.39
601.965	944.6
602.384	940.51
602.803	942.14
603.222	938.59
603.641	932.76
604.061	930.4
604.48	926.88
604.898	932.78
605.317	935.15
605.736	935.26
606.155	933.42
606.574	926.34
606.992	928.47
607.411	924.2
607.829	916.37
608.248	912.58
608.666	909.1
609.085	908.73
609.503	900.59
609.921	895.84
610.339	895.68
610.758	892.53
611.176	888.05
611.594	882.6
612.012	879.48
612.43	881.17
612.847	883.87
613.265	884.64
613.683	885.19
614.101	885.64
614.518	881.34
614.936	874.29
615.353	864.32
615.771	861.91
616.188	860.05
616.606	856.68
617.023	852.02
617.44	843.09
617.857	835.83
618.274	829.56
618.691	824.44
619.108	817.5
619.525	812.88
619.942	815.97
620.359	816.49
620.776	812.05
621.192	808.89
621.609	806.98
622.026	810.26
622.442	814.15
622.859	815.33
623.275	809.46
623.691	812.23
624.108	818.74
624.524	826.82
624.94	826.43
625.356	832.28
625.772	840.23
626.188	845.74
626.604	846.96
627.02	844.25
627.436	843.16
627.852	849.17
628.268	856.38
628.683	850.46
629.099	845.27
629.514	841.39
629.93	843.42
630.345	844.96
630.761	841.58
631.176	841.67
631.591	838.55
632.007	834.14
632.422	830.05
632.837	822.3
633.252	819.42
633.667	811.67
634.082	804.21
634.497	795.85
634.911	783.18
635.326	780.16
635.741	768.17
636.155	758.52
636.57	757.78
636.984	755.84
637.399	754.98
637.813	752.13
638.228	749.62
638.642	749.31
639.056	739.48
639.47	736.34
639.884	727.72
640.298	721.15
640.712	718.53
641.126	706.75
641.54	698.82
641.954	691.41
642.368	682.52
642.781	676.3
643.195	664.16
643.609	662.35
644.022	656.87
644.436	651.55
644.849	641.95
645.262	631.56
645.676	630.24
646.089	625.96
646.502	617.01
646.915	612.02
647.328	599.4
647.741	595.97
648.154	586.54
648.567	584.79
648.98	577.4
649.393	576.71
649.805	575.56
650.218	570.94
650.631	561.87
651.043	557.47
651.456	553.64
651.868	553.32
652.28	563.28
652.693	570.25
653.105	571.37
653.517	575.99
653.929	575.75
654.341	577.74
654.753	570.04
655.165	571.76
655.577	568.03
655.989	563.06
656.401	557.03
656.813	537.62
657.224	525.07
657.636	508.6
658.047	498.98
658.459	487.33
658.87	480.42
659.282	473.41
659.693	461.88
660.104	453.88
660.515	446.25
660.926	443.45
661.338	439.88
661.749	434.9
662.159	429.68
662.57	425.12
662.981	421.35
663.392	415.69
663.803	416.51
664.213	413.03
664.624	409.96
665.035	409.28
665.445	401.98
665.855	397.82
666.266	394.71
666.676	392.94
667.086	387.84
667.497	387.5
667.907	385.32
668.317	380.2
668.727	381.94
669.137	381.7
669.547	382.23
669.956	384.63
670.366	385.86
670.776	387.25
671.186	389.47
671.595	391.48
672.005	393.81
672.414	393.65
672.824	395.03
673.233	394.91
673.642	397.39
674.052	399.52
674.461	401.96
674.87	404.83
675.279	404.66
675.688	405.13
676.097	407.82
676.506	406.56
676.915	414.86
677.323	416.29
677.732	416.58
678.141	418.12
678.549	414.06
678.958	414.39
679.366	414.93
679.775	417.86
680.183	426.76
680.592	430.97
681	435.57
681.408	434.1
681.816	439.66
682.224	445.98
682.632	452.49
683.04	470.01
683.448	485.3
683.856	505.01
684.264	527.17
684.671	545.41
685.079	568.59
685.487	596.34
685.894	633.08
686.302	665.52
686.709	692.86
687.116	724.78
687.524	752.09
687.931	777.18
688.338	799.3
688.745	818.2
689.152	841.91
689.559	873.75
689.966	904.46
690.373	923.42
690.78	954.12
691.187	998.99
691.593	1036.3
692	1069.72
692.407	1115.28
692.813	1172.27
693.22	1220.65
693.626	1268.99
694.032	1310.94
694.439	1371.01
694.845	1418.53
695.251	1477.33
695.657	1531.11
696.063	1606.48
696.469	1666.79
696.875	1724.92
697.281	1760.3
697.687	1803.19
698.093	1840.53
698.498	1904.39
698.904	1954.32
699.31	2029.2
699.715	2086.79
700.12	2165.15
700.526	2190.44
700.931	2252.74
701.337	2301.75
701.742	2338.01
702.147	2409.93
702.552	2443.26
702.957	2496.21
