Data from N_3_DEC_NC_4N_Splice17_13-06-45-666.txt Node
Date: Sat Mar 14 13:06:45 EDT 2020
User: sa697716
Spectrometer: FLMS03696
Trigger mode: 0
Integration Time (sec): 3.180400E-1
Scans to average: 20
Electric dark correction enabled: true
Nonlinearity correction enabled: true
Boxcar width: 5
XAxis mode: Wavelengths
Number of Pixels in Spectrum: 2048
>>>>>Begin Spectral Data<<<<<
187.83	-251838.12
188.298	1664.25
188.766	958.12
189.233	840.86
189.701	1180.9
190.169	1661.24
190.636	672.01
191.104	615.71
191.571	104.39
192.039	-86.2
192.506	-106.66
192.974	467.24
193.441	-1142.75
193.908	-472.07
194.375	-133.96
194.842	-78.9
195.31	-8.53
195.777	163.62
196.244	414.95
196.711	440.03
197.177	530.68
197.644	709.06
198.111	1220.86
198.578	1726.1
199.045	1381.06
199.511	2230.12
199.978	2592.92
200.445	2183.07
200.911	2396
201.378	2652.96
201.844	2405.4
202.31	4125.5
202.777	4312.4
203.243	2397.72
203.709	2281.66
204.176	2719.69
204.642	2260.14
205.108	2110.86
205.574	1725.91
206.04	1570.75
206.506	1463.96
206.972	1378.3
207.438	1327.35
207.903	1518.08
208.369	1328.68
208.835	1318.25
209.301	1377.58
209.766	1385.9
210.232	1373.45
210.697	1695.7
211.163	2062.94
211.628	3078.51
212.094	2606.02
212.559	3250.6
213.024	2015.54
213.49	2460.64
213.955	2397.44
214.42	2327.54
214.885	2187.27
215.35	2088.61
215.815	2036.3
216.28	2172.07
216.745	1774.12
217.21	1908.32
217.675	1717.35
218.14	1918.12
218.604	2133.57
219.069	2409.04
219.534	2522.04
219.998	2876.12
220.463	3427.1
220.927	4130.58
221.392	3854.63
221.856	3887.85
222.32	4844.78
222.785	5947.7
223.249	7429.56
223.713	8213.58
224.177	8215.25
224.642	10450.03
225.106	12854.58
225.57	14037.92
226.034	10455.67
226.497	15876.14
226.961	14330.16
227.425	16672.24
227.889	18419.14
228.353	18399.51
228.816	37965.12
229.28	36184.53
229.744	30448.47
230.207	18512.81
230.671	18203.12
231.134	30009
231.597	34580.16
232.061	34445.34
232.524	33564.64
232.987	23116.9
233.45	20836.4
233.914	18684.91
234.377	19113.9
234.84	17527.13
235.303	20635.8
235.766	22995.62
236.229	23717.77
236.691	14927.54
237.154	16751.93
237.617	12592.72
238.08	12885.09
238.542	15030.54
239.005	10760.45
239.468	10666.5
239.93	10041.34
240.393	9111.83
240.855	8012.55
241.317	8218.86
241.78	9989.02
242.242	10338.36
242.704	11202.4
243.166	9759.97
243.629	8883.13
244.091	10235.71
244.553	11245.5
245.015	12089.63
245.477	15646.84
245.939	22875.59
246.4	24257.54
246.862	23577.22
247.324	22260.7
247.786	24825.13
248.247	32573.16
248.709	33613.7
249.17	25072.36
249.632	23669.96
250.093	27508.35
250.555	23761.5
251.016	14531.3
251.477	13800.66
251.939	14928.04
252.4	15614.79
252.861	18560.43
253.322	17261.39
253.783	20510.68
254.244	26597.44
254.705	20954.32
255.166	18598.32
255.627	18320.44
256.088	25893.02
256.549	27535.37
257.009	23710.27
257.47	28836.38
257.931	23534.7
258.391	17637.47
258.852	18195.8
259.312	19126.73
259.773	23644.77
260.233	20054.55
260.694	16948.33
261.154	19214.4
261.614	15426.76
262.074	13814.97
262.534	14375.27
262.994	13548.89
263.455	18050.47
263.915	15235.62
264.374	14351.53
264.834	15660.3
265.294	17335.53
265.754	17945.32
266.214	16997.5
266.673	15932.5
267.133	20059.21
267.593	19902.73
268.052	24364.92
268.512	21221.87
268.971	25644.28
269.431	28158.16
269.89	25203.85
270.349	37826.59
270.809	42242.31
271.268	37962.36
271.727	85037.72
272.186	55182.45
272.645	41344.55
273.104	29834.68
273.563	43178.39
274.022	33917.49
274.481	28867.57
274.94	22287.12
275.399	16553.63
275.857	19259.06
276.316	26041.84
276.775	23207.41
277.233	22862.31
277.692	21412.57
278.15	24205.73
278.609	24939.78
279.067	23077.77
279.525	21448.74
279.984	27699.89
280.442	33258.13
280.9	32884.56
281.358	21653.83
281.816	20200.69
282.274	19776.59
282.732	20429.69
283.19	20566.9
283.648	17729.19
284.106	18890.69
284.564	19203.74
285.021	17803.05
285.479	13286.04
285.937	12049.33
286.394	10595.03
286.852	10901.92
287.309	11470.13
287.767	11109.96
288.224	10598.54
288.682	11642.04
289.139	12807.98
289.596	11731.86
290.053	12194.02
290.511	15398.89
290.968	18713.13
291.425	25379.28
291.882	21165.55
292.339	18438.1
292.796	18314.05
293.252	17234.93
293.709	13729.92
294.166	12291.84
294.623	13589.83
295.079	13035.08
295.536	13106.09
295.992	11897.11
296.449	11761.73
296.905	12228.48
297.362	11735.41
297.818	12354.13
298.274	12812.31
298.731	13047.17
299.187	12907.55
299.643	13852.01
300.099	16767.91
300.555	18360.26
301.011	15356.81
301.467	14834.71
301.923	17319.62
302.379	16921.95
302.835	16604.33
303.291	16622.57
303.746	18908.32
304.202	23940.78
304.658	24049.9
305.113	16195.7
305.569	15883.43
306.024	16897.83
306.479	16054.99
306.935	13581.88
307.39	14806.05
307.845	13680.34
308.301	13802.56
308.756	13437.66
309.211	12925.93
309.666	13230.66
310.121	16452.19
310.576	16693.71
311.031	16562.48
311.486	18918.37
311.94	18877
312.395	25261.99
312.85	47393.34
313.305	232035.59
313.759	1203722.47
314.214	87348.29
314.668	69296.92
315.123	58229.2
315.577	20941.11
316.032	18700.5
316.486	23531.69
316.94	18583.47
317.394	12957.91
317.849	10101.54
318.303	9580.7
318.757	9049.29
319.211	10003.8
319.665	8772.04
320.119	8873.13
320.572	12709.8
321.026	11879.28
321.48	9890.58
321.934	10775.92
322.387	10777.06
322.841	11633.24
323.295	10472.11
323.748	12045.68
324.202	12249.93
324.655	14725.91
325.108	20628.03
325.562	14598.63
326.015	17306.89
326.468	13100.6
326.921	14662.48
327.374	13721.46
327.827	14304.73
328.28	16195.27
328.733	10851.17
329.186	9529.91
329.639	9074.54
330.092	7640.84
330.545	7270.32
330.997	7369.55
331.45	8054.45
331.903	9460.56
332.355	16234.02
332.808	15788.79
333.26	13034.73
333.713	14163.38
334.165	14273.45
334.617	19046.21
335.069	15356.93
335.522	27717.17
335.974	30602.96
336.426	27934.66
336.878	19271.61
337.33	9795.14
337.782	9540.43
338.234	11966.34
338.686	14322.68
339.137	16931.12
339.589	15969.13
340.041	12583.73
340.493	10851.38
340.944	11115.38
341.396	11978.5
341.847	10123.13
342.299	11975.14
342.75	14695.41
343.201	12819.18
343.653	14777.19
344.104	18203.42
344.555	14312.95
345.006	22165.21
345.457	17029.56
345.908	13526.53
346.359	12755.22
346.81	10385.01
347.261	10933.48
347.712	10730.93
348.163	11505.46
348.613	11653.74
349.064	10905.04
349.515	9557.42
349.965	9833.67
350.416	11798.99
350.866	12966.9
351.317	14637.95
351.767	24233.43
352.217	30637.96
352.668	25458.69
353.118	23368.1
353.568	22516.19
354.018	17750
354.468	18726.55
354.918	13448.43
355.368	11767.1
355.818	16616.11
356.268	47742.51
356.718	200100.34
357.168	49881.54
357.617	25013.93
358.067	27838.29
358.517	26084.36
358.966	30681.04
359.416	34506.84
359.865	37311.2
360.315	44592.48
360.764	20874.01
361.213	11728.85
361.663	11114.51
362.112	13685.22
362.561	22123.91
363.01	16686.87
363.459	14074.19
363.908	15226.45
364.357	12921.68
364.806	21815.35
365.255	14988.33
365.703	13753.35
366.152	13753.76
366.601	11155.07
367.05	9085.99
367.498	8288.16
367.947	8655.07
368.395	8975.26
368.844	7963.28
369.292	9582.89
369.74	6633.82
370.189	10160.37
370.637	11895.03
371.085	10279.66
371.533	12508.98
371.981	12043.19
372.429	11455.04
372.877	11943.21
373.325	10050.97
373.773	10230.44
374.221	9130.41
374.669	11322.93
375.116	9777.2
375.564	9848.68
376.012	11023.41
376.459	9134.05
376.907	10926.39
377.354	13251.16
377.801	12397.64
378.249	14236.68
378.696	18245.87
379.143	22097.83
379.591	23578.7
380.038	40032.05
380.485	29063.41
380.932	31432.17
381.379	28791.96
381.826	21220.46
382.273	15046.98
382.72	13125.96
383.166	12813.85
383.613	8290.22
384.06	7487.82
384.506	8671.88
384.953	6378.45
385.4	6412.26
385.846	5628.79
386.292	5472.41
386.739	5365.45
387.185	5332.59
387.631	5355.67
388.078	5216.11
388.524	5607.95
388.97	5198.76
389.416	4356.86
389.862	4649.06
390.308	4418.61
390.754	4501.72
391.2	4907.22
391.645	5031.75
392.091	4819.85
392.537	4671.61
392.983	4683.78
393.428	4634.57
393.874	4958.65
394.319	4984.54
394.765	4733.65
395.21	4876.68
395.655	4581.85
396.101	4292.57
396.546	3886.51
396.991	3933.2
397.436	3664.51
397.881	3547.12
398.326	3351.69
398.771	3193.94
399.216	2797.98
399.661	2526.52
400.106	2524.21
400.551	2586.96
400.995	2326.6
401.44	2305.92
401.885	2167.68
402.329	2185.85
402.774	2097.9
403.218	2036.15
403.663	1959.35
404.107	2016.32
404.551	2033.15
404.995	1862.68
405.44	1794.27
405.884	1820.67
406.328	1758.23
406.772	1752.33
407.216	1597.5
407.66	1541.45
408.104	1459.31
408.547	1365.11
408.991	1319.05
409.435	1262.28
409.879	1247.25
410.322	1232.35
410.766	1188.48
411.209	1132.16
411.653	1088.04
412.096	1065.88
412.54	1065.99
412.983	1059.53
413.426	1062.42
413.869	1060.83
414.312	1047.43
414.756	1009
415.199	961.77
415.642	935.58
416.085	936.07
416.527	927.86
416.97	942.75
417.413	897.07
417.856	888.86
418.298	880.07
418.741	872.48
419.184	867.58
419.626	899.92
420.069	899.83
420.511	905.19
420.953	884.59
421.396	877.58
421.838	854.26
422.28	872.21
422.722	876.18
423.164	888.29
423.606	873.7
424.048	870.36
424.49	828.05
424.932	822.7
425.374	810.72
425.816	825.74
426.258	839.84
426.699	848.03
427.141	835.3
427.582	845.56
428.024	838.39
428.465	830.88
428.907	811.4
429.348	800.57
429.789	799.35
430.231	781.71
430.672	790.8
431.113	770.75
431.554	759.39
431.995	736.64
432.436	711.81
432.877	694.97
433.318	686.1
433.759	679.61
434.2	679.55
434.64	671.87
435.081	672.95
435.522	637.03
435.962	612.97
436.403	600.52
436.843	609.62
437.284	596.51
437.724	578.81
438.164	576.72
438.604	563.76
439.045	541.62
439.485	521.43
439.925	509.16
440.365	495.78
440.805	487.98
441.245	481.65
441.685	462.92
442.125	456.93
442.564	459.75
443.004	449.72
443.444	447.88
443.883	448.08
444.323	440.42
444.762	437.23
445.202	441.54
445.641	451.06
446.081	445.06
446.52	448.94
446.959	444.82
447.398	434.66
447.837	428.7
448.276	421.58
448.716	425.53
449.154	429.5
449.593	423.16
450.032	422.3
450.471	412.84
450.91	412.48
451.349	410.75
451.787	408.64
452.226	413.91
452.664	413.15
453.103	413.7
453.541	410.3
453.98	409.97
454.418	411.06
454.856	404.41
455.295	403.17
455.733	406.47
456.171	408.18
456.609	407.89
457.047	408.61
457.485	414.3
457.923	416.03
458.361	411.58
458.798	411.78
459.236	409.39
459.674	411.23
460.111	411.99
460.549	407.4
460.987	405.62
461.424	404.64
461.862	401.97
462.299	396.2
462.736	395.78
463.173	396.05
463.611	392.66
464.048	393.22
464.485	396.51
464.922	394.31
465.359	393.03
465.796	393.51
466.233	390.71
466.67	387.93
467.106	387.86
467.543	382.22
467.98	377.6
468.416	367.21
468.853	363.56
469.29	352.77
469.726	347.64
470.162	337.72
470.599	328.55
471.035	324.21
471.471	316.37
471.907	311.62
472.344	310.24
472.78	310.6
473.216	313.43
473.652	309.88
474.088	307.93
474.523	306.93
474.959	309.39
475.395	305.95
475.831	305.15
476.266	306.9
476.702	306.46
477.138	302.87
477.573	302.36
478.008	301.67
478.444	303.88
478.879	308.29
479.314	309.63
479.75	309.84
480.185	311.59
480.62	313.83
481.055	314.84
481.49	317.44
481.925	321.83
482.36	329.04
482.795	337.68
483.229	345.18
483.664	351.15
484.099	352.51
484.534	357.67
484.968	361.15
485.403	361.55
485.837	359.6
486.271	358.68
486.706	357.79
487.14	351.85
487.574	347.26
488.009	344.18
488.443	341.06
488.877	345.26
489.311	346.5
489.745	350.73
490.179	354.06
490.613	363.42
491.046	367.46
491.48	371.28
491.914	372.69
492.348	375.23
492.781	378.47
493.215	380.29
493.648	380.83
494.082	384.31
494.515	385.78
494.948	392.07
495.382	393.71
495.815	396.1
496.248	400.1
496.681	408.22
497.114	415.74
497.547	423.3
497.98	432.08
498.413	437.85
498.846	444.92
499.279	450.33
499.711	453.3
500.144	456.21
500.577	465.37
501.009	473.97
501.442	482.42
501.874	485.83
502.306	488.29
502.739	496.41
503.171	506.76
503.603	511.34
504.036	520.03
504.468	527.19
504.9	537.21
505.332	543.86
505.764	549.76
506.196	556.5
506.627	568.34
507.059	580.51
507.491	587.76
507.923	590.43
508.354	603.58
508.786	613.95
509.217	627.77
509.649	640.85
510.08	656.46
510.512	671.03
510.943	683.96
511.374	695.36
511.805	711.42
512.237	728.33
512.668	752.77
513.099	773.86
513.53	795.85
513.961	815
514.391	840.46
514.822	867.47
515.253	895.92
515.684	918.3
516.114	941.97
516.545	961.54
516.975	983.18
517.406	1000.95
517.836	1007.2
518.267	1015.51
518.697	1031.16
519.127	1037.14
519.558	1045.26
519.988	1051.73
520.418	1061.73
520.848	1078.34
521.278	1087.37
521.708	1119.69
522.138	1131.5
522.567	1157.26
522.997	1179.02
523.427	1193.31
523.857	1209.76
524.286	1220.79
524.716	1234.3
525.145	1251.76
525.575	1262.28
526.004	1275.89
526.433	1258.97
526.863	1261.71
527.292	1256.33
527.721	1263.17
528.15	1269.11
528.579	1271.92
529.008	1282.28
529.437	1301.26
529.866	1312.57
530.295	1327.06
530.724	1338.69
531.152	1359.99
531.581	1372.18
532.01	1387.63
532.438	1394.45
532.867	1407.67
533.295	1423.01
533.723	1428.2
534.152	1426.95
534.58	1428.46
535.008	1416.7
535.436	1418.66
535.865	1425.99
536.293	1438.14
536.721	1450.29
537.149	1470.89
537.576	1473.1
538.004	1483.31
538.432	1488.82
538.86	1488.41
539.287	1493.13
539.715	1504.63
540.143	1507.33
540.57	1503.65
540.998	1500
541.425	1482.17
541.852	1465.36
542.28	1464.52
542.707	1451.06
543.134	1441.21
543.561	1437.84
543.988	1432.17
544.415	1431.05
544.842	1425.31
545.269	1419.73
545.696	1422.19
546.123	1433.35
546.549	1425.29
546.976	1415
547.403	1415.59
547.829	1416.19
548.256	1417.81
548.682	1415.07
549.108	1410.26
549.535	1411.19
549.961	1413.52
550.387	1402.67
550.813	1398.37
551.24	1403.7
551.666	1405.01
552.092	1396.66
552.518	1392.55
552.943	1388.62
553.369	1395.53
553.795	1400.18
554.221	1400.15
554.646	1397.93
555.072	1407.16
555.498	1410.03
555.923	1416.99
556.349	1428.76
556.774	1435.94
557.199	1436.74
557.625	1441.13
558.05	1435.85
558.475	1443.08
558.9	1442.07
559.325	1434.28
559.75	1428.29
560.175	1422.41
560.6	1416.29
561.025	1413.1
561.449	1412.42
561.874	1415.1
562.299	1416.98
562.723	1420.99
563.148	1411.78
563.572	1413.84
563.997	1421.04
564.421	1422.36
564.846	1422.3
565.27	1424.3
565.694	1420.24
566.118	1427.2
566.542	1432.13
566.966	1424.91
567.39	1419.18
567.814	1408.7
568.238	1406.73
568.662	1407.62
569.086	1408.47
569.509	1411.5
569.933	1397.73
570.357	1390.14
570.78	1371.74
571.204	1359.69
571.627	1349.51
572.05	1345.33
572.474	1343.94
572.897	1331.11
573.32	1323.7
573.743	1313.15
574.166	1296.61
574.589	1294.05
575.012	1287.23
575.435	1285.37
575.858	1276.76
576.281	1266.91
576.704	1253.37
577.126	1242.79
577.549	1233.81
577.972	1224.19
578.394	1216.3
578.817	1210.51
579.239	1195.05
579.661	1184.24
580.084	1172.33
580.506	1160.93
580.928	1157.03
581.35	1148.91
581.772	1143.9
582.194	1132.68
582.616	1122.55
583.038	1110.51
583.46	1101.01
583.882	1098.49
584.303	1099.35
584.725	1094.64
585.147	1097.53
585.568	1103.57
585.99	1111.37
586.411	1115.5
586.833	1125.86
587.254	1126.24
587.675	1135.61
588.096	1144.18
588.518	1138.79
588.939	1125.77
589.36	1122.65
589.781	1111.29
590.202	1092.14
590.623	1084.76
591.043	1081.8
591.464	1072.1
591.885	1069.44
592.305	1064.88
592.726	1054.92
593.147	1055.91
593.567	1052.73
593.987	1046.88
594.408	1042.7
594.828	1038.79
595.248	1034.78
595.669	1021.03
596.089	1015.26
596.509	1009.76
596.929	999.29
597.349	998.43
597.769	989.49
598.189	984.31
598.608	984.12
599.028	985.42
599.448	984.85
599.867	975.02
600.287	971.54
600.706	968.3
601.126	960.81
601.545	959.8
601.965	958.14
602.384	954.87
602.803	956.15
603.222	952.93
603.641	946.94
604.061	944.59
604.48	940.62
604.898	944.61
605.317	946.6
605.736	947.07
606.155	943.78
606.574	936.6
606.992	938.84
607.411	934.61
607.829	927.84
608.248	924.96
608.666	921.71
609.085	920.83
609.503	914.35
609.921	909.7
610.339	910.14
610.758	908.75
611.176	905.19
611.594	898.56
612.012	893.94
612.43	894.73
612.847	897.62
613.265	897.85
613.683	899.58
614.101	899.61
614.518	894.76
614.936	886.92
615.353	876.46
615.771	873.64
616.188	872.59
616.606	869.39
617.023	863.94
617.44	854.03
617.857	847.24
618.274	840.77
618.691	835.89
619.108	830.03
619.525	824.61
619.942	828.64
620.359	829.23
620.776	824.51
621.192	822.19
621.609	820.29
622.026	823.78
622.442	827.04
622.859	828.36
623.275	822.92
623.691	825.36
624.108	832.3
624.524	839.85
624.94	838.97
625.356	845.11
625.772	852.13
626.188	858.8
626.604	859.16
627.02	856.54
627.436	855.2
627.852	860.18
628.268	868.16
628.683	861.95
629.099	855.55
629.514	851.69
629.93	853.94
630.345	856.83
630.761	853.11
631.176	855.42
631.591	851.23
632.007	846.61
632.422	843.8
632.837	834.4
633.252	832.02
633.667	824.54
634.082	817.99
634.497	808.44
634.911	795
635.326	790.92
635.741	776.98
636.155	768.63
636.57	767.63
636.984	764.58
637.399	765.55
637.813	763.13
638.228	760.87
638.642	760.67
639.056	751.05
639.47	748.95
639.884	742.43
640.298	737.08
640.712	733.58
641.126	722.15
641.54	714.35
641.954	705.83
642.368	695.46
642.781	688.97
643.195	675.79
643.609	674.9
644.022	667.96
644.436	661.51
644.849	651.13
645.262	641.78
645.676	640.06
646.089	635.92
646.502	626.5
646.915	622.26
647.328	610.71
647.741	608.26
648.154	598.92
648.567	597.64
648.98	589.73
649.393	589
649.805	585.08
650.218	580.15
650.631	569.93
651.043	565.96
651.456	561.15
651.868	559.99
652.28	568.11
652.693	574.31
653.105	576.08
653.517	580.53
653.929	580.25
654.341	583.87
654.753	577.49
655.165	580.48
655.577	577.47
655.989	574.68
656.401	568.68
656.813	549.19
657.224	536.95
657.636	519.41
658.047	509.4
658.459	497.63
658.87	491
659.282	482.11
659.693	470.37
660.104	461.45
660.515	452.16
660.926	449.42
661.338	446.34
661.749	442.24
662.159	437.14
662.57	432.79
662.981	429.01
663.392	424.26
663.803	424.92
664.213	422.34
664.624	419.25
665.035	420.49
665.445	413.8
665.855	409.63
666.266	405.59
666.676	403
667.086	398.34
667.497	398.53
667.907	394.74
668.317	391.12
668.727	391.17
669.137	390.77
669.547	389.78
669.956	390.02
670.366	391.4
670.776	392.63
671.186	394.69
671.595	396.91
672.005	398.75
672.414	399.48
672.824	400.19
673.233	401.44
673.642	403.59
674.052	405.72
674.461	409.6
674.87	412.37
675.279	412.13
675.688	413.92
676.097	416.88
676.506	415.48
676.915	424.5
677.323	426.45
677.732	427.1
678.141	428.21
678.549	424.59
678.958	424.27
679.366	424.63
679.775	427.35
680.183	436.5
680.592	440.21
681	445.49
681.408	443.98
681.816	449.85
682.224	455.29
682.632	463.43
683.04	481.36
683.448	496.82
683.856	517.32
684.264	540.59
684.671	559.14
685.079	584.92
685.487	612.93
685.894	650.87
686.302	682.94
686.709	710.14
687.116	743.73
687.524	770.96
687.931	796.25
688.338	817.28
688.745	837.31
689.152	860.91
689.559	891.37
689.966	922.98
690.373	941.88
690.78	973
691.187	1019.41
691.593	1056.5
692	1090.91
692.407	1138.71
692.813	1196.47
693.22	1243.48
693.626	1292.84
694.032	1333.8
694.439	1393.25
694.845	1440.89
695.251	1500.02
695.657	1553.76
696.063	1629.46
696.469	1688.97
696.875	1746.19
697.281	1782.92
697.687	1826.15
698.093	1863.83
698.498	1927.62
698.904	1978.18
699.31	2052.59
699.715	2110.4
700.12	2187.35
700.526	2211.71
700.931	2272.71
701.337	2319.76
701.742	2355.59
702.147	2427.44
702.552	2459.41
702.957	2515.26
703.362	2540.11
