Data from N_3_DEC_NC_4N_Splice17_13-07-13-548.txt Node
Date: Sat Mar 14 13:07:13 EDT 2020
User: sa697716
Spectrometer: FLMS03696
Trigger mode: 0
Integration Time (sec): 3.180400E-1
Scans to average: 20
Electric dark correction enabled: true
Nonlinearity correction enabled: true
Boxcar width: 5
XAxis mode: Wavelengths
Number of Pixels in Spectrum: 2048
>>>>>Begin Spectral Data<<<<<
187.83	-243684.15
188.298	1805.61
188.766	1045.29
189.233	907.72
189.701	1320.39
190.169	1879.02
190.636	735.56
191.104	607.64
191.571	133.62
192.039	-36.03
192.506	-73.07
192.974	551.75
193.441	-1092.49
193.908	-376.11
194.375	-91.86
194.842	10.35
195.31	125.37
195.777	167.88
196.244	368.49
196.711	419.93
197.177	514.91
197.644	710.39
198.111	1249.58
198.578	1777.26
199.045	1419.58
199.511	2281.51
199.978	2667.24
200.445	2269.12
200.911	2509.46
201.378	2763.78
201.844	2518.86
202.31	4292.66
202.777	4515.85
203.243	2500.97
203.709	2391.04
204.176	2855.96
204.642	2377.83
205.108	2198.36
205.574	1779.17
206.04	1617.79
206.506	1542.28
206.972	1457.61
207.438	1413.52
207.903	1582.23
208.369	1379.99
208.835	1374.05
209.301	1439.9
209.766	1444.31
210.232	1427.01
210.697	1765.16
211.163	2165.92
211.628	3205.91
212.094	2694.89
212.559	3300.91
213.024	2070.05
213.49	2553.39
213.955	2475.71
214.42	2407.77
214.885	2247.51
215.35	2152.31
215.815	2087.75
216.28	2215.34
216.745	1802.33
217.21	1944.62
217.675	1755.71
218.14	1959.57
218.604	2158.24
219.069	2431.99
219.534	2534.06
219.998	2916.23
220.463	3495.5
220.927	4221.96
221.392	3939.88
221.856	3965.69
222.32	4942.64
222.785	6069.87
223.249	7579.09
223.713	8386.81
224.177	8341.23
224.642	10607.36
225.106	12986.85
225.57	14104.24
226.034	10487.55
226.497	15873.5
226.961	14311.27
227.425	16642.86
227.889	18463.39
228.353	18426.75
228.816	37972.87
229.28	36363.52
229.744	30668.3
230.207	18635.05
230.671	18320.64
231.134	30196.96
231.597	34895.79
232.061	34802.55
232.524	33858.1
232.987	23262.05
233.45	20904.17
233.914	18731.75
234.377	19135.59
234.84	17495.75
235.303	20588.1
235.766	22948.4
236.229	23666.65
236.691	14874.1
237.154	16689.63
237.617	12548.37
238.08	12830.81
238.542	14998.36
239.005	10737.45
239.468	10646.12
239.93	10022.28
240.393	9114.08
240.855	7996.84
241.317	8206.27
241.78	9965.06
242.242	10312.34
242.704	11138.13
243.166	9710.1
243.629	8839.62
244.091	10171.25
244.553	11152.34
245.015	12003.19
245.477	15509.84
245.939	22755.26
246.4	24109.87
246.862	23450.53
247.324	22100.08
247.786	24694.09
248.247	32280.26
248.709	33279.78
249.17	24888.12
249.632	23500.24
250.093	27241.66
250.555	23515.4
251.016	14344.64
251.477	13629.38
251.939	14711.33
252.4	15423.76
252.861	18342.29
253.322	17119.3
253.783	20363.44
254.244	26429.56
254.705	20816.11
255.166	18482.07
255.627	18219.35
256.088	25742.94
256.549	27336.9
257.009	23526.96
257.47	28541.89
257.931	23274.02
258.391	17435.94
258.852	17951.87
259.312	18840.22
259.773	23253.29
260.233	19720
260.694	16639.16
261.154	18876.54
261.614	15183.48
262.074	13596.21
262.534	14142.46
262.994	13333.19
263.455	17760.22
263.915	14987.49
264.374	14099.15
264.834	15408.62
265.294	17054.89
265.754	17689.13
266.214	16716.7
266.673	15648.94
267.133	19718.29
267.593	19555.19
268.052	23935.59
268.512	20818.22
268.971	25124.47
269.431	27539.99
269.89	24666.72
270.349	36955.05
270.809	41184.78
271.268	37064.24
271.727	83067.55
272.186	53903.99
272.645	40446.3
273.104	29161.83
273.563	42240.76
274.022	33213.2
274.481	28289.29
274.94	21815.67
275.399	16212.7
275.857	18889.92
276.316	25563.84
276.775	22759.31
277.233	22426.03
277.692	21020.95
278.15	23821.4
278.609	24559.26
279.067	22721.73
279.525	21117.8
279.984	27245.62
280.442	32801.74
280.9	32356.34
281.358	21291.97
281.816	19852
282.274	19437.1
282.732	20080.74
283.19	20166.11
283.648	17371.9
284.106	18526.51
284.564	18840.63
285.021	17510.2
285.479	13046.25
285.937	11852.96
286.394	10424.87
286.852	10736.36
287.309	11281.25
287.767	10920.66
288.224	10402.04
288.682	11424.84
289.139	12540.32
289.596	11491.69
290.053	11937.3
290.511	15052.95
290.968	18309.21
291.425	24815.83
291.882	20721.99
292.339	18070.97
292.796	17925.79
293.252	16884.44
293.709	13442.31
294.166	12060.8
294.623	13328.02
295.079	12774.19
295.536	12860.44
295.992	11666.76
296.449	11548.69
296.905	11976.82
297.362	11480.95
297.818	12065.27
298.274	12521.3
298.731	12726.88
299.187	12596.36
299.643	13537.4
300.099	16388.65
300.555	17952.51
301.011	15001.81
301.467	14464.52
301.923	16942.3
302.379	16555.07
302.835	16280.23
303.291	16298
303.746	18558.89
304.202	23445.46
304.658	23516.66
305.113	15815.11
305.569	15504.3
306.024	16507.24
306.479	15714.07
306.935	13245.16
307.39	14444.2
307.845	13324.85
308.301	13433.88
308.756	13102.04
309.211	12633.45
309.666	12958.37
310.121	16120.3
310.576	16357.76
311.031	16277.81
311.486	18600.64
311.94	18588.69
312.395	24914.52
312.85	46896.92
313.305	229818.8
313.759	1194397.98
314.214	86516.97
314.668	68689.11
315.123	57696.7
315.577	20707.42
316.032	18392.3
316.486	23115.37
316.94	18228.15
317.394	12709.93
317.849	9873.97
318.303	9375.73
318.757	8841.06
319.211	9781.82
319.665	8545.2
320.119	8675.01
320.572	12445.08
321.026	11650.06
321.48	9661.14
321.934	10532.95
322.387	10532.9
322.841	11374.39
323.295	10230.49
323.748	11749.55
324.202	11934.93
324.655	14346.8
325.108	20065.3
325.562	14207.4
326.015	16886.71
326.468	12817.37
326.921	14355.92
327.374	13400.51
327.827	13978.92
328.28	15847.28
328.733	10637.84
329.186	9357.27
329.639	8913.86
330.092	7497.85
330.545	7136.61
330.997	7191.83
331.45	7870.88
331.903	9242.68
332.355	15868.22
332.808	15417.67
333.26	12708
333.713	13808.36
334.165	13924.83
334.617	18587.22
335.069	15002.86
335.522	27079.42
335.974	30040.83
336.426	27397.8
336.878	18928.92
337.33	9633.3
337.782	9408.33
338.234	11798.95
338.686	14117.76
339.137	16695.14
339.589	15748.5
340.041	12391.46
340.493	10680.2
340.944	10922.82
341.396	11793.52
341.847	9953.02
342.299	11767.89
342.75	14397.14
343.201	12559.2
343.653	14458.47
344.104	17747.55
344.555	13981.4
345.006	21698.2
345.457	16686.69
345.908	13297.13
346.359	12510.04
346.81	10175.45
347.261	10702.39
347.712	10524.18
348.163	11275.48
348.613	11445.42
349.064	10690.07
349.515	9353.44
349.965	9598.34
350.416	11519.6
350.866	12620.79
351.317	14247.52
351.767	23648.87
352.217	29893.48
352.668	24825.01
353.118	22783.29
353.568	21888.59
354.018	17342.44
354.468	18316.34
354.918	13149.74
355.368	11500.1
355.818	16267.65
356.268	46819.01
356.718	196028
357.168	48888.6
357.617	24569.8
358.067	27243.67
358.517	25538.36
358.966	30034.68
359.416	33785.34
359.865	36595.65
360.315	43581.86
360.764	20310.29
361.213	11403.51
361.663	10769.25
362.112	13265.88
362.561	21425.49
363.01	16218.11
363.459	13682.91
363.908	14801.68
364.357	12596.35
364.806	21247.41
365.255	14584.76
365.703	13413.73
366.152	13441.89
366.601	10939.34
367.05	8911.08
367.498	8092.16
367.947	8467.29
368.395	8801.3
368.844	7796.43
369.292	9351.92
369.74	6467.92
370.189	9933.75
370.637	11635.03
371.085	10027.99
371.533	12180.3
371.981	11727.67
372.429	11185.73
372.877	11652.28
373.325	9769.19
373.773	9932.34
374.221	8840.73
374.669	10975.79
375.116	9482.4
375.564	9546.94
376.012	10693.74
376.459	8837.31
376.907	10544.24
377.354	12764.61
377.801	11910.78
378.249	13694.14
378.696	17527.68
379.143	21301.17
379.591	22693.68
380.038	38574.99
380.485	27958.58
380.932	30183.79
381.379	27666.43
381.826	20449.01
382.273	14554.12
382.72	12711.68
383.166	12404.65
383.613	8074.27
384.06	7284.47
384.506	8441.09
384.953	6183.22
385.4	6221.41
385.846	5463.52
386.292	5316.39
386.739	5200.76
387.185	5140.93
387.631	5157.26
388.078	5020.4
388.524	5372.08
388.97	4966.82
389.416	4156.5
389.862	4428.53
390.308	4205.51
390.754	4284.59
391.2	4666.39
391.645	4783.23
392.091	4596.04
392.537	4457.48
392.983	4453.82
393.428	4403.47
393.874	4723.82
394.319	4754.79
394.765	4530.39
395.21	4667.51
395.655	4360.62
396.101	4086.99
396.546	3697.25
396.991	3736.34
397.436	3471.88
397.881	3362.25
398.326	3175.8
398.771	3019.27
399.216	2642
399.661	2383.72
400.106	2388.38
400.551	2462.01
400.995	2207.72
401.44	2185.71
401.885	2052.74
402.329	2072.19
402.774	1989.37
403.218	1937.21
403.663	1862.45
404.107	1916.6
404.551	1934.55
404.995	1767.97
405.44	1701.99
405.884	1731.99
406.328	1673.66
406.772	1666.52
407.216	1518.35
407.66	1465.66
408.104	1385.27
408.547	1295.8
408.991	1252.19
409.435	1200.36
409.879	1183.79
410.322	1166.15
410.766	1126.31
411.209	1073.27
411.653	1028.81
412.096	1009.77
412.54	1010.65
412.983	1004.87
413.426	1007.51
413.869	1004.56
414.312	987.93
414.756	953.59
415.199	909.56
415.642	882.95
416.085	883.18
416.527	878.44
416.97	890.96
417.413	849.1
417.856	838.45
418.298	831.61
418.741	826.33
419.184	821.53
419.626	849.32
420.069	849.74
420.511	855.11
420.953	837.9
421.396	832.21
421.838	812.1
422.28	827.61
422.722	833.9
423.164	843.8
423.606	830.15
424.048	830.16
424.49	792.45
424.932	787.25
425.374	775.13
425.816	786.36
426.258	798.82
426.699	805.32
427.141	793.31
427.582	803.65
428.024	798.5
428.465	790.12
428.907	769.58
429.348	758.13
429.789	760.87
430.231	744.27
430.672	754.68
431.113	736.22
431.554	725.38
431.995	706.26
432.436	681.91
432.877	667.33
433.318	658.01
433.759	653.05
434.2	653.17
434.64	643.39
435.081	645.56
435.522	612.53
435.962	589.06
436.403	578.41
436.843	584.17
437.284	569.35
437.724	552.62
438.164	552.37
438.604	539.98
439.045	519.51
439.485	499.11
439.925	486.39
440.365	471.97
440.805	466.28
441.245	459.09
441.685	443.39
442.125	439.01
442.564	440.96
443.004	431.48
443.444	430.9
443.883	431.88
444.323	425.98
444.762	425.57
445.202	430.58
445.641	438.63
446.081	433.92
446.52	436.22
446.959	432.14
447.398	422.61
447.837	416.82
448.276	407.17
448.716	410.54
449.154	413.48
449.593	404.88
450.032	405.06
450.471	395.32
450.91	394.16
451.349	392.58
451.787	390.92
452.226	395.66
452.664	395.72
453.103	396.31
453.541	392.77
453.98	393.26
454.418	395.52
454.856	388.58
455.295	387.82
455.733	392.34
456.171	394.47
456.609	393.54
457.047	392.11
457.485	398.39
457.923	400.56
458.361	395.44
458.798	396.37
459.236	393.54
459.674	395.2
460.111	396.79
460.549	391.54
460.987	389.65
461.424	387.7
461.862	386.79
462.299	379.53
462.736	379.08
463.173	380.27
463.611	376.57
464.048	377.1
464.485	379.99
464.922	376.44
465.359	374.56
465.796	375.47
466.233	374.71
466.67	372.83
467.106	374.08
467.543	369.28
467.98	363.93
468.416	354.69
468.853	351.35
469.29	340.71
469.726	337.1
470.162	328.01
470.599	319.42
471.035	315.05
471.471	306.58
471.907	302.8
472.344	300.81
472.78	302.92
473.216	305.3
473.652	300.93
474.088	299.85
474.523	298.62
474.959	301.35
475.395	298.28
475.831	297.41
476.266	298.71
476.702	297.5
477.138	294.01
477.573	292.99
478.008	292.16
478.444	294.72
478.879	298.56
479.314	300.76
479.75	300.61
480.185	301.17
480.62	302.56
481.055	303.43
481.49	305.67
481.925	310.22
482.36	316.23
482.795	324.51
483.229	331.88
483.664	337.57
484.099	338.47
484.534	344.05
484.968	348.82
485.403	350.5
485.837	349.72
486.271	349.21
486.706	349.59
487.14	344.92
487.574	339.78
488.009	336.48
488.443	333.66
488.877	337.37
489.311	338.35
489.745	342.16
490.179	345.67
490.613	354.56
491.046	357.02
491.48	359.66
491.914	360.99
492.348	364.44
492.781	368.23
493.215	370.04
493.648	370.42
494.082	373.49
494.515	374.65
494.948	379.89
495.382	381.97
495.815	385.75
496.248	390.26
496.681	397.93
497.114	404.74
497.547	410.99
497.98	420.62
498.413	427.15
498.846	434.84
499.279	440.94
499.711	444.05
500.144	447.43
500.577	456.06
501.009	464.13
501.442	472.11
501.874	476.2
502.306	479.68
502.739	488.09
503.171	498.41
503.603	503.14
504.036	511.85
504.468	518.74
504.9	527.83
505.332	533.86
505.764	539.77
506.196	547.24
506.627	558.93
507.059	570.7
507.491	577.07
507.923	579.59
508.354	592.77
508.786	602.48
509.217	617.34
509.649	630.78
510.08	647.11
510.512	661.63
510.943	675.36
511.374	685.93
511.805	702.7
512.237	719.39
512.668	744.34
513.099	765.64
513.53	787.58
513.961	805.39
514.391	830.92
514.822	857.91
515.253	887.07
515.684	907.76
516.114	932.39
516.545	951.8
516.975	974.15
517.406	989.95
517.836	994.72
518.267	1002.71
518.697	1019.64
519.127	1025.55
519.558	1034.49
519.988	1039.66
520.418	1050.35
520.848	1065.95
521.278	1075.94
521.708	1107.87
522.138	1121.55
522.567	1147.86
522.997	1170.31
523.427	1184.82
523.857	1201.17
524.286	1211.62
524.716	1225.81
525.145	1243.67
525.575	1255.6
526.004	1268.19
526.433	1250.65
526.863	1252.13
527.292	1247.53
527.721	1253.66
528.15	1259.42
528.579	1261.08
529.008	1271.7
529.437	1291.53
529.866	1303.58
530.295	1317.78
530.724	1329.69
531.152	1351.68
531.581	1364.7
532.01	1379.88
532.438	1388.13
532.867	1400.79
533.295	1416.18
533.723	1421.09
534.152	1418.99
534.58	1419.01
535.008	1407.15
535.436	1409.54
535.865	1415.71
536.293	1426.95
536.721	1438.92
537.149	1458.43
537.576	1460.38
538.004	1469.66
538.432	1475.6
538.86	1474.69
539.287	1480.59
539.715	1491.69
540.143	1492.7
540.57	1489.83
540.998	1487.66
541.425	1470.13
541.852	1453.57
542.28	1452.28
542.707	1439.99
543.134	1429.79
543.561	1427.41
543.988	1420.52
544.415	1419.95
544.842	1415.53
545.269	1410.98
545.696	1411.94
546.123	1421.72
546.549	1414.4
546.976	1405.66
547.403	1406.01
547.829	1407.08
548.256	1408.53
548.682	1406.65
549.108	1401.36
549.535	1401.91
549.961	1403.45
550.387	1393.53
550.813	1389.74
551.24	1394.07
551.666	1394.85
552.092	1387.94
552.518	1383.34
552.943	1378.83
553.369	1384.86
553.795	1390.08
554.221	1390.72
554.646	1387.38
555.072	1395.34
555.498	1398.62
555.923	1405.86
556.349	1416.83
556.774	1422.62
557.199	1422.67
557.625	1427.03
558.05	1421.96
558.475	1428.02
558.9	1426.06
559.325	1420.18
559.75	1415.35
560.175	1409.57
560.6	1403.45
561.025	1401.58
561.449	1401.2
561.874	1404.93
562.299	1407.02
562.723	1411.14
563.148	1401.85
563.572	1404.04
563.997	1409.48
564.421	1411.11
564.846	1409.53
565.27	1410.76
565.694	1405.88
566.118	1413.96
566.542	1416.96
566.966	1409.72
567.39	1403.58
567.814	1393.23
568.238	1390.55
568.662	1392.31
569.086	1391.52
569.509	1395.2
569.933	1381.54
570.357	1374.01
570.78	1355.37
571.204	1343.87
571.627	1332.57
572.05	1328.41
572.474	1326.36
572.897	1314.56
573.32	1306.63
573.743	1297.24
574.166	1281.04
574.589	1279.1
575.012	1270.87
575.435	1267.31
575.858	1258.1
576.281	1248.52
576.704	1235.82
577.126	1224.4
577.549	1215.06
577.972	1206.16
578.394	1197.19
578.817	1191.47
579.239	1175.97
579.661	1166.21
580.084	1154.26
580.506	1144.04
580.928	1140.54
581.35	1132.47
581.772	1128.77
582.194	1117.75
582.616	1107.6
583.038	1096.1
583.46	1087.47
583.882	1085.05
584.303	1085.88
584.725	1081.98
585.147	1084.53
585.568	1091.12
585.99	1098
586.411	1102.25
586.833	1112.46
587.254	1112.57
587.675	1121.39
588.096	1128.46
588.518	1123.35
588.939	1110.97
589.36	1109.41
589.781	1098.83
590.202	1078.44
590.623	1070.52
591.043	1066.86
591.464	1056.77
591.885	1054.07
592.305	1050
592.726	1041.1
593.147	1041.73
593.567	1037.55
593.987	1030.73
594.408	1026.69
594.828	1024.2
595.248	1020.45
595.669	1006.96
596.089	1000.89
596.509	994.91
596.929	985.27
597.349	984.47
597.769	976.44
598.189	971.36
598.608	970.9
599.028	970.83
599.448	969.62
599.867	959.46
600.287	956.25
600.706	953.82
601.126	946.68
601.545	944.57
601.965	942.56
602.384	937.93
602.803	938.98
603.222	936.42
603.641	932.15
604.061	929.39
604.48	926.62
604.898	931.55
605.317	933.2
605.736	933.46
606.155	930.83
606.574	923.38
606.992	925.83
607.411	921.72
607.829	913.86
608.248	909.99
608.666	907.04
609.085	906
609.503	899.28
609.921	894.57
610.339	895.46
610.758	893.32
611.176	889.88
611.594	883.51
612.012	880.1
612.43	882.08
612.847	885
613.265	885.3
613.683	887.01
614.101	887.07
614.518	882.68
614.936	874.63
615.353	865.41
615.771	862.22
616.188	861.17
616.606	858.53
617.023	852.53
617.44	842.18
617.857	835.36
618.274	827.37
618.691	822.7
619.108	815.71
619.525	810.78
619.942	813.59
620.359	815
620.776	810.32
621.192	808.1
621.609	805.97
622.026	809.59
622.442	813.13
622.859	815.43
623.275	809.25
623.691	812.45
624.108	819.33
624.524	827.99
624.94	826.48
625.356	832.06
625.772	837.34
626.188	844.22
626.604	845.68
627.02	842.97
627.436	842.13
627.852	847.51
628.268	855.83
628.683	849.19
629.099	843.51
629.514	840.2
629.93	842.3
630.345	846.2
630.761	843.06
631.176	844.77
631.591	841.59
632.007	836.63
632.422	833.4
632.837	823.86
633.252	821.36
633.667	812.85
634.082	806.35
634.497	797.36
634.911	784.09
635.326	780.61
635.741	766.26
636.155	756.81
636.57	756.05
636.984	753.45
637.399	754.09
637.813	750.86
638.228	748.09
638.642	747.78
639.056	739.01
639.47	735.8
639.884	728.09
640.298	723.68
640.712	720.01
641.126	709.32
641.54	701.66
641.954	693.9
642.368	685.08
642.781	680.37
643.195	667.12
643.609	665.8
644.022	659.59
644.436	654.82
644.849	644.15
645.262	634.76
645.676	633.47
646.089	628.47
646.502	619.62
646.915	614.74
647.328	601.69
647.741	599.86
648.154	590.11
648.567	588.11
648.98	579.14
649.393	578.49
649.805	577.11
650.218	570.77
650.631	561.62
651.043	557.27
651.456	553.08
651.868	552.55
652.28	559.66
652.693	566.72
653.105	569.01
653.517	573.89
653.929	573.53
654.341	575.11
654.753	569.39
655.165	571.06
655.577	567.89
655.989	564.6
656.401	557.78
656.813	539.01
657.224	526.94
657.636	509.29
658.047	498.63
658.459	486.85
658.87	480.7
659.282	472.51
659.693	462.49
660.104	453.52
660.515	444.96
660.926	443.34
661.338	439.74
661.749	434.23
662.159	429.93
662.57	426.56
662.981	423.86
663.392	419.63
663.803	421.17
664.213	417.17
664.624	414.33
665.035	414.98
665.445	407.8
665.855	405.53
666.266	402.29
666.676	399.93
667.086	394.45
667.497	394.05
667.907	391.14
668.317	385.99
668.727	387.23
669.137	386.93
669.547	386.51
669.956	387.21
670.366	387.45
670.776	389.26
671.186	391.14
671.595	393.29
672.005	394.82
672.414	395.18
672.824	396.52
673.233	396.96
673.642	400.05
674.052	402.67
674.461	405.68
674.87	408.73
675.279	408.98
675.688	411.38
676.097	413.87
676.506	413.95
676.915	422.49
677.323	423.94
677.732	425.52
678.141	425.99
678.549	422.03
678.958	422.61
679.366	422.82
679.775	425.16
680.183	433.34
680.592	438.39
681	444.32
681.408	442.04
681.816	448.08
682.224	453.31
682.632	461.03
683.04	477.66
683.448	492.52
683.856	512.12
684.264	534.15
684.671	553.86
685.079	577.51
685.487	603.56
685.894	641.77
686.302	673.18
686.709	700.57
687.116	732.75
687.524	763.26
687.931	790.06
688.338	813.04
688.745	833.03
689.152	855.99
689.559	887.19
689.966	919.38
690.373	935.34
690.78	967.01
691.187	1011.66
691.593	1048.23
692	1078.99
692.407	1124.16
692.813	1179.95
693.22	1225.8
693.626	1272.05
694.032	1313.47
694.439	1371.69
694.845	1420.98
695.251	1478.96
695.657	1533.79
696.063	1609.68
696.469	1670.69
696.875	1728.02
697.281	1765.27
697.687	1809.57
698.093	1849.56
698.498	1913.83
698.904	1964.49
699.31	2039.58
699.715	2098.19
700.12	2177.11
700.526	2201.53
700.931	2263.46
701.337	2313.46
701.742	2348.77
702.147	2422.9
702.552	2454.28
702.957	2508.27
703.362	2533.27
