Data from N_3_HIR_WI_4N_Splice17_13-11-42-474.txt Node
Date: Sat Mar 14 13:11:42 EDT 2020
User: sa697716
Spectrometer: FLMS03696
Trigger mode: 0
Integration Time (sec): 3.180400E-1
Scans to average: 20
Electric dark correction enabled: true
Nonlinearity correction enabled: true
Boxcar width: 5
XAxis mode: Wavelengths
Number of Pixels in Spectrum: 2048
>>>>>Begin Spectral Data<<<<<
187.83	-368278.6
188.298	2734.83
188.766	1527.78
189.233	1365.64
189.701	1916.19
190.169	2480.49
190.636	983.1
191.104	764.42
191.571	145.32
192.039	-59.36
192.506	-55.78
192.974	615.29
193.441	-791.86
193.908	-94.48
194.375	-22.12
194.842	91.57
195.31	150.41
195.777	217.55
196.244	412.8
196.711	484.92
197.177	563.17
197.644	804.96
198.111	1416
198.578	1931.99
199.045	1547.16
199.511	2519.04
199.978	2899.87
200.445	2466.48
200.911	2736.5
201.378	3038.3
201.844	2754.68
202.31	4717.57
202.777	4899.85
203.243	2711.66
203.709	2600.01
204.176	3104.96
204.642	2553.16
205.108	2400.58
205.574	1960.83
206.04	1781.3
206.506	1690.29
206.972	1597.67
207.438	1550.88
207.903	1752.45
208.369	1550.25
208.835	1548.06
209.301	1626.79
209.766	1663.6
210.232	1649.82
210.697	2039.58
211.163	2533.53
211.628	3814.53
212.094	3230.99
212.559	4010.13
213.024	2525.37
213.49	3096.64
213.955	3062.21
214.42	2991.48
214.885	2820.44
215.35	2714.25
215.815	2627.52
216.28	2804.33
216.745	2325.82
217.21	2551.51
217.675	2396.08
218.14	2755.71
218.604	3150.31
219.069	3663.79
219.534	3936.62
219.998	4688.36
220.463	5804.08
220.927	7280.66
221.392	6961.44
221.856	7134.9
222.32	9086.42
222.785	11266.23
223.249	14300.02
223.713	16013.52
224.177	16113.01
224.642	20815.34
225.106	25642.31
225.57	28064.29
226.034	20909
226.497	31853.64
226.961	28718
227.425	33492.82
227.889	37209.05
228.353	37175.17
228.816	76927.81
229.28	73545.43
229.744	61946.68
230.207	37654.81
230.671	37102.37
231.134	61415.29
231.597	70774.92
232.061	70840.59
232.524	69091.44
232.987	47618.23
233.45	42897.19
233.914	38464.81
234.377	39448.39
234.84	36083.19
235.303	42603.82
235.766	47542.88
236.229	49111.65
236.691	30935.52
237.154	34777.98
237.617	26141.54
238.08	26781.17
238.542	31337
239.005	22395.14
239.468	22170.75
239.93	20900.46
240.393	18968.38
240.855	16624.02
241.317	17024.79
241.78	20703.88
242.242	21378.26
242.704	23065.48
243.166	20060.02
243.629	18199.08
244.091	20953.07
244.553	23005.47
245.015	24694.75
245.477	31920.64
245.939	46816.37
246.4	49691.35
246.862	48319.37
247.324	45556
247.786	51002.35
248.247	66850.37
248.709	69023.03
249.17	51615.12
249.632	48624.31
250.093	56410.94
250.555	48753.11
251.016	29703.3
251.477	28149.59
251.939	30364.18
252.4	31831.32
252.861	37810.17
253.322	35155.82
253.783	41874.54
254.244	54330.72
254.705	42797.17
255.166	38054.87
255.627	37454.2
256.088	52802.17
256.549	56059.28
257.009	48278.93
257.47	58604.65
257.931	47760.27
258.391	35804.63
258.852	36845.04
259.312	38610.22
259.773	47694.27
260.233	40251.96
260.694	33928.88
261.154	38525.76
261.614	30928.4
262.074	27619.67
262.534	28683.3
262.994	27019.97
263.455	35984.13
263.915	30333.73
264.374	28565.7
264.834	31164.68
265.294	34540.88
265.754	35778.86
266.214	33823.85
266.673	31681.64
267.133	40014.31
267.593	39664.96
268.052	48533.06
268.512	42183.65
268.971	50827.14
269.431	55748.43
269.89	49911.95
270.349	74820.23
270.809	83361.43
271.268	74894.95
271.727	167765.79
272.186	108567.98
272.645	81368.73
273.104	58629.9
273.563	84884.56
274.022	66766.4
274.481	56716.11
274.94	43651.16
275.399	32434.75
275.857	37729.71
276.316	51003.87
276.775	45346.23
277.233	44624
277.692	41719.02
278.15	47131.75
278.609	48381.55
279.067	44699.02
279.525	41454.79
279.984	53516.8
280.442	64220.03
280.9	63236.16
281.358	41583.16
281.816	38746.97
282.274	37912.92
282.732	39189.64
283.19	39408.23
283.648	34023.82
284.106	36235.17
284.564	36822.2
285.021	34112.08
285.479	25391.49
285.937	23090.95
286.394	20241.86
286.852	20815.91
287.309	21846.96
287.767	21067.88
288.224	19999.7
288.682	21916.63
289.139	24022.71
289.596	21976.44
290.053	22847.82
290.511	28841.44
290.968	35001.77
291.425	47450.93
291.882	39504.2
292.339	34373.39
292.796	34135.72
293.252	32174.17
293.709	25545.6
294.166	22874.81
294.623	25276.06
295.079	24220.81
295.536	24303.23
295.992	22019.98
296.449	21760.39
296.905	22571.36
297.362	21625.34
297.818	22751.12
298.274	23592.61
298.731	24040.09
299.187	23779.89
299.643	25517.99
300.099	30849.26
300.555	33819.28
301.011	28244.46
301.467	27191.82
301.923	31878.75
302.379	31139.66
302.835	30533.91
303.291	30533.31
303.746	34713.38
304.202	43813.23
304.658	43971.67
305.113	29543.83
305.569	28907.13
306.024	30785.77
306.479	29290.96
306.935	24642.43
307.39	26864.4
307.845	24793.12
308.301	24919.71
308.756	24287.28
309.211	23402.78
309.666	23924.37
310.121	29681.57
310.576	30117.05
311.031	29873.02
311.486	34203.92
311.94	34148.08
312.395	45631.46
312.85	85597.23
313.305	419931.57
313.759	2168930.68
314.214	156923.54
314.668	124304.3
315.123	104409.04
315.577	37367.74
316.032	33227.66
316.486	41624.34
316.94	32801.39
317.394	22838.71
317.849	17742.3
318.303	16813.06
318.757	15851.78
319.211	17517.93
319.665	15339.98
320.119	15510.57
320.572	22259.4
321.026	20788.17
321.48	17291.67
321.934	18844.57
322.387	18862.8
322.841	20377.29
323.295	18291.37
323.748	21063.82
324.202	21333.66
324.655	25601.08
325.108	35756.99
325.562	25216.2
326.015	29916.23
326.468	22590.86
326.921	25227.95
327.374	23516.68
327.827	24434.89
328.28	27635.58
328.733	18505.87
329.186	16283.69
329.639	15491.65
330.092	13061.93
330.545	12448.67
330.997	12547.89
331.45	13696.25
331.903	16027.77
332.355	27585.26
332.808	26840.31
333.26	22150.45
333.713	24027.22
334.165	24190.32
334.617	32288
335.069	26014.95
335.522	46990.28
335.974	52024.09
336.426	47572.66
336.878	32975.52
337.33	16675.44
337.782	16261.2
338.234	20327.9
338.686	24299.85
339.137	28744.81
339.589	27053.04
340.041	21210.73
340.493	18219.2
340.944	18651.73
341.396	20087.81
341.847	16872.87
342.299	19920.28
342.75	24308.09
343.201	21242.88
343.653	24430.78
344.104	30013.42
344.555	23618.45
345.006	36777.63
345.457	28117.11
345.908	22305.14
346.359	20948.54
346.81	17064.19
347.261	17965.5
347.712	17669.64
348.163	18940.53
348.613	19142.1
349.064	17882.22
349.515	15652.24
349.965	16027.46
350.416	19301.98
350.866	21182.17
351.317	23970.78
351.767	39608.33
352.217	50048.26
352.668	41497.46
353.118	37971.8
353.568	36595.67
354.018	28877.75
354.468	30431.15
354.918	21818.34
355.368	19083.59
355.818	26898.51
356.268	77232.61
356.718	323304.88
357.168	80298.91
357.617	40229.63
358.067	44698.9
358.517	41847.88
358.966	49015.74
359.416	54938.71
359.865	59317.99
360.315	70547.24
360.764	32943.33
361.213	18435.29
361.663	17460.21
362.112	21536.42
362.561	34806.72
363.01	26242.88
363.459	22074.19
363.908	23873.05
364.357	20260.07
364.806	34218.28
365.255	23535.54
365.703	21553.1
366.152	21565.18
366.601	17467.45
367.05	14162.56
367.498	12849.79
367.947	13441.3
368.395	13951.34
368.844	12356.55
369.292	14867.65
369.74	10252.2
370.189	15693.99
370.637	18389.96
371.085	15845.04
371.533	19275.82
371.981	18587.54
372.429	17726.86
372.877	18416.68
373.325	15424.84
373.773	15707.53
374.221	13979.14
374.669	17328.06
375.116	14926.23
375.564	15022.59
376.012	16806.17
376.459	13841.09
376.907	16518.7
377.354	19966.51
377.801	18592.71
378.249	21322.7
378.696	27249.15
379.143	32963.5
379.591	35094.37
380.038	59434.69
380.485	42983.68
380.932	46426.14
381.379	42543.98
381.826	31274.54
382.273	22176.95
382.72	19395.85
383.166	18912.28
383.613	12266.19
384.06	11066.39
384.506	12840.92
384.953	9429.87
385.4	9478.51
385.846	8304.68
386.292	8083.95
386.739	7916.44
387.185	7820.47
387.631	7821.75
388.078	7601.79
388.524	8115.44
388.97	7497.44
389.416	6241.63
389.862	6628.83
390.308	6287.76
390.754	6373.16
391.2	6908.3
391.645	7062.53
392.091	6763.45
392.537	6538.05
392.983	6537.74
393.428	6428.49
393.874	6883.43
394.319	6900.61
394.765	6556.82
395.21	6726.39
395.655	6301.55
396.101	5898.76
396.546	5319.58
396.991	5372.72
397.436	4983.07
397.881	4808.23
398.326	4547.76
398.771	4294.84
399.216	3749.88
399.661	3365.41
400.106	3349.67
400.551	3426.05
400.995	3064.12
401.44	3027.54
401.885	2836.34
402.329	2859.26
402.774	2737.91
403.218	2644.55
403.663	2545.82
404.107	2612.58
404.551	2624.18
404.995	2399.47
405.44	2303.83
405.884	2337.33
406.328	2256.52
406.772	2242.84
407.216	2037.5
407.66	1964.14
408.104	1863.47
408.547	1736.43
408.991	1676.3
409.435	1610.63
409.879	1587.09
410.322	1563.51
410.766	1507.6
411.209	1432.81
411.653	1373.52
412.096	1343.8
412.54	1342.39
412.983	1330.74
413.426	1336.68
413.869	1332.58
414.312	1309.14
414.756	1259.44
415.199	1200.78
415.642	1164.57
416.085	1162.06
416.527	1153.17
416.97	1169.51
417.413	1109.2
417.856	1094.43
418.298	1084.11
418.741	1076.31
419.184	1070.74
419.626	1113.84
420.069	1112.8
420.511	1116.64
420.953	1095.26
421.396	1080.87
421.838	1051
422.28	1075.46
422.722	1081.65
423.164	1090.9
423.606	1072.28
424.048	1069.47
424.49	1014.86
424.932	1007.4
425.374	993.51
425.816	1008.8
426.258	1029.61
426.699	1042.31
427.141	1025.92
427.582	1039.95
428.024	1033.32
428.465	1025.46
428.907	998.24
429.348	984.46
429.789	986.99
430.231	965.89
430.672	979.57
431.113	955.23
431.554	940.17
431.995	914.35
432.436	882.42
432.877	862.85
433.318	851.02
433.759	847.14
434.2	847.68
434.64	836.45
435.081	836.21
435.522	790.31
435.962	761.5
436.403	747.07
436.843	756.86
437.284	738.62
437.724	718.83
438.164	717.58
438.604	701.28
439.045	675.34
439.485	647.2
439.925	634.76
440.365	618.79
440.805	609.68
441.245	601.04
441.685	579.86
442.125	575.22
442.564	579.55
443.004	568.02
443.444	567.72
443.883	568.96
444.323	564.38
444.762	564.92
445.202	574.28
445.641	587.96
446.081	584.06
446.52	590.5
446.959	586.52
447.398	573.25
447.837	565.92
448.276	554.87
448.716	561.05
449.154	566.69
449.593	555.79
450.032	552.39
450.471	539.9
450.91	539.73
451.349	538.16
451.787	535.81
452.226	543.18
452.664	543.34
453.103	544.39
453.541	544.34
453.98	544.14
454.418	546.95
454.856	539.29
455.295	539.18
455.733	544.61
456.171	547.71
456.609	547.15
457.047	546.48
457.485	554.71
457.923	557.13
458.361	548.36
458.798	549.93
459.236	548.46
459.674	551.09
460.111	552.7
460.549	545.8
460.987	542.54
461.424	540.62
461.862	537.47
462.299	529.29
462.736	527.98
463.173	528.99
463.611	524.67
464.048	521.49
464.485	526.12
464.922	521.93
465.359	519.04
465.796	515.93
466.233	513.31
466.67	510.39
467.106	508.36
467.543	502.52
467.98	496.11
468.416	481.53
468.853	478.84
469.29	464.14
469.726	459.06
470.162	447.31
470.599	439
471.035	434.72
471.471	423
471.907	419.59
472.344	417.35
472.78	418.46
473.216	424.27
473.652	419.89
474.088	419.58
474.523	418.71
474.959	423.41
475.395	419.21
475.831	418.46
476.266	421.01
476.702	420.88
477.138	416.95
477.573	415.55
478.008	413.55
478.444	415.84
478.879	419.97
479.314	421.67
479.75	421.92
480.185	424.03
480.62	426.15
481.055	428.31
481.49	431.02
481.925	437.42
482.36	446.32
482.795	458.66
483.229	469.7
483.664	478.37
484.099	480.19
484.534	486.7
484.968	491.86
485.403	493.1
485.837	492.36
486.271	492.31
486.706	492.38
487.14	486.9
487.574	479.36
488.009	475.39
488.443	471.94
488.877	477.56
489.311	479.88
489.745	485.51
490.179	490.9
490.613	501.37
491.046	505.07
491.48	509.09
491.914	509.83
492.348	514.34
492.781	518.15
493.215	520.22
493.648	521.76
494.082	526.49
494.515	527.89
494.948	535.04
495.382	539.51
495.815	544.53
496.248	550.51
496.681	561.09
497.114	570.93
497.547	580.18
497.98	592.36
498.413	598.46
498.846	607.16
499.279	615.86
499.711	621.67
500.144	624.65
500.577	635.84
501.009	646.58
501.442	657.49
501.874	662.36
502.306	667.51
502.739	677.22
503.171	692.45
503.603	698.76
504.036	708.94
504.468	715.79
504.9	729.11
505.332	737.58
505.764	744.69
506.196	753.17
506.627	767.37
507.059	781.32
507.491	790.6
507.923	791.95
508.354	807.49
508.786	820.1
509.217	838.96
509.649	854.29
510.08	873.94
510.512	891.59
510.943	908.24
511.374	921.19
511.805	941.04
512.237	961.34
512.668	993.2
513.099	1019.89
513.53	1046.58
513.961	1067.46
514.391	1097.79
514.822	1129.12
515.253	1163.42
515.684	1187.81
516.114	1216.97
516.545	1240.21
516.975	1266.32
517.406	1284.02
517.836	1288.96
518.267	1297.53
518.697	1316.84
519.127	1323.43
519.558	1332.62
519.988	1337.54
520.418	1349.69
520.848	1367.26
521.278	1376.68
521.708	1387.21
522.138	1400.68
522.567	1431.34
522.997	1455.99
523.427	1470.94
523.857	1488.75
524.286	1500.11
524.716	1516.17
525.145	1534.61
525.575	1546.77
526.004	1561.58
526.433	1564.28
526.863	1566.04
527.292	1558.04
527.721	1564.01
528.15	1570.89
528.579	1573.1
529.008	1584.18
529.437	1606.3
529.866	1620.35
530.295	1637.36
530.724	1649.43
531.152	1675.3
531.581	1689.99
532.01	1706.14
532.438	1715.04
532.867	1729.58
533.295	1746.75
533.723	1752.78
534.152	1750.15
534.58	1749.83
535.008	1735.27
535.436	1737.02
535.865	1744.75
536.293	1757.68
536.721	1773.7
537.149	1798.19
537.576	1799.9
538.004	1811.8
538.432	1818.76
538.86	1817.53
539.287	1824.11
539.715	1836.88
540.143	1840.1
540.57	1835.3
540.998	1831.28
541.425	1809.62
541.852	1789.64
542.28	1787.98
542.707	1772.47
543.134	1759.81
543.561	1755.73
543.988	1749.41
544.415	1749.64
544.842	1745.23
545.269	1739.77
545.696	1742.07
546.123	1754.13
546.549	1743.52
546.976	1732.28
547.403	1733.17
547.829	1734.43
548.256	1737.64
548.682	1734.68
549.108	1728.48
549.535	1728.44
549.961	1731.43
550.387	1719.04
550.813	1715.23
551.24	1722.54
551.666	1723.86
552.092	1714
552.518	1710.04
552.943	1705.06
553.369	1713.29
553.795	1717.94
554.221	1718.35
554.646	1715.78
555.072	1727.56
555.498	1731.5
555.923	1740.17
556.349	1754.75
556.774	1765.16
557.199	1766.53
557.625	1771.79
558.05	1764.93
558.475	1775.06
558.9	1775.55
559.325	1768.48
559.75	1761.78
560.175	1755.34
560.6	1749.7
561.025	1748.2
561.449	1747.76
561.874	1752.38
562.299	1757.94
562.723	1766.01
563.148	1756.46
563.572	1759.58
563.997	1767.68
564.421	1772.95
564.846	1773.67
565.27	1776.73
565.694	1773.85
566.118	1784.96
566.542	1791.2
566.966	1783.36
567.39	1778.18
567.814	1767.04
568.238	1766.5
568.662	1771.21
569.086	1772.88
569.509	1779.11
569.933	1763.01
570.357	1755.89
570.78	1734.78
571.204	1721.44
571.627	1710.16
572.05	1707.12
572.474	1705.67
572.897	1692.23
573.32	1683.72
573.743	1673.64
574.166	1656.71
574.589	1657.66
575.012	1648.92
575.435	1647.36
575.858	1638.15
576.281	1628.36
576.704	1613.68
577.126	1602.31
577.549	1592.45
577.972	1583.56
578.394	1573.61
578.817	1566.18
579.239	1548.01
579.661	1536.01
580.084	1521.17
580.506	1508.35
580.928	1503.69
581.35	1492.78
581.772	1487.85
582.194	1474.55
582.616	1461.55
583.038	1447.28
583.46	1437.18
583.882	1433.53
584.303	1436.8
584.725	1432.43
585.147	1435.78
585.568	1446.08
585.99	1456.76
586.411	1463.59
586.833	1476.65
587.254	1478.46
587.675	1491.63
588.096	1502.13
588.518	1497.53
588.939	1481.76
589.36	1479.83
589.781	1467.68
590.202	1440.08
590.623	1432.14
591.043	1429.55
591.464	1417.23
591.885	1413.47
592.305	1408.33
592.726	1395.76
593.147	1397.04
593.567	1392.01
593.987	1384.33
594.408	1380.39
594.828	1378.47
595.248	1372.35
595.669	1355.5
596.089	1348.26
596.509	1341.2
596.929	1328.14
597.349	1329.05
597.769	1318.6
598.189	1311.88
598.608	1313.41
599.028	1314.38
599.448	1313.91
599.867	1302.38
600.287	1297.56
600.706	1294.75
601.126	1285.84
601.545	1284.29
601.965	1281.83
602.384	1276.91
602.803	1279.95
603.222	1274.61
603.641	1268.74
604.061	1265
604.48	1260.25
604.898	1267.16
605.317	1270.72
605.736	1271.52
606.155	1269.24
606.574	1260.03
606.992	1264.75
607.411	1259.56
607.829	1250.77
608.248	1246.51
608.666	1244.04
609.085	1243.62
609.503	1235.05
609.921	1228.22
610.339	1229.91
610.758	1227.86
611.176	1223.87
611.594	1214.19
612.012	1209.49
612.43	1213.41
612.847	1218.82
613.265	1218.64
613.683	1220.93
614.101	1221.56
614.518	1217.67
614.936	1207.8
615.353	1193.72
615.771	1189.66
616.188	1188.92
616.606	1185.55
617.023	1177.59
617.44	1164.14
617.857	1157.88
618.274	1149.59
618.691	1143.86
619.108	1134.24
619.525	1127.5
619.942	1133.64
620.359	1135.26
620.776	1130.28
621.192	1126.56
621.609	1124.34
622.026	1129.64
622.442	1133.32
622.859	1135.3
623.275	1127.23
623.691	1132.27
624.108	1141.85
624.524	1152.64
624.94	1152.72
625.356	1160.61
625.772	1171.6
626.188	1181.99
626.604	1183.19
627.02	1179.94
627.436	1178.73
627.852	1185.41
628.268	1196.31
628.683	1188.04
629.099	1181.13
629.514	1175.69
629.93	1178.65
630.345	1182.08
630.761	1177.09
631.176	1179.12
631.591	1174.24
632.007	1168.69
632.422	1166.09
632.837	1154.28
633.252	1152.14
633.667	1141.9
634.082	1133.25
634.497	1122.04
634.911	1104.25
635.326	1099.55
635.741	1082.64
636.155	1072.2
636.57	1071.75
636.984	1069.24
637.399	1069.46
637.813	1067.28
638.228	1064.97
638.642	1066.38
639.056	1055.11
639.47	1053.06
639.884	1043.91
640.298	1037.1
640.712	1033.82
641.126	1020.75
641.54	1011.59
641.954	1004.68
642.368	991.53
642.781	983.1
643.195	965.7
643.609	963.71
644.022	955.28
644.436	948.86
644.849	935.71
645.262	921.86
645.676	920.98
646.089	914.34
646.502	900.22
646.915	894.59
647.328	877.63
647.741	874.23
648.154	862.35
648.567	858.9
648.98	847.59
649.393	846.7
649.805	843.13
650.218	835.01
650.631	820.91
651.043	814.32
651.456	808.12
651.868	807.68
652.28	820.4
652.693	829.41
653.105	833.32
653.517	838.74
653.929	837.44
654.341	840.52
654.753	830.07
655.165	833.64
655.577	829.94
655.989	824.95
656.401	816.38
656.813	787.02
657.224	768.37
657.636	743.4
658.047	728.49
658.459	712.11
658.87	702.85
659.282	691.02
659.693	673.75
660.104	660.05
660.515	646.45
660.926	642.85
661.338	638.53
661.749	631.74
662.159	623.73
662.57	617.96
662.981	611.82
663.392	604.31
663.803	605.72
664.213	601.99
664.624	597.29
665.035	598.32
665.445	585.83
665.855	578.73
666.266	572.19
666.676	568.81
667.086	560.48
667.497	559.19
667.907	553.06
668.317	543.76
668.727	540.49
669.137	539.14
669.547	535.68
669.956	536.84
670.366	536.9
670.776	537.23
671.186	538.42
671.595	541.17
672.005	543.03
672.414	543.28
672.824	542.96
673.233	544.76
673.642	547.32
674.052	549.05
674.461	551.54
674.87	555.02
675.279	553.2
675.688	555.27
676.097	556.89
676.506	555.21
676.915	565.78
677.323	568.47
677.732	567.71
678.141	567.41
678.549	561.86
678.958	561.36
679.366	561.89
679.775	567
680.183	576.93
680.592	582.34
681	588.97
681.408	585.33
681.816	594.29
682.224	603.11
682.632	615.05
683.04	639.87
683.448	662.71
683.856	689.93
684.264	721.22
684.671	749.71
685.079	783.92
685.487	821.56
685.894	875.62
686.302	919.72
686.709	961.05
687.116	1006.67
687.524	1046.1
687.931	1081.63
688.338	1112.89
688.745	1140.02
689.152	1171.76
689.559	1213.55
689.966	1255.89
690.373	1279.68
690.78	1319.19
691.187	1375.75
691.593	1420.33
692	1460.91
692.407	1517.98
692.813	1588.6
693.22	1645.02
693.626	1702.08
694.032	1749.41
694.439	1819.15
694.845	1871.93
695.251	1940.79
695.657	2003.15
696.063	2093.8
696.469	2161.54
696.875	2223.8
697.281	2257.44
697.687	2299.65
698.093	2335.62
