Data from N_3_DEC_OH_4N_Splice17_13-27-20-380.txt Node
Date: Sat Mar 14 13:27:20 EDT 2020
User: sa697716
Spectrometer: FLMS03696
Trigger mode: 0
Integration Time (sec): 3.180400E-1
Scans to average: 20
Electric dark correction enabled: true
Nonlinearity correction enabled: true
Boxcar width: 5
XAxis mode: Wavelengths
Number of Pixels in Spectrum: 2048
>>>>>Begin Spectral Data<<<<<
187.83	-387626.71
188.298	2664.9
188.766	1504.7
189.233	1368.48
189.701	1926.49
190.169	2613.85
190.636	946.71
191.104	752.61
191.571	100.53
192.039	-92.05
192.506	-75.01
192.974	515.5
193.441	-1095.79
193.908	-312.93
194.375	-52.66
194.842	45.76
195.31	170.82
195.777	184.37
196.244	447
196.711	513.67
197.177	654.14
197.644	921.15
198.111	1585.28
198.578	2235.57
199.045	1808.02
199.511	2922.41
199.978	3369.42
200.445	2864.3
200.911	3142.61
201.378	3473.55
201.844	3151.24
202.31	5337.17
202.777	5571.07
203.243	3102.64
203.709	2941.27
204.176	3480.05
204.642	2883.33
205.108	2698.9
205.574	2191.29
206.04	1996.28
206.506	1874.83
206.972	1770.85
207.438	1714.48
207.903	1942.68
208.369	1688.29
208.835	1689.2
209.301	1764.64
209.766	1791.03
210.232	1769.81
210.697	2177.01
211.163	2691.54
211.628	4024.14
212.094	3358.1
212.559	4146.74
213.024	2587.12
213.49	3166.35
213.955	3084.26
214.42	3030.83
214.885	2818.58
215.35	2703.14
215.815	2629.29
216.28	2792.44
216.745	2287.63
217.21	2479.67
217.675	2250.42
218.14	2523.43
218.604	2813.97
219.069	3188.12
219.534	3342.77
219.998	3878.04
220.463	4699
220.927	5740.55
221.392	5395.17
221.856	5457.61
222.32	6848.37
222.785	8493.39
223.249	10680.93
223.713	11890.35
224.177	11901.45
224.642	15227.06
225.106	18738.27
225.57	20468.91
226.034	15251.47
226.497	23218.31
226.961	20928.91
227.425	24424.92
227.889	27019.41
228.353	27017
228.816	55818.65
229.28	53393.87
229.744	45018.05
230.207	27344.24
230.671	26856.88
231.134	44282.86
231.597	50993.34
232.061	50924.6
232.524	49542.38
232.987	34067.34
233.45	30605.85
233.914	27408.58
234.377	28037.1
234.84	25623.21
235.303	30157.75
235.766	33577.79
236.229	34618.04
236.691	21779.85
237.154	24449.22
237.617	18382.73
238.08	18817.16
238.542	21994.2
239.005	15703.1
239.468	15576.73
239.93	14666.98
240.393	13325.66
240.855	11698.78
241.317	11985.55
241.78	14529.87
242.242	15020.39
242.704	16191.46
243.166	14078.78
243.629	12785.11
244.091	14734
244.553	16134.08
245.015	17324.65
245.477	22363.74
245.939	32751.26
246.4	34723.11
246.862	33795.27
247.324	31811.73
247.786	35591.21
248.247	46615.5
248.709	48086.4
249.17	35913.84
249.632	33852.12
250.093	39262.77
250.555	33913.92
251.016	20663.45
251.477	19595.49
251.939	21145.83
252.4	22190.77
252.861	26331.4
253.322	24509.51
253.783	29137.39
254.244	37763.32
254.705	29704.4
255.166	26355.67
255.627	25902.04
256.088	36483.12
256.549	38683.56
257.009	33255.75
257.47	40240.31
257.931	32790.66
258.391	24548.5
258.852	25290.53
259.312	26465.42
259.773	32645.11
260.233	27591.55
260.694	23282.43
261.154	26400.81
261.614	21186.63
262.074	18927.8
262.534	19664.13
262.994	18509.51
263.455	24613.5
263.915	20720.42
264.374	19499.37
264.834	21275.12
265.294	23544.15
265.754	24346.69
266.214	23010.39
266.673	21550.76
267.133	27161.72
267.593	26908.25
268.052	32873.26
268.512	28571.32
268.971	34475.25
269.431	37779.07
269.89	33796.18
270.349	50614
270.809	56453.17
271.268	50702.16
271.727	113532.13
272.186	73547.13
272.645	55160.19
273.104	39799.58
273.563	57571
274.022	45192.52
274.481	38426.3
274.94	29596.68
275.399	21983.86
275.857	25555.64
276.316	34569.91
276.775	30775.77
277.233	30284.46
277.692	28351.76
278.15	32051.58
278.609	32994.06
279.067	30527.97
279.525	28364.95
279.984	36624.1
280.442	44017.7
280.9	43421.37
281.358	28572.94
281.816	26627.64
282.274	26069.7
282.732	26907.45
283.19	27040.58
283.648	23313.24
284.106	24833.04
284.564	25274.15
285.021	23442.59
285.479	17464.75
285.937	15889.49
286.394	13961.07
286.852	14364.81
287.309	15122.69
287.767	14644.91
288.224	13944.94
288.682	15315.89
289.139	16820.19
289.596	15388.29
290.053	15988.77
290.511	20168.7
290.968	24462.25
291.425	33143.43
291.882	27588.92
292.339	24003.51
292.796	23785.44
293.252	22391.41
293.709	17783.04
294.166	15934.62
294.623	17591.24
295.079	16860.48
295.536	16941.99
295.992	15379.44
296.449	15218.91
296.905	15825.85
297.362	15180.24
297.818	15952.16
298.274	16561.49
298.731	16877.94
299.187	16680.56
299.643	17901.52
300.099	21672.86
300.555	23741.48
301.011	19842.7
301.467	19141.34
301.923	22352.44
302.379	21798.99
302.835	21416.76
303.291	21441.89
303.746	24398.29
304.202	30851.4
304.658	30996.18
305.113	20864.49
305.569	20467.68
306.024	21788.49
306.479	20718.74
306.935	17498.56
307.39	19127.12
307.845	17671.81
308.301	17802.27
308.756	17339.12
309.211	16712.89
309.666	17124.65
310.121	21268.49
310.576	21590.01
311.031	21435.74
311.486	24516.13
311.94	24493.54
312.395	32715.81
312.85	61461.83
313.305	301217.85
313.759	1563361.8
314.214	113252.25
314.668	89913.83
315.123	75531.33
315.577	27101.08
316.032	24112.29
316.486	30264.24
316.94	23892.46
317.394	16657.69
317.849	12959.69
318.303	12285.65
318.757	11563.29
319.211	12772.83
319.665	11167.82
320.119	11290.71
320.572	16173.46
321.026	15104.79
321.48	12568.66
321.934	13666.01
322.387	13676.63
322.841	14771.73
323.295	13277.75
323.748	15264.58
324.202	15477.37
324.655	18585.66
325.108	26028.26
325.562	18390.31
326.015	21811.14
326.468	16452.51
326.921	18395.52
327.374	17143.69
327.827	17840.79
328.28	20187.88
328.733	13557.9
329.186	11911.82
329.639	11339.15
330.092	9549.09
330.545	9100.5
330.997	9199.82
331.45	10079.63
331.903	11826.73
332.355	20344.13
332.808	19762.19
333.26	16299.73
333.713	17722.37
334.165	17843.06
334.617	23847.1
335.069	19231.29
335.522	34707.44
335.974	38373.4
336.426	34998.35
336.878	24240.87
337.33	12316.08
337.782	12028.79
338.234	15084.95
338.686	18006.67
339.137	21375.87
339.589	20120.85
340.041	15774.08
340.493	13573.31
340.944	13908.79
341.396	15014.83
341.847	12631.41
342.299	14890.73
342.75	18190.14
343.201	15825.01
343.653	18167.68
344.104	22285.16
344.555	17495.45
345.006	27213.82
345.457	20852.59
345.908	16548.59
346.359	15579.4
346.81	12695.47
347.261	13354.29
347.712	13127.62
348.163	14073.78
348.613	14274.89
349.064	13326.07
349.515	11698.92
349.965	12003.84
350.416	14438.5
350.866	15845.62
351.317	17834.09
351.767	29482.17
352.217	37210.8
352.668	30857.06
353.118	28296.97
353.568	27246.13
354.018	21585.4
354.468	22726.69
354.918	16293.74
355.368	14255.83
355.818	20162.02
356.268	58116.68
356.718	243785.5
357.168	60777.76
357.617	30503.28
358.067	33950.67
358.517	31834.5
358.966	37284.68
359.416	41916.06
359.865	45379.43
360.315	54001.35
360.764	25218.31
361.213	14105.88
361.663	13324.02
362.112	16404.57
362.561	26487.23
363.01	19973.96
363.459	16819.83
363.908	18165.45
364.357	15400.1
364.806	25955.53
365.255	17858.66
365.703	16355.21
366.152	16370.38
366.601	13292.33
367.05	10802.68
367.498	9814.21
367.947	10224.54
368.395	10609.48
368.844	9404.45
369.292	11294.54
369.74	7797.95
370.189	11916.28
370.637	13935.27
371.085	12046.44
371.533	14612.47
371.981	14068.98
372.429	13419.72
372.877	13982.03
373.325	11719.6
373.773	11960.88
374.221	10651
374.669	13229.24
375.116	11436.02
375.564	11528.63
376.012	12833.98
376.459	10579.03
376.907	12651.64
377.354	15277.49
377.801	14245.37
378.249	16302.26
378.696	20771.32
379.143	25125.09
379.591	26674.15
380.038	45069.21
380.485	32541.76
380.932	35219.4
381.379	32261.06
381.826	23705.24
382.273	16806.12
382.72	14637.72
383.166	14254.89
383.613	9220.03
384.06	8287.59
384.506	9596.99
384.953	7014.43
385.4	7028.58
385.846	6129.34
386.292	5949.46
386.739	5814.88
387.185	5740.5
387.631	5737.91
388.078	5571.94
388.524	5947.4
388.97	5496.54
389.416	4571.34
389.862	4867.19
390.308	4613.06
390.754	4685.1
391.2	5095.07
391.645	5195.54
392.091	4995.46
392.537	4833.47
392.983	4819.44
393.428	4766.29
393.874	5096.4
394.319	5132.26
394.765	4894.19
395.21	5050.67
395.655	4747.2
396.101	4447.35
396.546	4034.87
396.991	4061.36
397.436	3782.82
397.881	3681.81
398.326	3485.57
398.771	3330.94
399.216	2922.27
399.661	2635.63
400.106	2643.29
400.551	2731.29
400.995	2461.51
401.44	2447.69
401.885	2318.27
402.329	2362.65
402.774	2280.84
403.218	2229.54
403.663	2157.24
404.107	2235.01
404.551	2272.03
404.995	2094.71
405.44	2023.09
405.884	2066.24
406.328	2013.72
406.772	2020.73
407.216	1850.17
407.66	1798.47
408.104	1717.04
408.547	1616.92
408.991	1577
409.435	1521.93
409.879	1508.29
410.322	1503.37
410.766	1464.04
411.209	1402.19
411.653	1354.51
412.096	1336.68
412.54	1345.74
412.983	1346.55
413.426	1360.96
413.869	1365.17
414.312	1349.16
414.756	1308.49
415.199	1250.2
415.642	1223.89
416.085	1231.38
416.527	1225.2
416.97	1249.8
417.413	1191.7
417.856	1181.02
418.298	1172.94
418.741	1165.94
419.184	1168.09
419.626	1218.04
420.069	1223.59
420.511	1228.33
420.953	1203.66
421.396	1196.97
421.838	1167.85
422.28	1195.99
422.722	1206.01
423.164	1223.77
423.606	1207.82
424.048	1205.23
424.49	1145.84
424.932	1140.55
425.374	1124.98
425.816	1147.32
426.258	1168.71
426.699	1181.84
427.141	1164.92
427.582	1181.72
428.024	1176.55
428.465	1168.64
428.907	1140.07
429.348	1129.24
429.789	1129.17
430.231	1105.91
430.672	1119.17
431.113	1093.74
431.554	1078.7
431.995	1051.01
432.436	1013.78
432.877	990.88
433.318	975.06
433.759	972.03
434.2	970.67
434.64	961.56
435.081	965.81
435.522	917.44
435.962	884.19
436.403	864.5
436.843	878.35
437.284	863.37
437.724	842.01
438.164	844.73
438.604	828.57
439.045	798.97
439.485	768.79
439.925	754.54
440.365	737.24
440.805	731.65
441.245	727.82
441.685	702.95
442.125	699.28
442.564	707.08
443.004	694.6
443.444	696.78
443.883	703.73
444.323	702.08
444.762	708.68
445.202	723.12
445.641	740.02
446.081	740.18
446.52	752.28
446.959	749.21
447.398	737.51
447.837	733.04
448.276	724.15
448.716	735.57
449.154	747.38
449.593	734.83
450.032	737.2
450.471	729.55
450.91	733.3
451.349	734.82
451.787	736.9
452.226	750.47
452.664	754.46
453.103	759.06
453.541	761.11
453.98	762.8
454.418	769.23
454.856	758.17
455.295	758.12
455.733	765.89
456.171	769.96
456.609	769.42
457.047	770.3
457.485	781.91
457.923	783.44
458.361	771.75
458.798	772.64
459.236	769.45
459.674	774.66
460.111	775.8
460.549	767.56
460.987	765.63
461.424	763.64
461.862	757.75
462.299	746.42
462.736	743.91
463.173	746.59
463.611	738.46
464.048	737.23
464.485	742.32
464.922	734.63
465.359	728.51
465.796	719.34
466.233	713.9
466.67	707.62
467.106	704.87
467.543	698.28
467.98	688.07
468.416	670.91
468.853	665.15
469.29	644.77
469.726	638.82
470.162	624.88
470.599	616.99
471.035	612.33
471.471	599.61
471.907	596.66
472.344	595.6
472.78	599.04
473.216	608.26
473.652	603.78
474.088	604.37
474.523	605.27
474.959	611.15
475.395	606.77
475.831	604.82
476.266	608.99
476.702	608.58
477.138	602.13
477.573	601.82
478.008	601.17
478.444	605.51
478.879	612.25
479.314	616.24
479.75	617.55
480.185	621.69
480.62	628.68
481.055	632.2
481.49	638.28
481.925	649.36
482.36	662.53
482.795	681.99
483.229	701.35
483.664	717.75
484.099	721.29
484.534	734.03
484.968	743.14
485.403	747.01
485.837	748.17
486.271	748.78
486.706	751.01
487.14	744.12
487.574	733.89
488.009	728.68
488.443	724.27
488.877	733.85
489.311	738.89
489.745	750.89
490.179	759.79
490.613	777.1
491.046	786.85
491.48	795.61
491.914	800.61
492.348	810.37
492.781	820.11
493.215	826.09
493.648	832.05
494.082	842.13
494.515	846.32
494.948	861.44
495.382	871.92
495.815	882.52
496.248	895.81
496.681	916.67
497.114	936.79
497.547	954.97
497.98	977.65
498.413	991.32
498.846	1009.73
499.279	1027.11
499.711	1039.26
500.144	1048.29
500.577	1068.01
501.009	1088.23
501.442	1107.3
501.874	1114.51
502.306	1123.52
502.739	1138.88
503.171	1164.93
503.603	1175.35
504.036	1193.13
504.468	1205.26
504.9	1225.99
505.332	1241.21
505.764	1250.44
506.196	1264.38
506.627	1289.02
507.059	1311.57
507.491	1327.87
507.923	1328.77
508.354	1352.08
508.786	1370.06
509.217	1398.33
509.649	1421.7
510.08	1449.28
510.512	1474.96
510.943	1497.29
511.374	1513.36
511.805	1542.66
512.237	1571.04
512.668	1616.13
513.099	1656.02
513.53	1694.25
513.961	1720.9
514.391	1764.17
514.822	1808
515.253	1856.48
515.684	1889.18
516.114	1928.4
516.545	1952.77
516.975	1985.47
517.406	2007.07
517.836	2004.49
518.267	2007.89
518.697	2027.9
519.127	2029.08
519.558	2033.98
519.988	2034.03
520.418	2043.15
520.848	2062.25
521.278	2070.3
521.708	2084.46
522.138	2096.34
522.567	2133.85
522.997	2163.53
523.427	2180.23
523.857	2199.03
524.286	2209.18
524.716	2223.73
525.145	2245.46
525.575	2255.3
526.004	2268.75
526.433	2257.72
526.863	2254.05
527.292	2236.1
527.721	2239.3
528.15	2243.5
528.579	2238.55
529.008	2248.91
529.437	2277.19
529.866	2291.96
530.295	2310.78
530.724	2324.47
531.152	2358.14
531.581	2373.86
532.01	2395.46
532.438	2404.34
532.867	2419.38
533.295	2442.16
533.723	2447.35
534.152	2441.36
534.58	2438.56
535.008	2417.78
535.436	2417.9
535.865	2425.98
536.293	2441.59
536.721	2459.17
537.149	2491.12
537.576	2492.95
538.004	2508.29
538.432	2517.07
538.86	2512.79
539.287	2518.49
539.715	2532.47
540.143	2536.09
540.57	2528.41
540.998	2522.47
541.425	2491.15
541.852	2461.49
542.28	2457.56
542.707	2433.86
543.134	2414.17
543.561	2408.81
543.988	2399.4
544.415	2397.95
544.842	2389.27
545.269	2380.31
545.696	2383.44
546.123	2400.54
546.549	2385.17
546.976	2369.46
547.403	2368.51
547.829	2372.53
548.256	2374.58
548.682	2369.89
549.108	2361.18
549.535	2360.81
549.961	2363.51
550.387	2344.68
550.813	2338.57
551.24	2349.27
551.666	2351.06
552.092	2340.88
552.518	2332.33
552.943	2325.76
553.369	2336.73
553.795	2343.93
554.221	2346.53
554.646	2344.48
555.072	2360.92
555.498	2368.89
555.923	2383.41
556.349	2406.58
556.774	2419.83
557.199	2424.37
557.625	2434.12
558.05	2429.15
558.475	2447.01
558.9	2449.21
559.325	2440.55
559.75	2435.99
560.175	2429.79
560.6	2423.69
561.025	2424.31
561.449	2428.81
561.874	2439.78
562.299	2449.55
562.723	2462.81
563.148	2453.21
563.572	2462.63
563.997	2481.31
564.421	2493.18
564.846	2498.58
565.27	2506.61
565.694	2506.68
566.118	2528.28
566.542	2542.69
566.966	2537.76
567.39	2536.69
567.814	2526.57
568.238	2529.14
568.662	2540.19
569.086	2547.56
569.509	2563.14
569.933	2546.14
570.357	2540.68
570.78	2514.89
571.204	2500.71
571.627	2491.16
572.05	2493.76
572.474	2497.16
572.897	2484.24
573.32	2477.84
573.743	2468.61
574.166	2445.79
574.589	2451.99
575.012	2447.05
575.435	2450.21
575.858	2443.12
576.281	2432.92
576.704	2414.64
577.126	2402.71
577.549	2391.07
577.972	2382.2
578.394	2372.64
578.817	2368.02
579.239	2345.8
579.661	2329.94
580.084	2311.09
580.506	2295.48
580.928	2293.2
581.35	2279.88
581.772	2277.37
582.194	2263.23
582.616	2248.11
583.038	2230.6
583.46	2218.3
583.882	2215.94
584.303	2224.47
584.725	2221.3
585.147	2225.83
585.568	2244.23
585.99	2265.1
586.411	2276.26
586.833	2299.48
587.254	2302.33
587.675	2325.38
588.096	2345.54
588.518	2340.83
588.939	2318.73
589.36	2317.59
589.781	2305.25
590.202	2262.11
590.623	2250.18
591.043	2248.85
591.464	2231.57
591.885	2228.36
592.305	2220.45
592.726	2201.43
593.147	2205.05
593.567	2196.77
593.987	2187.31
594.408	2179.3
594.828	2179.01
595.248	2171.3
595.669	2143.37
596.089	2133.07
596.509	2124.28
596.929	2105.56
597.349	2105.82
597.769	2090.56
598.189	2083.29
598.608	2084.63
599.028	2089.48
599.448	2091.71
599.867	2073.35
600.287	2068.12
600.706	2064.11
601.126	2050.78
601.545	2048.17
601.965	2049.22
602.384	2043.07
602.803	2048.02
603.222	2043.2
603.641	2035.03
604.061	2029.08
604.48	2024.91
604.898	2038.13
605.317	2047.08
605.736	2052.89
606.155	2052.84
606.574	2040.39
606.992	2050.85
607.411	2046.56
607.829	2035.56
608.248	2033.93
608.666	2033.93
609.085	2035.4
609.503	2026.94
609.921	2019.61
610.339	2024.65
610.758	2026.53
611.176	2023.35
611.594	2011.68
612.012	2009.25
612.43	2018.91
612.847	2031.02
613.265	2035.61
613.683	2045.32
614.101	2049.89
614.518	2047.28
614.936	2034.82
615.353	2014.47
615.771	2012.27
616.188	2015.5
616.606	2011.39
617.023	2001.42
617.44	1981.19
617.857	1972.55
618.274	1961.22
618.691	1953.05
619.108	1940.03
619.525	1932.15
619.942	1944.49
620.359	1949.21
620.776	1941.91
621.192	1937.31
621.609	1935.94
622.026	1947.59
622.442	1957.18
622.859	1965.37
623.275	1955.58
623.691	1965.48
624.108	1984.87
624.524	2007.54
624.94	2008.69
625.356	2025.51
625.772	2046.85
626.188	2065.83
626.604	2068.22
627.02	2063.02
627.436	2057.41
627.852	2067.91
628.268	2086.62
628.683	2072.23
629.099	2058.28
629.514	2051.34
629.93	2057.75
630.345	2064.01
630.761	2057.25
631.176	2061.62
631.591	2051.08
632.007	2041.99
632.422	2037.85
632.837	2019.9
633.252	2014.69
633.667	1998.2
634.082	1983
634.497	1960.76
634.911	1929.46
635.326	1923.12
635.741	1896.18
636.155	1880.06
636.57	1880.76
636.984	1879.29
637.399	1880.48
637.813	1877.07
638.228	1874.15
638.642	1878.16
639.056	1861.13
639.47	1858.96
639.884	1843.69
640.298	1831.1
640.712	1826.19
641.126	1804.8
641.54	1789.16
641.954	1778.19
642.368	1757.97
642.781	1741.71
643.195	1712.4
643.609	1710.18
644.022	1698.77
644.436	1689.62
644.849	1669.94
645.262	1650.06
645.676	1650
646.089	1641.06
646.502	1616.13
646.915	1606.21
647.328	1579.41
647.741	1574.5
648.154	1554.18
648.567	1548.53
648.98	1528.38
649.393	1527.22
649.805	1521.47
650.218	1508.62
650.631	1483.74
651.043	1474.26
651.456	1464.67
651.868	1465.32
652.28	1490.46
652.693	1510.07
653.105	1520
653.517	1532
653.929	1531.68
654.341	1539.02
654.753	1521.25
655.165	1530.82
655.577	1526.29
655.989	1519.06
656.401	1507.44
656.813	1452.78
657.224	1420.93
657.636	1377.19
658.047	1350.07
658.459	1320.33
658.87	1304.55
659.282	1284.62
659.693	1249.71
660.104	1224.88
660.515	1201.61
660.926	1192.94
661.338	1183.11
661.749	1169
662.159	1150.46
662.57	1138.47
662.981	1125.4
663.392	1107.85
663.803	1106.79
664.213	1097.14
664.624	1084.88
665.035	1081.44
665.445	1056.4
665.855	1041.63
666.266	1024.13
666.676	1013.47
667.086	994.25
667.497	986.38
667.907	972.45
668.317	953.17
668.727	943.6
669.137	938.39
669.547	929.36
669.956	927.69
670.366	922.86
670.776	920.1
671.186	919.35
671.595	919.06
672.005	918.67
672.414	914.01
672.824	909.17
673.233	908.91
673.642	906.82
674.052	907.45
674.461	906.97
674.87	910.54
675.279	906.23
675.688	906.62
676.097	906.58
676.506	902.19
676.915	918.4
677.323	922.14
677.732	921.45
678.141	923.76
678.549	913.83
678.958	915.31
679.366	918.63
679.775	928
680.183	946.66
680.592	959.88
681	974.57
681.408	974.78
681.816	995.3
682.224	1018.05
682.632	1042.23
683.04	1093.63
683.448	1140.2
683.856	1196.86
684.264	1262.22
684.671	1325.16
685.079	1400.02
685.487	1482.92
685.894	1592.05
686.302	1684.8
686.709	1764.83
687.116	1857.52
687.524	1935.86
687.931	2004.75
688.338	2063.12
688.745	2112.21
689.152	2165.04
689.559	2234.81
689.966	2296.29
690.373	2324.88
690.78	2379.9
691.187	2465.92
691.593	2526.3
692	2574.13
692.407	2650.64
692.813	2742.78
693.22	2811.55
693.626	2882.9
694.032	2929.42
694.439	3014.68
694.845	3071.78
695.251	3152.96
695.657	3221.18
