Data from N_3_DEC_CT_2N_Splice17_13-01-57-764.txt Node
Date: Sat Mar 14 13:01:57 EDT 2020
User: sa697716
Spectrometer: FLMS03696
Trigger mode: 0
Integration Time (sec): 3.180400E-1
Scans to average: 20
Electric dark correction enabled: true
Nonlinearity correction enabled: true
Boxcar width: 5
XAxis mode: Wavelengths
Number of Pixels in Spectrum: 2048
>>>>>Begin Spectral Data<<<<<
187.83	-346582.41
188.298	2480.42
188.766	1321.04
189.233	1151.58
189.701	1565.42
190.169	2159.61
190.636	840.3
191.104	772.92
191.571	170.93
192.039	-10.09
192.506	38.11
192.974	538.2
193.441	-771.4
193.908	-180.37
194.375	-4.69
194.842	22.64
195.31	122
195.777	191.17
196.244	403.11
196.711	487.95
197.177	604.58
197.644	868.29
198.111	1518.87
198.578	2119.13
199.045	1695.34
199.511	2736.34
199.978	3168.42
200.445	2680.93
200.911	2952.27
201.378	3307.38
201.844	3002.53
202.31	5136.41
202.777	5364.4
203.243	2975.73
203.709	2806.68
204.176	3308.64
204.642	2714.41
205.108	2551.8
205.574	2074.1
206.04	1897.7
206.506	1795.59
206.972	1698.78
207.438	1642.93
207.903	1870.84
208.369	1642.9
208.835	1645.81
209.301	1750.53
209.766	1798.31
210.232	1776.86
210.697	2212.42
211.163	2747.82
211.628	4149.76
212.094	3498.58
212.559	4308.33
213.024	2682.47
213.49	3303.57
213.955	3246.88
214.42	3168.3
214.885	2956.72
215.35	2870.19
215.815	2770.48
216.28	2956.82
216.745	2418.77
217.21	2629.52
217.675	2438.02
218.14	2775.25
218.604	3127.98
219.069	3594.27
219.534	3808.75
219.998	4472.84
220.463	5461.24
220.927	6780.02
221.392	6416.82
221.856	6534.14
222.32	8270.92
222.785	10246.61
223.249	12926.69
223.713	14460.06
224.177	14513.95
224.642	18655.27
225.106	23018.06
225.57	25199.13
226.034	18746.5
226.497	28549.83
226.961	25788.54
227.425	30059.74
227.889	33361.14
228.353	33433.99
228.816	69055.77
229.28	65973.99
229.744	55707.04
230.207	33855.56
230.671	33293.96
231.134	55164.5
231.597	63645.28
232.061	63639.7
232.524	62033.28
232.987	42781.77
233.45	38475.96
233.914	34480.79
234.377	35372.82
234.84	32344.24
235.303	38122.54
235.766	42584.21
236.229	43943.98
236.691	27661
237.154	31074.51
237.617	23405.32
238.08	23951.64
238.542	28013.47
239.005	20030.98
239.468	19849.71
239.93	18685.03
240.393	16987.67
240.855	14897.16
241.317	15272.35
241.78	18573.84
242.242	19203.59
242.704	20695.13
243.166	18016.86
243.629	16344.74
244.091	18833.22
244.553	20664.44
245.015	22222.61
245.477	28736.14
245.939	42128.16
246.4	44754.3
246.862	43541.24
247.324	41073.62
247.786	46011.37
248.247	60372.5
248.709	62319.84
249.17	46592.41
249.632	43858.98
250.093	50891.93
250.555	43978.67
251.016	26811.41
251.477	25428.08
251.939	27448.82
252.4	28807.83
252.861	34237.99
253.322	31822.84
253.783	37952.38
254.244	49298.64
254.705	38957.98
255.166	34637.75
255.627	34097.95
256.088	48126.87
256.549	51134.69
257.009	44053.51
257.47	53492.72
257.931	43579.53
258.391	32689.26
258.852	33716.91
259.312	35360.09
259.773	43669.88
260.233	36943.49
260.694	31192.88
261.154	35412.91
261.614	28407.78
262.074	25435.21
262.534	26430.94
262.994	24932.61
263.455	33250.31
263.915	28025.55
264.374	26406.95
264.834	28874.87
265.294	32030.88
265.754	33174.21
266.214	31440.36
266.673	29465.97
267.133	37172.64
267.593	36881.41
268.052	45182
268.512	39318.29
268.971	47379.71
269.431	52000.65
269.89	46557.54
270.349	69786.12
270.809	77880.58
271.268	69937.05
271.727	156942.66
272.186	101819.86
272.645	76394.3
273.104	55115.18
273.563	79761.51
274.022	62772.66
274.481	53358.58
274.94	41134.92
275.399	30576.38
275.857	35616.98
276.316	48240.05
276.775	42926.09
277.233	42205.85
277.692	39496.31
278.15	44660.28
278.609	45927.22
279.067	42554.02
279.525	39542.31
279.984	51015.93
280.442	61297.22
280.9	60361.8
281.358	39705.28
281.816	37029.74
282.274	36270.05
282.732	37513.26
283.19	37733.01
283.648	32606.55
284.106	34726.81
284.564	35336.6
285.021	32782.34
285.479	24447.05
285.937	22251.93
286.394	19516.61
286.852	20085.67
287.309	21125.54
287.767	20411.6
288.224	19398.65
288.682	21270.49
289.139	23324.67
289.596	21345.47
290.053	22193.41
290.511	28011.94
290.968	33992.17
291.425	46173.32
291.882	38426.26
292.339	33420.69
292.796	33165.58
293.252	31261.92
293.709	24835.28
294.166	22260.6
294.623	24581.19
295.079	23575.2
295.536	23697.07
295.992	21497.04
296.449	21226.17
296.905	22044.24
297.362	21129.73
297.818	22199.72
298.274	23030.98
298.731	23461.48
299.187	23222.05
299.643	24932.68
300.099	30156.27
300.555	33042.53
301.011	27603.38
301.467	26573.14
301.923	31107.32
302.379	30350.52
302.835	29814.56
303.291	29827.75
303.746	33953.17
304.202	42873.66
304.658	43043.04
305.113	28934.37
305.569	28312.26
306.024	30186.78
306.479	28779.67
306.935	24249.94
307.39	26537.02
307.845	24493.04
308.301	24645.93
308.756	23987.49
309.211	23107.2
309.666	23657.41
310.121	29343.63
310.576	29780.51
311.031	29529.34
311.486	33779.42
311.94	33744.22
312.395	45055.39
312.85	84693.02
313.305	415853.14
313.759	2153240.18
314.214	155825.45
314.668	123427.41
315.123	103737.04
315.577	37242.67
316.032	33124.43
316.486	41560.23
316.94	32799.43
317.394	22833.42
317.849	17755.05
318.303	16816.92
318.757	15853.38
319.211	17532.3
319.665	15356.82
320.119	15540.92
320.572	22291.81
321.026	20803.36
321.48	17299.38
321.934	18868.52
322.387	18909.89
322.841	20412.23
323.295	18323.98
323.748	21131.86
324.202	21450.64
324.655	25748.64
325.108	35966.07
325.562	25394.14
326.015	30192.77
326.468	22827.01
326.921	25506.45
327.374	23775.68
327.827	24747.05
328.28	28003.62
328.733	18744.74
329.186	16476.99
329.639	15698.08
330.092	13238.25
330.545	12589.18
330.997	12687.89
331.45	13864.33
331.903	16226.04
332.355	27880.74
332.808	27060.2
333.26	22331.61
333.713	24209.49
334.165	24342.46
334.617	32434.31
335.069	26200.33
335.522	47332.89
335.974	52373.45
336.426	47767.99
336.878	33121.24
337.33	16800.24
337.782	16422.68
338.234	20561.26
338.686	24608.33
339.137	29151.7
339.589	27484.69
340.041	21528.74
340.493	18513.21
340.944	18924.47
341.396	20375.19
341.847	17110.83
342.299	20168.43
342.75	24615.53
343.201	21519.12
343.653	24722.88
344.104	30422.63
344.555	23981.93
345.006	37349.29
345.457	28624.04
345.908	22810.54
346.359	21447.44
346.81	17490.88
347.261	18443.32
347.712	18157.26
348.163	19445.02
348.613	19696.38
349.064	18373.62
349.515	16053.92
349.965	16438.01
350.416	19766.09
350.866	21636.97
351.317	24457.58
351.767	40474.91
352.217	51126.81
352.668	42350.38
353.118	38789.28
353.568	37389.46
354.018	29560.56
354.468	31189.32
354.918	22406.29
355.368	19598.46
355.818	27718.71
356.268	79743.23
356.718	333629.29
357.168	82944.06
357.617	41641.53
358.067	46291.16
358.517	43304.27
358.966	50726.11
359.416	56818.6
359.865	61319.13
360.315	73058.77
360.764	34114.58
361.213	19099.22
361.663	18098.35
362.112	22338.33
362.561	36051.16
363.01	27240.2
363.459	22956.63
363.908	24820.69
364.357	21073.71
364.806	35550.63
365.255	24420.48
365.703	22366.14
366.152	22396.91
366.601	18147.97
367.05	14727.36
367.498	13394.22
367.947	13961.47
368.395	14517.42
368.844	12855.21
369.292	15500.89
369.74	10729.35
370.189	16424.13
370.637	19225.42
371.085	16577.49
371.533	20166.7
371.981	19436.38
372.429	18503.79
372.877	19255.99
373.325	16072.77
373.773	16348.73
374.221	14518.9
374.669	17916.43
375.116	15469.16
375.564	15574.75
376.012	17407.36
376.459	14329.82
376.907	17084.84
377.354	20626.42
377.801	19203.29
378.249	22064.39
378.696	28190.75
379.143	34162.47
379.591	36424.27
380.038	61433.66
380.485	44346.26
380.932	47832.44
381.379	43718.82
381.826	32071.49
382.273	22745.67
382.72	19882.43
383.166	19330.57
383.613	12530.63
384.06	11255.11
384.506	12996.63
384.953	9532.07
385.4	9568.72
385.846	8365.04
386.292	8112.95
386.739	7946.88
387.185	7860.98
387.631	7825.53
388.078	7588.35
388.524	8113.36
388.97	7473.4
389.416	6228.12
389.862	6611.24
390.308	6250.67
390.754	6327.97
391.2	6877.54
391.645	7020.5
392.091	6700.36
392.537	6482.91
392.983	6476.63
393.428	6343
393.874	6792.45
394.319	6810.51
394.765	6456.46
395.21	6631.79
395.655	6198.23
396.101	5779.46
396.546	5212.64
396.991	5242.58
397.436	4856.93
397.881	4680.97
398.326	4426.37
398.771	4178.22
399.216	3645.31
399.661	3272.04
400.106	3256.42
400.551	3338.29
400.995	2993.91
401.44	2956.13
401.885	2772.52
402.329	2798.91
402.774	2684.63
403.218	2593.94
403.663	2494.82
404.107	2556.88
404.551	2575.8
404.995	2352.9
405.44	2259.37
405.884	2290.55
406.328	2207.66
406.772	2198.31
407.216	1996.77
407.66	1922.31
408.104	1823.26
408.547	1707.43
408.991	1649.29
409.435	1579.45
409.879	1558.64
410.322	1534.44
410.766	1480.23
411.209	1409.83
411.653	1349.69
412.096	1322.43
412.54	1323.59
412.983	1313.77
413.426	1317.38
413.869	1315.6
414.312	1292.25
414.756	1243.04
415.199	1188.89
415.642	1152.02
416.085	1149.99
416.527	1142.31
416.97	1159.46
417.413	1100.59
417.856	1087.43
418.298	1073.13
418.741	1066.8
419.184	1062.04
419.626	1105.1
420.069	1101.55
420.511	1108.67
420.953	1087.92
421.396	1076.56
421.838	1047.19
422.28	1069.05
422.722	1073.73
423.164	1087.95
423.606	1069.27
424.048	1066.66
424.49	1013.75
424.932	1009.34
425.374	992.64
425.816	1009.3
426.258	1027.46
426.699	1036.14
427.141	1021.39
427.582	1035.71
428.024	1029.27
428.465	1020.51
428.907	996.95
429.348	985.08
429.789	985.77
430.231	967.19
430.672	977.13
431.113	953.77
431.554	940.92
431.995	916.7
432.436	884.7
432.877	864.76
433.318	850.82
433.759	847.75
434.2	846.84
434.64	837.43
435.081	838.46
435.522	795.04
435.962	767.96
436.403	751.07
436.843	761.49
437.284	745.38
437.724	727.02
438.164	727.52
438.604	708.79
439.045	681.43
439.485	653.43
439.925	638.96
440.365	622.69
440.805	612.94
441.245	606.05
441.685	582.81
442.125	576.57
442.564	580.56
443.004	567.9
443.444	567.6
443.883	568.35
444.323	561.98
444.762	561.18
445.202	565.91
445.641	576.17
446.081	571.49
446.52	576.34
446.959	573.25
447.398	558.25
447.837	550.11
448.276	539.87
448.716	544.58
449.154	548.79
449.593	536.75
450.032	536.67
450.471	524.07
450.91	523.81
451.349	521.36
451.787	518.05
452.226	523.56
452.664	523.47
453.103	523.67
453.541	521.88
453.98	521.95
454.418	525.85
454.856	517.65
455.295	516.91
455.733	520.51
456.171	522.61
456.609	520.85
457.047	520.63
457.485	528.18
457.923	529.09
458.361	521.38
458.798	521.98
459.236	520.07
459.674	522.29
460.111	525.77
460.549	520.4
460.987	518.66
461.424	517.7
461.862	514.98
462.299	506.87
462.736	506.44
463.173	508.64
463.611	504.88
464.048	503.26
464.485	507.51
464.922	501.77
465.359	498.93
465.796	495.33
466.233	492.29
466.67	488.81
467.106	487.27
467.543	481.98
467.98	475.32
468.416	461.66
468.853	457.69
469.29	443.35
469.726	438.42
470.162	426.26
470.599	417.87
471.035	412.91
471.471	402.32
471.907	400.09
472.344	397.16
472.78	398.97
473.216	403.52
473.652	398.63
474.088	397.87
474.523	397.87
474.959	402.09
475.395	398
475.831	396.25
476.266	397.85
476.702	396.8
477.138	392.27
477.573	390.02
478.008	387.49
478.444	389.1
478.879	393.02
479.314	393.74
479.75	392.85
480.185	394.64
480.62	397.2
481.055	399.46
481.49	401.56
481.925	407.15
482.36	414.95
482.795	426.21
483.229	436.95
483.664	445.02
484.099	445.88
484.534	453.39
484.968	457.42
485.403	457.97
485.837	456.43
486.271	455.15
486.706	454.6
487.14	447.73
487.574	440.82
488.009	435.96
488.443	431.35
488.877	435.54
489.311	434.86
489.745	439.1
490.179	442.82
490.613	451.27
491.046	454.33
491.48	457.97
491.914	458.13
492.348	461.15
492.781	463.84
493.215	465.59
493.648	466.17
494.082	470.17
494.515	471.1
494.948	476.75
495.382	479.62
495.815	483.58
496.248	487.8
496.681	497.64
497.114	505.52
497.547	513.54
497.98	522.7
498.413	528.08
498.846	535.79
499.279	542.54
499.711	545.57
500.144	548.82
500.577	557.22
501.009	565.69
501.442	574.44
501.874	576.46
502.306	579.87
502.739	588.28
503.171	600.54
503.603	604.8
504.036	612.94
504.468	619.81
504.9	629.41
505.332	636.66
505.764	642.52
506.196	649.59
506.627	663.98
507.059	675.68
507.491	683.02
507.923	685.44
508.354	699.45
508.786	710.68
509.217	728.09
509.649	743.06
510.08	760.16
510.512	776.66
510.943	791.88
511.374	804.91
511.805	825.5
512.237	845.23
512.668	874.17
513.099	900.32
513.53	926.6
513.961	947.3
514.391	976.96
514.822	1009.81
515.253	1043.22
515.684	1069.28
516.114	1098.21
516.545	1120.65
516.975	1148.15
517.406	1167.67
517.836	1175.93
518.267	1187.2
518.697	1208.1
519.127	1217.78
519.558	1228.37
519.988	1237.29
520.418	1251.58
520.848	1270.77
521.278	1284.22
521.708	1314.06
522.138	1329.98
522.567	1361.31
522.997	1387.79
523.427	1405.41
523.857	1424.98
524.286	1438
524.716	1454.78
525.145	1474.54
525.575	1488.62
526.004	1504.42
526.433	1493.51
526.863	1497.55
527.292	1492.13
527.721	1500.45
528.15	1508.79
528.579	1511.84
529.008	1524.6
529.437	1548.89
529.866	1565.19
530.295	1582.98
530.724	1596.65
531.152	1623.85
531.581	1639.41
532.01	1657.48
532.438	1667.73
532.867	1683.09
533.295	1701.92
533.723	1710.19
534.152	1709.62
534.58	1709.94
535.008	1697.11
535.436	1700.39
535.865	1708.41
536.293	1722.89
536.721	1739.32
537.149	1763.32
537.576	1766.57
538.004	1780.09
538.432	1787.32
538.86	1785.83
539.287	1793.25
539.715	1806.82
540.143	1808.24
540.57	1804.1
540.998	1800.62
541.425	1778.98
541.852	1759.58
542.28	1758.78
542.707	1742.97
543.134	1729.48
543.561	1725.47
543.988	1718.89
544.415	1719.18
544.842	1714.91
545.269	1709.23
545.696	1711.77
546.123	1725.12
546.549	1715.97
546.976	1703.59
547.403	1703.54
547.829	1706.82
548.256	1710.75
548.682	1707.76
549.108	1701.34
549.535	1702.25
549.961	1704.64
550.387	1692.2
550.813	1687.06
551.24	1694.27
551.666	1696.13
552.092	1687.96
552.518	1682.24
552.943	1675.86
553.369	1682.33
553.795	1687.15
554.221	1687.93
554.646	1686.06
555.072	1696.82
555.498	1700.38
555.923	1708.74
556.349	1722.04
556.774	1729.59
557.199	1730.22
557.625	1735.74
558.05	1730.86
558.475	1739.44
558.9	1738.68
559.325	1731.36
559.75	1723.75
560.175	1717.47
560.6	1708.79
561.025	1705.03
561.449	1705.11
561.874	1708.97
562.299	1711.82
562.723	1716.67
563.148	1706.11
563.572	1707.11
563.997	1712.52
564.421	1715.36
564.846	1713.18
565.27	1714.65
565.694	1711.83
566.118	1719.97
566.542	1725.29
566.966	1716.33
567.39	1709.57
567.814	1695.75
568.238	1691.79
568.662	1694.48
569.086	1694.41
569.509	1699.01
569.933	1683.45
570.357	1672.91
570.78	1649.67
571.204	1634.37
571.627	1622.32
572.05	1617.29
572.474	1614.72
572.897	1601.49
573.32	1592.28
573.743	1580.56
574.166	1561.42
574.589	1558.59
575.012	1550.24
575.435	1548.22
575.858	1537.53
576.281	1525.27
576.704	1509.77
577.126	1496.82
577.549	1485.98
577.972	1474.42
578.394	1463.51
578.817	1456.49
579.239	1437.88
579.661	1424.36
580.084	1409.21
580.506	1395.59
580.928	1390.19
581.35	1379.04
581.772	1375.21
582.194	1361.41
582.616	1349.3
583.038	1334.61
583.46	1323.29
583.882	1319.93
584.303	1322.55
584.725	1316.6
585.147	1318.64
585.568	1326.69
585.99	1336.89
586.411	1342.08
586.833	1354.15
587.254	1354.53
587.675	1367.34
588.096	1376.66
588.518	1370.43
588.939	1355
589.36	1351.74
589.781	1340.74
590.202	1316.49
590.623	1307.19
591.043	1302.06
591.464	1289.73
591.885	1285.5
592.305	1279.2
592.726	1266.56
593.147	1267.07
593.567	1261.04
593.987	1256.11
594.408	1249.99
594.828	1246.87
595.248	1241.02
595.669	1225.91
596.089	1219.65
596.509	1211.84
596.929	1199.82
597.349	1200.52
597.769	1190.56
598.189	1184.94
598.608	1185.36
599.028	1187.63
599.448	1186.29
599.867	1175.48
600.287	1170.41
600.706	1165.81
601.126	1158.42
601.545	1155.68
601.965	1152.9
602.384	1148.16
602.803	1150.01
603.222	1143.26
603.641	1136.1
604.061	1132.18
604.48	1127.08
604.898	1132.54
605.317	1136.3
605.736	1136.73
606.155	1135.06
606.574	1126.35
606.992	1129.21
607.411	1123.11
607.829	1120.42
608.248	1116.91
608.666	1114.14
609.085	1112.92
609.503	1104.84
609.921	1098.54
610.339	1098.86
610.758	1096.55
611.176	1091.4
611.594	1082.3
612.012	1078.07
612.43	1075.16
612.847	1078.57
613.265	1077.5
613.683	1079.4
614.101	1078.92
614.518	1072.5
614.936	1063.38
615.353	1050.43
615.771	1046.4
616.188	1046.7
616.606	1043.24
617.023	1035.69
617.44	1022.72
617.857	1016.92
618.274	1008.51
618.691	1002.79
619.108	994.75
619.525	987.75
619.942	991.24
620.359	992.96
620.776	986.45
621.192	982.2
621.609	979.75
622.026	984.18
622.442	986.46
622.859	988.42
623.275	981.89
623.691	985.84
624.108	995.02
624.524	1004.82
624.94	1003.84
625.356	1012.11
625.772	1021.59
626.188	1030.79
626.604	1032.5
627.02	1029.34
627.436	1026.82
627.852	1032.15
628.268	1041.46
628.683	1034.22
629.099	1027.4
629.514	1022.91
629.93	1024.76
630.345	1027.17
630.761	1023.13
631.176	1024.21
631.591	1019.99
632.007	1015.79
632.422	1012.51
632.837	1002.81
633.252	999.7
633.667	990.24
634.082	982.03
634.497	970.72
634.911	955.3
635.326	950.21
635.741	935.14
636.155	924.58
636.57	922.48
636.984	920.74
637.399	920.64
637.813	916.38
638.228	912.54
638.642	912.6
639.056	902.27
639.47	898.42
639.884	888.8
640.298	880.99
640.712	877.26
641.126	864.85
641.54	854.01
641.954	844.01
642.368	832.51
642.781	825.17
643.195	809.3
643.609	806.97
644.022	800.17
644.436	793.37
644.849	782.33
645.262	771.47
645.676	770.1
646.089	764.57
646.502	753.59
646.915	747.26
647.328	733.75
647.741	731
648.154	720
648.567	717.37
648.98	708.46
649.393	707.84
649.805	704.71
650.218	697.71
650.631	686.54
651.043	681.36
651.456	677.38
651.868	676.64
652.28	687.37
652.693	694.88
653.105	697.94
653.517	703.41
653.929	703.48
654.341	705.44
654.753	696.61
655.165	699.65
655.577	696.4
655.989	692.42
656.401	685.95
656.813	661.11
657.224	647.69
657.636	627.35
658.047	614.81
658.459	599.54
658.87	592.56
659.282	583.89
659.693	570.61
660.104	561.2
660.515	551.09
660.926	549.24
661.338	546.63
661.749	541.6
662.159	535.21
662.57	531.16
662.981	528.24
663.392	522.59
663.803	525.02
664.213	521.96
664.624	518.44
665.035	520.43
665.445	510.91
665.855	506.33
666.266	501.71
666.676	501.09
667.086	495.13
667.497	496.33
667.907	494
668.317	489.41
668.727	490.25
669.137	491.11
669.547	489.77
669.956	491.98
670.366	494.59
670.776	496.44
671.186	498.61
671.595	502.99
672.005	504.72
672.414	505.58
672.824	504.87
673.233	506.14
673.642	508.47
674.052	511.54
674.461	515.31
674.87	518.36
675.279	517.52
675.688	518.98
676.097	520.38
676.506	519.78
676.915	529.74
677.323	532.45
677.732	532.98
678.141	533.6
678.549	527.96
678.958	527.05
679.366	527.46
679.775	532.27
680.183	542.66
680.592	548.4
681	553.37
681.408	548.87
681.816	555.55
682.224	562.02
682.632	571.13
683.04	592.59
683.448	611.03
683.856	634.74
684.264	659.86
684.671	680.87
685.079	708.93
685.487	740.94
685.894	786.63
686.302	822.57
686.709	855.12
687.116	892.34
687.524	925.3
687.931	953.3
688.338	979.09
688.745	1001.87
689.152	1031.23
689.559	1067.86
689.966	1105.45
690.373	1126.54
690.78	1164.3
691.187	1217.79
691.593	1260.86
692	1299.72
692.407	1356.93
692.813	1425.69
693.22	1483.98
693.626	1542.36
694.032	1591.13
694.439	1661.97
694.845	1722.49
695.251	1796.01
695.657	1862.38
696.063	1957.17
696.469	2032.23
696.875	2103.32
697.281	2148.04
697.687	2200.79
698.093	2247.47
698.498	2326.63
698.904	2392.28
