Data from N_3_DIV_IL_4N_Splice17_13-21-00-418.txt Node
Date: Sat Mar 14 13:21:00 EDT 2020
User: sa697716
Spectrometer: FLMS03696
Trigger mode: 0
Integration Time (sec): 3.180400E-1
Scans to average: 20
Electric dark correction enabled: true
Nonlinearity correction enabled: true
Boxcar width: 5
XAxis mode: Wavelengths
Number of Pixels in Spectrum: 2048
>>>>>Begin Spectral Data<<<<<
187.83	-370522.7
188.298	2661.71
188.766	1437.81
189.233	1296.82
189.701	1801.49
190.169	2465.84
190.636	959.83
191.104	792.11
191.571	123.72
192.039	-20.86
192.506	-21.06
192.974	582.57
193.441	-982.36
193.908	-236.69
194.375	-77.53
194.842	0.98
195.31	91.19
195.777	176.85
196.244	394.21
196.711	423.13
197.177	542.75
197.644	749.67
198.111	1298.91
198.578	1817.23
199.045	1459.54
199.511	2373.29
199.978	2729.45
200.445	2319.33
200.911	2560.02
201.378	2847.92
201.844	2604.08
202.31	4455.69
202.777	4624.71
203.243	2564.43
203.709	2438.78
204.176	2873.14
204.642	2381.87
205.108	2220.13
205.574	1813.43
206.04	1635.37
206.506	1522
206.972	1420.04
207.438	1372.35
207.903	1557.35
208.369	1360.97
208.835	1359.7
209.301	1423.41
209.766	1430.79
210.232	1415.75
210.697	1732.06
211.163	2139.62
211.628	3189.21
212.094	2684.1
212.559	3303.11
213.024	2036.72
213.49	2480.32
213.955	2392.23
214.42	2299.16
214.885	2148.03
215.35	2042.03
215.815	1965
216.28	2065.62
216.745	1661.04
217.21	1776.94
217.675	1575.13
218.14	1729.11
218.604	1860.26
219.069	2059.66
219.534	2127.03
219.998	2390.15
220.463	2804.52
220.927	3298.35
221.392	3014.09
221.856	3018.15
222.32	3677.24
222.785	4491.24
223.249	5548.63
223.713	6112.33
224.177	6059.23
224.642	7637.2
225.106	9299.24
225.57	10115.29
226.034	7560.46
226.497	11512.16
226.961	10360.37
227.425	12109.86
227.889	13334.52
228.353	13329.57
228.816	27359.91
229.28	26101.53
229.744	21962.8
230.207	13369.24
230.671	13125.14
231.134	21509.8
231.597	24761.07
232.061	24680.71
232.524	23908.14
232.987	16469.95
233.45	14834.18
233.914	13304.41
234.377	13598.8
234.84	12446.16
235.303	14643.9
235.766	16351.47
236.229	16899.43
236.691	10623.63
237.154	11901.05
237.617	8998.69
238.08	9201.13
238.542	10756.47
239.005	7699.71
239.468	7668.46
239.93	7254.73
240.393	6613.16
240.855	5806.27
241.317	5953.28
241.78	7242.35
242.242	7502.78
242.704	8120
243.166	7081.28
243.629	6471.59
244.091	7476.74
244.553	8184.83
245.015	8790.2
245.477	11368.87
245.939	16673
246.4	17734.46
246.862	17239.39
247.324	16281.28
247.786	18215.54
248.247	23920.53
248.709	24564.31
249.17	18415.49
249.632	17448.82
250.093	20311.77
250.555	17567.7
251.016	10722.37
251.477	10179.28
251.939	11009.77
252.4	11533.76
252.861	13651.19
253.322	12737.44
253.783	15154.19
254.244	19618.47
254.705	15411.61
255.166	13673.93
255.627	13439.08
256.088	19006.3
256.549	20182.46
257.009	17364.86
257.47	21069.27
257.931	17172.5
258.391	12825.23
258.852	13206.1
259.312	13806.97
259.773	17041.58
260.233	14448.29
260.694	12188.09
261.154	13765.49
261.614	11061.6
262.074	9868.64
262.534	10242.52
262.994	9637.94
263.455	12791.34
263.915	10788.75
264.374	10136.03
264.834	11029.67
265.294	12129.72
265.754	12541.46
266.214	11842.67
266.673	11057.55
267.133	13906.14
267.593	13752.74
268.052	16785.85
268.512	14567.22
268.971	17547.4
269.431	19217.15
269.89	17182.24
270.349	25765.02
270.809	28707.11
271.268	25830.58
271.727	57788.47
272.186	37437.45
272.645	28091.6
273.104	20240.79
273.563	29268.25
274.022	22938.71
274.481	19567.53
274.94	15086.32
275.399	11184.79
275.857	12985.61
276.316	17529.99
276.775	15587.32
277.233	15351
277.692	14395.7
278.15	16323.16
278.609	16845.85
279.067	15598.31
279.525	14471.57
279.984	18671.46
280.442	22485.55
280.9	22299.22
281.358	14673.06
281.816	13690.56
282.274	13403.49
282.732	13819.26
283.19	13857.12
283.648	11961.8
284.106	12741.74
284.564	12976.82
285.021	12056.06
285.479	8966.68
285.937	8102.89
286.394	7132.24
286.852	7340.3
287.309	7710.68
287.767	7473.7
288.224	7131.89
288.682	7818.21
289.139	8588.17
289.596	7857.21
290.053	8159.17
290.511	10309.85
290.968	12529.59
291.425	16961.44
291.882	14185.82
292.339	12376.66
292.796	12257.39
293.252	11527.38
293.709	9185.57
294.166	8236.12
294.623	9106.88
295.079	8726.11
295.536	8772.64
295.992	7971.35
296.449	7886.58
296.905	8168.22
297.362	7836.67
297.818	8241.28
298.274	8579.97
298.731	8707.19
299.187	8610.36
299.643	9224.7
300.099	11164.68
300.555	12241.96
301.011	10213.38
301.467	9904.32
301.923	11569.93
302.379	11314.26
302.835	11111.75
303.291	11112.47
303.746	12693.09
304.202	16013.64
304.658	16092.87
305.113	10837.91
305.569	10647.46
306.024	11345.51
306.479	10751.84
306.935	9084.53
307.39	9928.73
307.845	9193.2
308.301	9280.54
308.756	9034.19
309.211	8737.42
309.666	8949.99
310.121	11149.04
310.576	11283.48
311.031	11246.08
311.486	12858.57
311.94	12870.22
312.395	17194.2
312.85	32235.99
313.305	157668.93
313.759	820160.91
314.214	59537.02
314.668	47405.86
315.123	39890.56
315.577	14377.46
316.032	12790.99
316.486	16053.26
316.94	12703.07
317.394	8872.35
317.849	6919.51
318.303	6561.35
318.757	6196.81
319.211	6855.74
319.665	6016.19
320.119	6085.6
320.572	8714.69
321.026	8145.23
321.48	6781.03
321.934	7382.18
322.387	7385.5
322.841	7995.86
323.295	7222.76
323.748	8268.87
324.202	8416.42
324.655	10110.05
325.108	14222.97
325.562	10057.19
326.015	11963.79
326.468	9065.38
326.921	10157.13
327.374	9490.97
327.827	9909.84
328.28	11244.93
328.733	7583.98
329.186	6650.97
329.639	6333.9
330.092	5311.52
330.545	5057.03
330.997	5111.42
331.45	5610.74
331.903	6597.23
332.355	11330
332.808	11000.04
333.26	9024.88
333.713	9802.93
334.165	9870.31
334.617	13183.52
335.069	10620.12
335.522	19169.11
335.974	21277.55
336.426	19382.92
336.878	13358.59
337.33	6786.36
337.782	6639.42
338.234	8385.62
338.686	10022.7
339.137	11894.31
339.589	11216.15
340.041	8816.86
340.493	7606.93
340.944	7780.34
341.396	8383.68
341.847	7110.22
342.299	8423.44
342.75	10297.05
343.201	8904.98
343.653	10214.39
344.104	12538.78
344.555	9878.99
345.006	15351.66
345.457	11799.92
345.908	9367.37
346.359	8839.91
346.81	7172.17
347.261	7544.96
347.712	7406.82
348.163	7992.5
348.613	8159.62
349.064	7630.56
349.515	6653.24
349.965	6837.14
350.416	8238.68
350.866	9029.64
351.317	10156.04
351.767	16765.17
352.217	21101.49
352.668	17527.14
353.118	16055.71
353.568	15399.62
354.018	12232.3
354.468	12934.2
354.918	9285.67
355.368	8108.69
355.818	11456.44
356.268	33072.39
356.718	139060.37
357.168	34720.13
357.617	17404.44
358.067	19298.52
358.517	18117.49
358.966	21303.49
359.416	23993.17
359.865	25942.05
360.315	30822.6
360.764	14361.56
361.213	8080.23
361.663	7627.84
362.112	9412.66
362.561	15282.22
363.01	11582.08
363.459	9733.78
363.908	10481.94
364.357	8960.15
364.806	15101.77
365.255	10383.73
365.703	9592.06
366.152	9544.64
366.601	7760.45
367.05	6326.09
367.498	5727.68
367.947	5972.9
368.395	6189.49
368.844	5498.96
369.292	6532.76
369.74	4525.02
370.189	6911.89
370.637	8078.81
371.085	6995.41
371.533	8511.95
371.981	8171.43
372.429	7800.1
372.877	8124.94
373.325	6802.57
373.773	6894.78
374.221	6139.64
374.669	7613.81
375.116	6584.66
375.564	6623.87
376.012	7374.97
376.459	6095.24
376.907	7256.67
377.354	8728.24
377.801	8139.19
378.249	9380.13
378.696	11964.36
379.143	14480.69
379.591	15387.97
380.038	26076.09
380.485	18817.03
380.932	20317.24
381.379	18565.33
381.826	13745.8
382.273	9784.65
382.72	8486.84
383.166	8268.93
383.613	5369.23
384.06	4838.06
384.506	5617.33
384.953	4113.16
385.4	4122.61
385.846	3598.06
386.292	3476.13
386.739	3370.43
387.185	3306.88
387.631	3314.36
388.078	3225.66
388.524	3435.53
388.97	3172.5
389.416	2634.37
389.862	2799.74
390.308	2649.09
390.754	2694.33
391.2	2917.9
391.645	2986.51
392.091	2896.55
392.537	2794.1
392.983	2780.8
393.428	2764.39
393.874	2951.8
394.319	2974.93
394.765	2837.03
395.21	2915.71
395.655	2727.21
396.101	2568.52
396.546	2327.1
396.991	2329.54
397.436	2175.05
397.881	2098.35
398.326	1969.91
398.771	1876.47
399.216	1636.96
399.661	1471.33
400.106	1474.42
400.551	1519.64
400.995	1365.83
401.44	1354.16
401.885	1273.92
402.329	1288.88
402.774	1243.12
403.218	1221.52
403.663	1179.71
404.107	1219.58
404.551	1238.68
404.995	1138.18
405.44	1095.83
405.884	1111.83
406.328	1074.84
406.772	1073.16
407.216	978.84
407.66	948.16
408.104	893.21
408.547	839.61
408.991	813.93
409.435	783.01
409.879	776.69
410.322	771.32
410.766	752.9
411.209	721.46
411.653	696.58
412.096	689.3
412.54	690.97
412.983	691.13
413.426	697.97
413.869	696.61
414.312	687.27
414.756	663.29
415.199	635.87
415.642	619.93
416.085	624
416.527	623.69
416.97	634.11
417.413	605.19
417.856	597.73
418.298	591.38
418.741	589.42
419.184	586.94
419.626	608.99
420.069	610.23
420.511	615.19
420.953	605.3
421.396	601.46
421.838	585.82
422.28	602.55
422.722	611.49
423.164	620.4
423.606	615.01
424.048	616.47
424.49	590.87
424.932	588.92
425.374	580.93
425.816	589.93
426.258	600.81
426.699	609.43
427.141	601.2
427.582	609.65
428.024	605.85
428.465	598.68
428.907	584.7
429.348	577.88
429.789	580.25
430.231	572.24
430.672	580.64
431.113	566.37
431.554	557.02
431.995	540.99
432.436	524.34
432.877	516.24
433.318	511.76
433.759	509.98
434.2	510.02
434.64	504.62
435.081	504.38
435.522	479.73
435.962	463.56
436.403	458.36
436.843	467.58
437.284	454.93
437.724	441.4
438.164	439.16
438.604	429.09
439.045	415.57
439.485	400.97
439.925	393.78
440.365	383.35
440.805	379.76
441.245	375.1
441.685	361.04
442.125	360.15
442.564	364.04
443.004	359.85
443.444	363
443.883	364
444.323	359.99
444.762	358
445.202	362.74
445.641	371.27
446.081	369.4
446.52	373.39
446.959	372.83
447.398	366.54
447.837	363.19
448.276	356.04
448.716	362.06
449.154	366.93
449.593	362.23
450.032	364.45
450.471	357.65
450.91	358.17
451.349	360.1
451.787	357.6
452.226	362.97
452.664	363.87
453.103	366.3
453.541	364.61
453.98	367.06
454.418	369.71
454.856	364.69
455.295	364.12
455.733	367.85
456.171	370.11
456.609	370.35
457.047	370.62
457.485	377.31
457.923	378.03
458.361	373.62
458.798	372.16
459.236	370.98
459.674	372.81
460.111	374.96
460.549	372.56
460.987	369.64
461.424	368.83
461.862	367.02
462.299	361.8
462.736	361.77
463.173	362.78
463.611	362.05
464.048	361.92
464.485	364.63
464.922	360.77
465.359	357.18
465.796	360.61
466.233	359.16
466.67	357.6
467.106	356.79
467.543	351.61
467.98	346
468.416	335.58
468.853	331.52
469.29	321.49
469.726	318.67
470.162	310.73
470.599	300.74
471.035	297.58
471.471	289.96
471.907	286.52
472.344	285.24
472.78	287.51
473.216	290.63
473.652	288.69
474.088	288.75
474.523	289.63
474.959	292.51
475.395	289.95
475.831	288.96
476.266	290.1
476.702	290.34
477.138	288.28
477.573	287.7
478.008	287.48
478.444	289.67
478.879	293.11
479.314	294.1
479.75	294.56
480.185	296.56
480.62	299.05
481.055	300.7
481.49	303.16
481.925	308.37
482.36	315.3
482.795	323.4
483.229	331.14
483.664	338.42
484.099	339.45
484.534	345.06
484.968	349.11
485.403	350.68
485.837	350.08
486.271	350.1
486.706	350.65
487.14	345.75
487.574	341.71
488.009	339.52
488.443	337.59
488.877	342.9
489.311	344.72
489.745	349.56
490.179	354.87
490.613	365.59
491.046	369.63
491.48	373.78
491.914	377.37
492.348	382.41
492.781	387.51
493.215	390.38
493.648	393.16
494.082	399.62
494.515	403.35
494.948	411.11
495.382	415.39
495.815	422.54
496.248	429.31
496.681	440.44
497.114	450.6
497.547	460.79
497.98	473.98
498.413	482.91
498.846	493.58
499.279	503.73
499.711	510.29
500.144	516.59
500.577	529.33
501.009	542.46
501.442	554.28
501.874	561.43
502.306	568.74
502.739	581.22
503.171	597.28
503.603	605.52
504.036	617.21
504.468	627.63
504.9	641.55
505.332	651.66
505.764	660.76
506.196	672.25
506.627	689.23
507.059	705.41
507.491	716.04
507.923	719.81
508.354	737.51
508.786	753.24
509.217	773.34
509.649	791.06
510.08	811.99
510.512	831.47
510.943	848.91
511.374	863.01
511.805	884.28
512.237	905.95
512.668	937.78
513.099	964.66
513.53	991.62
513.961	1013.25
514.391	1045.47
514.822	1079.49
515.253	1114.36
515.684	1140.66
516.114	1170.36
516.545	1194.43
516.975	1221.16
517.406	1242.12
517.836	1248.34
518.267	1258.73
518.697	1278.55
519.127	1286.68
519.558	1295.13
519.988	1301.14
520.418	1313.73
520.848	1332.48
521.278	1342.3
521.708	1373.71
522.138	1387.67
522.567	1418.49
522.997	1443.47
523.427	1460.8
523.857	1477.62
524.286	1488.22
524.716	1504.41
525.145	1523.02
525.575	1535.08
526.004	1548.88
526.433	1531.6
526.863	1531.9
527.292	1524.31
527.721	1530.47
528.15	1536.38
528.579	1537.69
529.008	1549.96
529.437	1571.13
529.866	1585.03
530.295	1601.39
530.724	1615.64
531.152	1642.15
531.581	1657.79
532.01	1674.52
532.438	1683.36
532.867	1696.75
533.295	1715.7
533.723	1721.09
534.152	1720.55
534.58	1721.09
535.008	1707.62
535.436	1709.48
535.865	1716.25
536.293	1728.88
536.721	1744.84
537.149	1768.71
537.576	1772.04
538.004	1782.63
538.432	1789.67
538.86	1787.08
539.287	1793.21
539.715	1805.39
540.143	1807.14
540.57	1803.9
540.998	1800.19
541.425	1777.86
541.852	1757.17
542.28	1755.44
542.707	1739.89
543.134	1726.95
543.561	1723.38
543.988	1716.28
544.415	1716.67
544.842	1711.62
545.269	1705.27
545.696	1707.22
546.123	1720.44
546.549	1712.01
546.976	1700.4
547.403	1700.53
547.829	1703.88
548.256	1707.12
548.682	1704.57
549.108	1697.05
549.535	1697.41
549.961	1700
550.387	1689.2
550.813	1685.65
551.24	1691.84
551.666	1693.59
552.092	1686.63
552.518	1680.99
552.943	1675.71
553.369	1684.12
553.795	1690.19
554.221	1691.51
554.646	1689.19
555.072	1699.81
555.498	1703.45
555.923	1712.41
556.349	1727.17
556.774	1735.34
557.199	1736.73
557.625	1742.89
558.05	1737.37
558.475	1748.61
558.9	1748.82
559.325	1741.79
559.75	1736.73
560.175	1731.5
560.6	1726.75
561.025	1724.36
561.449	1725.14
561.874	1731.07
562.299	1735.74
562.723	1741.91
563.148	1731.76
563.572	1735.46
563.997	1744.7
564.421	1748.95
564.846	1749.04
565.27	1751.55
565.694	1750.04
566.118	1761.61
566.542	1768.5
566.966	1762.55
567.39	1758.82
567.814	1748.12
568.238	1747.35
568.662	1752.4
569.086	1755.07
569.509	1760.54
569.933	1746.13
570.357	1737.96
570.78	1717.62
571.204	1704.83
571.627	1693.9
572.05	1691.31
572.474	1690.8
572.897	1679.44
573.32	1671.78
573.743	1662.18
574.166	1645.95
574.589	1645.97
575.012	1638.81
575.435	1637.98
575.858	1629.35
576.281	1618.74
576.704	1603.99
577.126	1593.43
577.549	1582.9
577.972	1573.3
578.394	1563.03
578.817	1557.23
579.239	1539.89
579.661	1527.65
580.084	1512.97
580.506	1500.95
580.928	1498.21
581.35	1488.34
581.772	1484.93
582.194	1472.01
582.616	1460.63
583.038	1446.83
583.46	1435.81
583.882	1432.87
584.303	1436.97
584.725	1432.33
585.147	1434.78
585.568	1443.81
585.99	1455.27
586.411	1460.92
586.833	1474.57
587.254	1475.22
587.675	1488.35
588.096	1500.83
588.518	1494.33
588.939	1478.55
589.36	1476.9
589.781	1465.31
590.202	1439.17
590.623	1429.88
591.043	1426.21
591.464	1413.19
591.885	1409.38
592.305	1403.38
592.726	1389.57
593.147	1391.37
593.567	1386.15
593.987	1378.84
594.408	1373.36
594.828	1369.75
595.248	1363.59
595.669	1346.64
596.089	1340.68
596.509	1334.82
596.929	1323.24
597.349	1323.71
597.769	1313.48
598.189	1307.46
598.608	1308.64
599.028	1310.59
599.448	1311.16
599.867	1300.2
600.287	1295.1
600.706	1290.77
601.126	1281.3
601.545	1279.29
601.965	1277.79
602.384	1272.66
602.803	1275.21
603.222	1270.28
603.641	1263.52
604.061	1259.68
604.48	1255.21
604.898	1263.13
605.317	1267.26
605.736	1268.06
606.155	1264.86
606.574	1256.05
606.992	1260.29
607.411	1254.84
607.829	1246.05
608.248	1243.33
608.666	1240.31
609.085	1238.59
609.503	1230.18
609.921	1223.81
610.339	1225.17
610.758	1224.11
611.176	1218.83
611.594	1209.59
612.012	1205.07
612.43	1206.97
612.847	1210.81
613.265	1210.8
613.683	1214.3
614.101	1214.83
614.518	1210.24
614.936	1200.64
615.353	1185.87
615.771	1181.84
616.188	1181.27
616.606	1178.17
617.023	1170.94
617.44	1157.93
617.857	1150.05
618.274	1141.33
618.691	1134.71
619.108	1126.13
619.525	1120.1
619.942	1125.74
620.359	1128.78
620.776	1123.23
621.192	1119.4
621.609	1116.64
622.026	1122.05
622.442	1127
622.859	1129
623.275	1121.35
623.691	1125.16
624.108	1134.33
624.524	1146.13
624.94	1144.67
625.356	1152.64
625.772	1163.02
626.188	1173.05
626.604	1173.88
627.02	1169.37
627.436	1167.42
627.852	1173.8
628.268	1184.62
628.683	1176.43
629.099	1169.27
629.514	1164.9
629.93	1169.1
630.345	1171.5
630.761	1167.59
631.176	1170.82
631.591	1165.71
632.007	1159.49
632.422	1155.9
632.837	1143.45
633.252	1139.7
633.667	1128.3
634.082	1118.36
634.497	1104.65
634.911	1087.14
635.326	1081.75
635.741	1063.12
636.155	1052.35
636.57	1050.91
636.984	1048.59
637.399	1047.2
637.813	1042.96
638.228	1038.9
638.642	1038.76
639.056	1026.22
639.47	1023.37
639.884	1012.87
640.298	1004.86
640.712	1000.11
641.126	986.05
641.54	974.23
641.954	965.38
642.368	952.25
642.781	942.68
643.195	923.34
643.609	920.07
644.022	910.04
644.436	902.11
644.849	886.84
645.262	872.64
645.676	869.62
646.089	861.92
646.502	848.34
646.915	840.43
647.328	824.16
647.741	820.16
648.154	807.22
648.567	803.12
648.98	791.38
649.393	789.15
649.805	784.37
650.218	776.85
650.631	762.2
651.043	754.29
651.456	747.77
651.868	744.87
652.28	755.45
652.693	763.5
653.105	764.74
653.517	769.67
653.929	768.21
654.341	770.09
654.753	758.63
655.165	761.17
655.577	757.22
655.989	751.59
656.401	742.69
656.813	715.04
657.224	697.23
657.636	672.5
658.047	656.23
658.459	639.32
658.87	628.98
659.282	615.58
659.693	598.17
660.104	583.59
660.515	569.32
660.926	562.82
661.338	554.58
661.749	544.72
662.159	535.02
662.57	526.41
662.981	518.63
663.392	509.2
663.803	507.38
664.213	499.85
664.624	492.13
665.035	489.28
665.445	476.93
665.855	468.46
666.266	460.17
666.676	454.76
667.086	445.39
667.497	441
667.907	434.01
668.317	425.15
668.727	422.48
669.137	419.74
669.547	415.9
669.956	415.55
670.366	414.81
670.776	414.65
671.186	414.83
671.595	415.78
672.005	415.79
672.414	413.92
672.824	413.84
673.233	413.14
673.642	414.12
674.052	415.78
674.461	417.14
674.87	419.11
675.279	417.45
675.688	417.79
676.097	419.36
676.506	418.89
676.915	427.68
677.323	429.76
677.732	429.97
678.141	431.16
678.549	426.79
678.958	427
679.366	429.06
679.775	433.85
680.183	445.39
680.592	451.48
681	457.94
681.408	458.69
681.816	466.46
682.224	476.56
682.632	489.49
683.04	513.39
683.448	535.92
683.856	562.98
684.264	593.72
684.671	622.07
685.079	658.29
685.487	699.62
685.894	752.68
686.302	801.32
686.709	844.49
687.116	894.61
687.524	942.01
687.931	984.04
688.338	1022.98
688.745	1059.36
689.152	1098.68
689.559	1146.15
689.966	1194.49
690.373	1224.28
690.78	1270.07
691.187	1332.14
691.593	1381.9
692	1425.43
692.407	1486.14
692.813	1557.89
693.22	1615.13
693.626	1673.27
694.032	1722.25
694.439	1792.6
694.845	1848.04
695.251	1915.27
695.657	1978.38
696.063	2068.06
696.469	2135.06
696.875	2197.73
697.281	2233.53
697.687	2276.78
698.093	2311.92
698.498	2377.79
698.904	2427.73
699.31	2506.19
699.715	2561.96
700.12	2643.05
700.526	2656.14
700.931	2715.16
701.337	2757.91
701.742	2785.05
702.147	2857.04
702.552	2882.87
702.957	2935.27
703.362	2950.75
703.767	2973.49
