Data from N_3_DEC_OH_4N_Splice17_13-34-45-586.txt Node
Date: Sat Mar 14 13:34:45 EDT 2020
User: sa697716
Spectrometer: FLMS03696
Trigger mode: 0
Integration Time (sec): 3.180400E-1
Scans to average: 20
Electric dark correction enabled: true
Nonlinearity correction enabled: true
Boxcar width: 5
XAxis mode: Wavelengths
Number of Pixels in Spectrum: 2048
>>>>>Begin Spectral Data<<<<<
187.83	-387112.44
188.298	2870.08
188.766	1560.15
189.233	1407.17
189.701	1994.85
190.169	2914.91
190.636	1108.61
191.104	923
191.571	177.87
192.039	-74.16
192.506	-134.5
192.974	428.9
193.441	-667.06
193.908	-78.41
194.375	4.2
194.842	73.46
195.31	242.54
195.777	240.61
196.244	485.02
196.711	584.28
197.177	729.79
197.644	1011.16
198.111	1735.84
198.578	2478.2
199.045	1991.84
199.511	3226.44
199.978	3739.46
200.445	3189.61
200.911	3523.06
201.378	3949.42
201.844	3552.48
202.31	6069.16
202.777	6268.61
203.243	3497.13
203.709	3308.32
204.176	3938.1
204.642	3244.11
205.108	3044.09
205.574	2479.07
206.04	2251.41
206.506	2108.2
206.972	1990.07
207.438	1915.5
207.903	2189.08
208.369	1907.23
208.835	1887.87
209.301	1986.44
209.766	2052.95
210.232	2042.24
210.697	2537.41
211.163	3145.16
211.628	4759.34
212.094	4021.41
212.559	4975.3
213.024	3107.88
213.49	3815.26
213.955	3754.75
214.42	3675.46
214.885	3429.95
215.35	3298.56
215.815	3179.2
216.28	3384.75
216.745	2771.26
217.21	3017.89
217.675	2796.27
218.14	3193.82
218.604	3639.65
219.069	4232.04
219.534	4517.32
219.998	5325.2
220.463	6544.14
220.927	8157.41
221.392	7771.83
221.856	7948.39
222.32	10126.06
222.785	12580.16
223.249	15902.07
223.713	17853.01
224.177	17932.81
224.642	23087.65
225.106	28516.01
225.57	31264.27
226.034	23296.74
226.497	35517.94
226.961	32112.71
227.425	37405.59
227.889	41605.79
228.353	41703.95
228.816	86121.33
229.28	82429.38
229.744	69543.49
230.207	42235.34
230.671	41578.89
231.134	68854.9
231.597	79441.58
232.061	79463.28
232.524	77600.77
232.987	53488.14
233.45	48200.41
233.914	43271.68
234.377	44420.66
234.84	40675.55
235.303	48029.91
235.766	53602.61
236.229	55480.36
236.691	34952.3
237.154	39298.3
237.617	29551.8
238.08	30291.83
238.542	35446.54
239.005	25341.56
239.468	25135.84
239.93	23708.76
240.393	21567.3
240.855	18944.28
241.317	19400.08
241.78	23614.88
242.242	24440.9
242.704	26394.24
243.166	22983.84
243.629	20868.04
244.091	24052.95
244.553	26382.62
245.015	28359.13
245.477	36698.21
245.939	53820.93
246.4	57118.86
246.862	55584.37
247.324	52400.05
247.786	58698.99
248.247	77053.21
248.709	79660.96
249.17	59621.58
249.632	56195.73
250.093	65230.01
250.555	56360.76
251.016	34385.15
251.477	32681.59
251.939	35322.91
252.4	37127.61
252.861	44208.83
253.322	41118.49
253.783	48977.13
254.244	63580.01
254.705	50152.07
255.166	44594.47
255.627	43977.56
256.088	62117.11
256.549	65982.82
257.009	56769.7
257.47	68886.72
257.931	56142.26
258.391	42076.81
258.852	43404.12
259.312	45531.69
259.773	56321.7
260.233	47618.87
260.694	40155.3
261.154	45606.33
261.614	36609.09
262.074	32805.65
262.534	34111.44
262.994	32174.67
263.455	42972.7
263.915	36265.84
264.374	34207.88
264.834	37395.62
265.294	41559.53
265.754	43130.7
266.214	40851.1
266.673	38341.05
267.133	48454.94
267.593	48178.06
268.052	59023.38
268.512	51359
268.971	61944.29
269.431	68009.74
269.89	60954.44
270.349	91444.43
270.809	101995.81
271.268	91800.95
271.727	206249.37
272.186	133715.82
272.645	100363.16
273.104	72509.48
273.563	105091.91
274.022	82780.18
274.481	70480.92
274.94	54322.7
275.399	40398.51
275.857	47116.74
276.316	63779.44
276.775	56760.39
277.233	55915.76
277.692	52334.97
278.15	59234.17
278.609	60955.63
279.067	56447.67
279.525	52429.8
279.984	67820.64
280.442	81545.27
280.9	80430.51
281.358	52915.78
281.816	49319.43
282.274	48307.47
282.732	49959.37
283.19	50177.66
283.648	43321.18
284.106	46210.55
284.564	47017.42
285.021	43571.81
285.479	32476.63
285.937	29539.51
286.394	25939.32
286.852	26721.82
287.309	28096.57
287.767	27111.28
288.224	25799.22
288.682	28330.66
289.139	31069.54
289.596	28447.9
290.053	29607.12
290.511	37390.92
290.968	45346.22
291.425	61599.25
291.882	51256.42
292.339	44673.81
292.796	44392.99
293.252	41887.04
293.709	33281.16
294.166	29814.87
294.623	32967.91
295.079	31638.57
295.536	31772.47
295.992	28852.78
296.449	28534.82
296.905	29645.95
297.362	28423.83
297.818	29934.06
298.274	31077.88
298.731	31676.58
299.187	31367.5
299.643	33708.67
300.099	40780.19
300.555	44769.97
301.011	37409.59
301.467	36022.18
301.923	42237.55
302.379	41242.7
302.835	40498.02
303.291	40527.38
303.746	46155.86
304.202	58349.24
304.658	58605.29
305.113	39433.29
305.569	38668.58
306.024	41301.32
306.479	39389.51
306.935	33210
307.39	36312.86
307.845	33505.5
308.301	33708.66
308.756	32841.53
309.211	31652.13
309.666	32422.78
310.121	40227.76
310.576	40836.61
311.031	40499.07
311.486	46386.49
311.94	46419.75
312.395	62082.16
312.85	116810.86
313.305	574479.77
313.759	2974625.76
314.214	215689.15
314.668	170947.11
315.123	143971.06
315.577	51580.81
316.032	45861.52
316.486	57503.45
316.94	45328.14
317.394	31554.84
317.849	24548.52
318.303	23243.25
318.757	21944.12
319.211	24268.66
319.665	21253.16
320.119	21499.82
320.572	30880.77
321.026	28881.71
321.48	24061.8
321.934	26249.25
322.387	26291.59
322.841	28425.42
323.295	25545.46
323.748	29434.56
324.202	29836.48
324.655	35827.56
325.108	50025.99
325.562	35329.28
326.015	41990.52
326.468	31699.59
326.921	35453.33
327.374	33079.08
327.827	34404.5
328.28	38952.84
328.733	26098.56
329.186	22964.3
329.639	21881.21
330.092	18435.95
330.545	17559.23
330.997	17698.84
331.45	19346.69
331.903	22665.56
332.355	39042.31
332.808	37962.27
333.26	31338.28
333.713	34025.37
334.165	34277.98
334.617	45814.18
335.069	37097.4
335.522	67029.09
335.974	74245.02
336.426	67850.96
336.878	47045
337.33	23823.17
337.782	23253.38
338.234	29097.19
338.686	34791.46
339.137	41206.35
339.589	38766.43
340.041	30366.58
340.493	26131.2
340.944	26752.72
341.396	28797.47
341.847	24193.19
342.299	28555.22
342.75	34854.97
343.201	30481.25
343.653	35087.52
344.104	43178.96
344.555	34048.13
345.006	53033.37
345.457	40549.64
345.908	32263.19
346.359	30390.5
346.81	24758.07
347.261	26111.62
347.712	25693
348.163	27538.1
348.613	27868.54
349.064	26019.36
349.515	22751.07
349.965	23338.59
350.416	28141.87
350.866	30871.26
351.317	34914.4
351.767	57799.64
352.217	73035.26
352.668	60711.19
353.118	55649.9
353.568	53703.98
354.018	42478.17
354.468	44854.24
354.918	32170.23
355.368	28206.89
355.818	39893.49
356.268	114771.84
356.718	480636.99
357.168	119584.79
357.617	59949.16
358.067	66800.05
358.517	62535.76
358.966	73216.71
359.416	81980.8
359.865	88590.83
360.315	105379.54
360.764	49135.65
361.213	27504.83
361.663	26089.42
362.112	32217.93
362.561	52030.11
363.01	39175.56
363.459	32995.82
363.908	35763.48
364.357	30345.75
364.806	51272.2
365.255	35223.67
365.703	32214.5
366.152	32291.42
366.601	26162.41
367.05	21201.39
367.498	19261.71
367.947	20136.98
368.395	20933.26
368.844	18520.08
369.292	22367.09
369.74	15432.03
370.189	23644.86
370.637	27726.47
371.085	23886.7
371.533	29064.23
371.981	28022.94
372.429	26697.65
372.877	27785.09
373.325	23221.31
373.773	23654.84
374.221	21025.07
374.669	26086.67
375.116	22488.94
375.564	22644.66
376.012	25298.32
376.459	20801.29
376.907	24800.67
377.354	29988.58
377.801	27928.98
378.249	32053.08
378.696	40909.42
379.143	49439.88
379.591	52701.41
380.038	89103.39
380.485	64336.87
380.932	69436.25
381.379	63500.5
381.826	46693.36
382.273	33133.5
382.72	28939.38
383.166	28207.89
383.613	18270.52
384.06	16480.97
384.506	19034.23
384.953	13970.39
385.4	14062.93
385.846	12309.84
386.292	12008.09
386.739	11771.2
387.185	11645.47
387.631	11639.12
388.078	11270.95
388.524	12057.7
388.97	11132.85
389.416	9276.84
389.862	9855.23
390.308	9332.82
390.754	9473.91
391.2	10284.9
391.645	10518.4
392.091	10046.51
392.537	9698.59
392.983	9734.66
393.428	9566.75
393.874	10270.43
394.319	10294.27
394.765	9766.79
395.21	10059.69
395.655	9432.88
396.101	8828.34
396.546	7970.05
396.991	8044.8
397.436	7488.14
397.881	7229.23
398.326	6858.08
398.771	6474.83
399.216	5663.85
399.661	5100.86
400.106	5072.85
400.551	5199.39
400.995	4666.16
401.44	4616.13
401.885	4339.36
402.329	4374.91
402.774	4195.49
403.218	4052.89
403.663	3900.54
404.107	4010.79
404.551	4036.74
404.995	3697.83
405.44	3554.47
405.884	3598.58
406.328	3475.24
406.772	3463.74
407.216	3153.45
407.66	3043.58
408.104	2888.28
408.547	2705.07
408.991	2614.61
409.435	2514.44
409.879	2477.17
410.322	2443.26
410.766	2358.27
411.209	2240.06
411.653	2144.8
412.096	2097.42
412.54	2094.36
412.983	2080.54
413.426	2081.62
413.869	2074.85
414.312	2030.77
414.756	1953.69
415.199	1860.91
415.642	1804.44
416.085	1804.34
416.527	1792.49
416.97	1818.05
417.413	1725.18
417.856	1704.19
418.298	1683.72
418.741	1672.78
419.184	1669.51
419.626	1738.47
420.069	1737.18
420.511	1747.12
420.953	1707.49
421.396	1688.08
421.838	1646.69
422.28	1681.63
422.722	1687.53
423.164	1712.33
423.606	1682.24
424.048	1678.61
424.49	1593.14
424.932	1583.43
425.374	1558.78
425.816	1587.96
426.258	1616.16
426.699	1630.01
427.141	1605.78
427.582	1627.75
428.024	1616.98
428.465	1606.05
428.907	1563.87
429.348	1544.44
429.789	1541.58
430.231	1507.19
430.672	1523.48
431.113	1486.92
431.554	1465.53
431.995	1424.96
432.436	1373.63
432.877	1343.33
433.318	1320.94
433.759	1315.61
434.2	1314.97
434.64	1300.49
435.081	1303
435.522	1236.44
435.962	1190.17
436.403	1162.29
436.843	1180.21
437.284	1154.81
437.724	1121.77
438.164	1121.87
438.604	1096.32
439.045	1054.77
439.485	1014.29
439.925	994.13
440.365	967.24
440.805	954.87
441.245	943.9
441.685	909.87
442.125	905.75
442.564	911.79
443.004	892.7
443.444	891.88
443.883	895.5
444.323	889.73
444.762	893.17
445.202	909.8
445.641	929.55
446.081	926.51
446.52	934.76
446.959	925.37
447.398	905.91
447.837	897.03
448.276	884.23
448.716	894.72
449.154	904.5
449.593	886.31
450.032	883.3
450.471	868.89
450.91	872.47
451.349	874.96
451.787	875.47
452.226	893.16
452.664	895.14
453.103	898.33
453.541	897.75
453.98	897.61
454.418	905.02
454.856	893.67
455.295	893.11
455.733	900.75
456.171	904.85
456.609	902.97
457.047	901.56
457.485	915.97
457.923	918.03
458.361	907.29
458.798	910.75
459.236	907.63
459.674	914.19
460.111	917.79
460.549	908.46
460.987	906.45
461.424	905.36
461.862	901.4
462.299	886.86
462.736	885.44
463.173	887.94
463.611	877.42
464.048	875.2
464.485	881.57
464.922	873.2
465.359	869.11
465.796	856.37
466.233	849.49
466.67	841.67
467.106	840.05
467.543	830.6
467.98	818.57
468.416	797.5
468.853	790.94
469.29	766.41
469.726	758.86
470.162	740.25
470.599	732.11
471.035	726.11
471.471	710.61
471.907	708.07
472.344	705.82
472.78	709.78
473.216	720.63
473.652	714.18
474.088	713.8
474.523	713.41
474.959	721.15
475.395	715.52
475.831	715.11
476.266	719.88
476.702	718.61
477.138	712.09
477.573	711.54
478.008	710.41
478.444	715.62
478.879	723.74
479.314	728.47
479.75	729.65
480.185	734.81
480.62	741.61
481.055	746.18
481.49	753.79
481.925	766.4
482.36	781.88
482.795	805.65
483.229	827.82
483.664	847.18
484.099	850.86
484.534	865.76
484.968	875.78
485.403	880.48
485.837	881.98
486.271	881.54
486.706	884.78
487.14	876.16
487.574	864.26
488.009	858.83
488.443	852.5
488.877	862.98
489.311	866.28
489.745	878.82
490.179	888.19
490.613	906.08
491.046	915.35
491.48	923.4
491.914	926.7
492.348	935.71
492.781	943.95
493.215	949.3
493.648	954.44
494.082	965.5
494.515	968.12
494.948	981.94
495.382	991.21
495.815	1000.81
496.248	1010.96
496.681	1031.37
497.114	1049.87
497.547	1067.03
497.98	1088.71
498.413	1101.8
498.846	1119.4
499.279	1136.67
499.711	1147.42
500.144	1154.44
500.577	1174.27
501.009	1195.62
501.442	1214.03
501.874	1220.03
502.306	1227.38
502.739	1241.8
503.171	1266.92
503.603	1274.67
504.036	1291.4
504.468	1302.53
504.9	1322.92
505.332	1335.17
505.764	1343.32
506.196	1356.31
506.627	1379.38
507.059	1400.85
507.491	1416.16
507.923	1413.96
508.354	1437.63
508.786	1452.82
509.217	1480.16
509.649	1503.06
510.08	1531.19
510.512	1555.48
510.943	1577.49
511.374	1593.82
511.805	1622.54
512.237	1650.18
512.668	1696.46
513.099	1735.22
513.53	1774.52
513.961	1801.83
514.391	1845.51
514.822	1890.76
515.253	1938.63
515.684	1970.68
516.114	2009.53
516.545	2036.76
516.975	2071.01
517.406	2092.12
517.836	2090.86
518.267	2095.65
518.697	2116.6
519.127	2117.44
519.558	2122.48
519.988	2123.26
520.418	2133.17
520.848	2153.53
521.278	2160.14
521.708	2174.59
522.138	2188.03
522.567	2227.68
522.997	2259.2
523.427	2276.98
523.857	2296.29
524.286	2305.8
524.716	2324.47
525.145	2347.85
525.575	2359.37
526.004	2374.93
526.433	2365
526.863	2361.73
527.292	2342.61
527.721	2345.59
528.15	2349.72
528.579	2346.38
529.008	2360.09
529.437	2388.54
529.866	2403.44
530.295	2424.32
530.724	2439.12
531.152	2473.9
531.581	2491.33
532.01	2514.37
532.438	2524.6
532.867	2542.12
533.295	2565.94
533.723	2570.85
534.152	2564.23
534.58	2562.89
535.008	2537.34
535.436	2538.07
535.865	2547.11
536.293	2564.25
536.721	2584.86
537.149	2617.91
537.576	2620.36
538.004	2635.32
538.432	2644.33
538.86	2640.25
539.287	2648.69
539.715	2667.48
540.143	2668.48
540.57	2661.75
540.998	2654.65
541.425	2619.7
541.852	2588.32
542.28	2584.27
542.707	2561.75
543.134	2542.02
543.561	2535.18
543.988	2523.6
544.415	2522.43
544.842	2516.19
545.269	2505.85
545.696	2507.89
546.123	2525.61
546.549	2510.76
546.976	2492.4
547.403	2492.01
547.829	2494.16
548.256	2498.24
548.682	2493.68
549.108	2483.45
549.535	2483.33
549.961	2485.88
550.387	2469.8
550.813	2463.21
551.24	2474.43
551.666	2476.99
552.092	2465.4
552.518	2458.76
552.943	2451.77
553.369	2463.77
553.795	2474.53
554.221	2477.43
554.646	2475.84
555.072	2492.29
555.498	2501.67
555.923	2515.88
556.349	2540.63
556.774	2555.22
557.199	2559.11
557.625	2570.21
558.05	2564.45
558.475	2580.47
558.9	2581.91
559.325	2573.45
559.75	2567.44
560.175	2561.87
560.6	2556.8
561.025	2557.25
561.449	2561.89
561.874	2573.83
562.299	2583.92
562.723	2597.61
563.148	2587.53
563.572	2598.03
563.997	2615.33
564.421	2627.55
564.846	2631.89
565.27	2640.94
565.694	2640.56
566.118	2661.58
566.542	2675.66
566.966	2669.67
567.39	2667.73
567.814	2656.49
568.238	2659.62
568.662	2672.31
569.086	2680.57
569.509	2695.74
569.933	2677.87
570.357	2672.19
570.78	2645.85
571.204	2629.85
571.627	2619.52
572.05	2620.97
572.474	2625.33
572.897	2611.8
573.32	2604.95
573.743	2594.51
574.166	2570.95
574.589	2574.81
575.012	2566.92
575.435	2568.96
575.858	2561.18
576.281	2548.48
576.704	2529.1
577.126	2515.61
577.549	2503.25
577.972	2491.44
578.394	2480.7
578.817	2474.47
579.239	2451.78
579.661	2436.13
580.084	2416.37
580.506	2400.13
580.928	2398.56
581.35	2385.83
581.772	2380.92
582.194	2365
582.616	2350.59
583.038	2331.26
583.46	2318.19
583.882	2314.57
584.303	2323.39
584.725	2321.14
585.147	2327.49
585.568	2346.42
585.99	2368.48
586.411	2382.63
586.833	2406.52
587.254	2409.6
587.675	2435.4
588.096	2457.24
588.518	2452.5
588.939	2430.76
589.36	2427.42
589.781	2413.14
590.202	2370.51
590.623	2357.38
591.043	2353.78
591.464	2334.84
591.885	2329.95
592.305	2320.96
592.726	2301.45
593.147	2304.09
593.567	2294.42
593.987	2284.17
594.408	2275.45
594.828	2272.38
595.248	2263.75
595.669	2236.07
596.089	2225.12
596.509	2217.05
596.929	2195.97
597.349	2197.28
597.769	2181.39
598.189	2173.39
598.608	2176.94
599.028	2182.9
599.448	2184.62
599.867	2166.27
600.287	2160.03
600.706	2155.06
601.126	2140.95
601.545	2141.79
601.965	2141.72
602.384	2135.51
602.803	2140.6
603.222	2135.76
603.641	2127.67
604.061	2122.43
604.48	2117.78
604.898	2133.07
605.317	2143.11
605.736	2148.89
606.155	2147.04
606.574	2133.92
606.992	2145.66
607.411	2141.13
607.829	2129
608.248	2124.71
608.666	2124.31
609.085	2126.75
609.503	2116.69
609.921	2109.44
610.339	2115.88
610.758	2117.02
611.176	2112.87
611.594	2099.87
612.012	2097.91
612.43	2106.08
612.847	2119.36
613.265	2123.45
613.683	2131.94
614.101	2136.48
614.518	2132.44
614.936	2118.66
615.353	2097.03
615.771	2095.37
616.188	2098.4
616.606	2094.38
617.023	2084.69
617.44	2063.1
617.857	2054.56
618.274	2043.35
618.691	2034.54
619.108	2021.67
619.525	2012.86
619.942	2025.57
620.359	2029.74
620.776	2024.06
621.192	2019.19
621.609	2016.07
622.026	2028.96
622.442	2039.75
622.859	2045.16
623.275	2034.55
623.691	2045.31
624.108	2064.08
624.524	2086.67
624.94	2086.97
625.356	2103.01
625.772	2125.49
626.188	2146.14
626.604	2148.14
627.02	2140.76
627.436	2138.97
627.852	2150.76
628.268	2169.83
628.683	2155.71
629.099	2142.31
629.514	2134.76
629.93	2140.61
630.345	2146.02
630.761	2139.12
631.176	2144.47
631.591	2133.2
632.007	2122.27
632.422	2118.35
632.837	2099.67
633.252	2094.2
633.667	2077.25
634.082	2062.29
634.497	2040.79
634.911	2009.54
635.326	2004.09
635.741	1975.98
636.155	1960
636.57	1960.61
636.984	1959.28
637.399	1960.44
637.813	1958.87
638.228	1956.88
638.642	1963.07
639.056	1945.49
639.47	1943.27
639.884	1926.59
640.298	1915.43
640.712	1912.31
641.126	1890.2
641.54	1874.6
641.954	1866.25
642.368	1845.71
642.781	1829.51
643.195	1801.25
643.609	1799.83
644.022	1788.23
644.436	1780.1
644.849	1758.39
645.262	1738.22
645.676	1741.33
646.089	1731.25
646.502	1704.48
646.915	1695.08
647.328	1667.83
647.741	1661.59
648.154	1639.66
648.567	1633.44
648.98	1611.51
649.393	1611.59
649.805	1604.22
650.218	1590.54
650.631	1564.88
651.043	1554.16
651.456	1544.82
651.868	1544.63
652.28	1572.26
652.693	1593.6
653.105	1605.74
653.517	1620.45
653.929	1620.13
654.341	1630.66
654.753	1612.33
655.165	1623.64
655.577	1619.56
655.989	1611.07
656.401	1598.44
656.813	1540.18
657.224	1507.58
657.636	1461.22
658.047	1432.74
658.459	1401.7
658.87	1384.73
659.282	1362.82
659.693	1327.24
660.104	1302.23
660.515	1279.07
660.926	1273.27
661.338	1264.56
661.749	1252.27
662.159	1234.65
662.57	1224.35
662.981	1213.56
663.392	1197.97
663.803	1200.22
664.213	1192.97
664.624	1181.46
665.035	1180.66
665.445	1156.38
665.855	1141.17
666.266	1123.73
666.676	1115.66
667.086	1097.31
667.497	1090.39
667.907	1077.86
668.317	1060.71
668.727	1050.79
669.137	1048.02
669.547	1040.16
669.956	1040.25
670.366	1040.5
670.776	1039.62
671.186	1041.02
671.595	1042.71
672.005	1045.08
672.414	1041.53
672.824	1035.92
673.233	1039.51
673.642	1040.58
674.052	1043.2
674.461	1043.45
674.87	1046.79
675.279	1041.4
675.688	1042.53
676.097	1043.48
676.506	1038.34
676.915	1055.87
677.323	1059.84
677.732	1058.36
678.141	1058.02
678.549	1044.59
678.958	1046.17
679.366	1047.93
679.775	1057.75
680.183	1074.96
680.592	1086.87
681	1100.74
681.408	1099.06
681.816	1116.55
682.224	1136.47
682.632	1158.26
683.04	1210.43
683.448	1253.82
683.856	1308.95
684.264	1372.93
684.671	1434.46
685.079	1507.7
685.487	1586.68
685.894	1692.2
686.302	1783.85
686.709	1861.6
687.116	1951.9
687.524	2025.02
687.931	2089.54
688.338	2143.03
688.745	2188.12
689.152	2239.01
689.559	2306.09
689.966	2368.33
690.373	2394.48
690.78	2447
691.187	2532.99
691.593	2592.1
692	2641.43
692.407	2719.28
692.813	2816.92
693.22	2887.89
