Data from N_3_DIV_IL_4N_Splice17_13-20-27-800.txt Node
Date: Sat Mar 14 13:20:27 EDT 2020
User: sa697716
Spectrometer: FLMS03696
Trigger mode: 0
Integration Time (sec): 3.180400E-1
Scans to average: 20
Electric dark correction enabled: true
Nonlinearity correction enabled: true
Boxcar width: 5
XAxis mode: Wavelengths
Number of Pixels in Spectrum: 2048
>>>>>Begin Spectral Data<<<<<
187.83	-372290.92
188.298	2743.33
188.766	1458.97
189.233	1304.61
189.701	1865.72
190.169	2592.99
190.636	935.32
191.104	700.58
191.571	83.17
192.039	-95.79
192.506	-94.54
192.974	522.79
193.441	-629.26
193.908	-176.68
194.375	-72
194.842	36.06
195.31	189.71
195.777	189.49
196.244	407.08
196.711	461.5
197.177	565.19
197.644	780.42
198.111	1351.56
198.578	1856.27
199.045	1486.25
199.511	2408.83
199.978	2810.67
200.445	2361.4
200.911	2602.19
201.378	2888.59
201.844	2631.74
202.31	4480.71
202.777	4679.13
203.243	2582.11
203.709	2463.5
204.176	2943.7
204.642	2435.83
205.108	2257.27
205.574	1838.88
206.04	1677.89
206.506	1549.69
206.972	1457.07
207.438	1388.09
207.903	1575.44
208.369	1404.57
208.835	1397.51
209.301	1464.21
209.766	1502.14
210.232	1482.55
210.697	1817.36
211.163	2217.42
211.628	3363.16
212.094	2779.97
212.559	3476.04
213.024	2155.04
213.49	2609.13
213.955	2522.02
214.42	2439.33
214.885	2235.37
215.35	2162.1
215.815	2108.84
216.28	2242.46
216.745	1831.07
217.21	1989.03
217.675	1784.2
218.14	1988.71
218.604	2180.61
219.069	2441.82
219.534	2547.17
219.998	2914.87
220.463	3451
220.927	4146.2
221.392	3846.93
221.856	3854.8
222.32	4794.24
222.785	5898.21
223.249	7369.13
223.713	8167.15
224.177	8137.06
224.642	10342.04
225.106	12689.74
225.57	13858.61
226.034	10357.18
226.497	15753.41
226.961	14215.85
227.425	16522.51
227.889	18263.71
228.353	18212.5
228.816	37498.03
229.28	35937.76
229.744	30239.84
230.207	18441.66
230.671	18148.05
231.134	29840.54
231.597	34459.05
232.061	34360.18
232.524	33453.56
232.987	23007.38
233.45	20691.47
233.914	18559.9
234.377	18982.67
234.84	17377.27
235.303	20415.63
235.766	22745.01
236.229	23504.75
236.691	14766.7
237.154	16562.19
237.617	12465.19
238.08	12767.62
238.542	14946.04
239.005	10693.05
239.468	10613.27
239.93	10010.3
240.393	9112.58
240.855	8002.6
241.317	8204.37
241.78	9979.16
242.242	10342.64
242.704	11173.67
243.166	9745.04
243.629	8883.26
244.091	10242.77
244.553	11227.47
245.015	12069.86
245.477	15590.91
245.939	22849.48
246.4	24253.46
246.862	23552.77
247.324	22206.51
247.786	24849.73
248.247	32532.18
248.709	33479.42
249.17	25048.37
249.632	23676.81
250.093	27497.42
250.555	23765.1
251.016	14504.97
251.477	13747.57
251.939	14863.6
252.4	15569.63
252.861	18474.78
253.322	17198.86
253.783	20430.52
254.244	26463.19
254.705	20808.06
255.166	18490.14
255.627	18186.37
256.088	25626.7
256.549	27175.12
257.009	23398.62
257.47	28395.59
257.931	23159.07
258.391	17342.05
258.852	17882.67
259.312	18728.63
259.773	23087.33
260.233	19501.22
260.694	16453.01
261.154	18659.41
261.614	15021.45
262.074	13413.13
262.534	13929.7
262.994	13095.02
263.455	17418.55
263.915	14663.31
264.374	13815.34
264.834	15082
265.294	16673.1
265.754	17245.27
266.214	16297.67
266.673	15244.63
267.133	19189.54
267.593	19018.4
268.052	23314.68
268.512	20266.25
268.971	24484.83
269.431	26806.27
269.89	24003.26
270.349	36023.93
270.809	40191.52
271.268	36122.15
271.727	80777.23
272.186	52383.57
272.645	39283.73
273.104	28266.76
273.563	40917.96
274.022	32095.27
274.481	27340.43
274.94	21056.85
275.399	15624.36
275.857	18174.11
276.316	24567.46
276.775	21885.42
277.233	21521.83
277.692	20155.17
278.15	22842.54
278.609	23545.03
279.067	21785.08
279.525	20257.17
279.984	26161.31
280.442	31436.62
280.9	31030.73
281.358	20420.28
281.816	19049.34
282.274	18655.98
282.732	19247.46
283.19	19305.58
283.648	16654.94
284.106	17752.83
284.564	18009.24
285.021	16717.84
285.479	12472.41
285.937	11311.95
286.394	9958.01
286.852	10257.55
287.309	10794.87
287.767	10480.1
288.224	9999.61
288.682	10978.4
289.139	12084.49
289.596	11092.08
290.053	11520.47
290.511	14521.4
290.968	17644.66
291.425	23880.7
291.882	19905.46
292.339	17355.84
292.796	17171.81
293.252	16148.67
293.709	12857.63
294.166	11496.52
294.623	12705.87
295.079	12191.7
295.536	12270.92
295.992	11160.37
296.449	11044.43
296.905	11487.33
297.362	11023.26
297.818	11585.06
298.274	12065.27
298.731	12259.46
299.187	12144.36
299.643	13031.94
300.099	15783.31
300.555	17315.92
301.011	14498.23
301.467	14013.33
301.923	16332.21
302.379	15958.58
302.835	15715.98
303.291	15728.66
303.746	17900.62
304.202	22673.04
304.658	22789.08
305.113	15310.76
305.569	15039.4
306.024	16002.34
306.479	15230.45
306.935	12900.23
307.39	14088.79
307.845	13013.62
308.301	13105.26
308.756	12801.66
309.211	12319.59
309.666	12610.15
310.121	15735.93
310.576	15924.41
311.031	15809.57
311.486	18104.79
311.94	18115.53
312.395	24291.64
312.85	45731.21
313.305	224603.48
313.759	1165927.9
314.214	84651.14
314.668	67338.31
315.123	56667.14
315.577	20391.76
316.032	18181.96
316.486	22785.28
316.94	18006
317.394	12551.48
317.849	9747.32
318.303	9209.04
318.757	8712.64
319.211	9651.55
319.665	8453.06
320.119	8553.12
320.572	12242.76
321.026	11469.71
321.48	9574.8
321.934	10418.85
322.387	10416.67
322.841	11272.87
323.295	10184.98
323.748	11688.74
324.202	11848.52
324.655	14224.3
325.108	19933.56
325.562	14115.34
326.015	16771.39
326.468	12680.51
326.921	14191.01
327.374	13255.39
327.827	13846.6
328.28	15693.96
328.733	10555.32
329.186	9283.38
329.639	8879.88
330.092	7471.72
330.545	7137.49
330.997	7197.61
331.45	7882.09
331.903	9277.78
332.355	15966.69
332.808	15478.25
333.26	12787.19
333.713	13894.26
334.165	14007.57
334.617	18674.91
335.069	15076.84
335.522	27196.82
335.974	30208.4
336.426	27544.04
336.878	19013.8
337.33	9670.97
337.782	9483.43
338.234	11898.29
338.686	14196.5
339.137	16829.87
339.589	15845.91
340.041	12454.59
340.493	10732.72
340.944	10984.37
341.396	11844.76
341.847	9993.29
342.299	11828.85
342.75	14453.24
343.201	12597.45
343.653	14506.86
344.104	17810.83
344.555	14013.24
345.006	21705.22
345.457	16682.51
345.908	13230.1
346.359	12468.6
346.81	10165.96
347.261	10665.01
347.712	10454.22
348.163	11205.03
348.613	11391.48
349.064	10661.94
349.515	9324.54
349.965	9604.46
350.416	11547.73
350.866	12664.91
351.317	14300.4
351.767	23690.01
352.217	29967.07
352.668	24966.43
353.118	22844.77
353.568	21941.68
354.018	17372.62
354.468	18362.15
354.918	13182.74
355.368	11549.73
355.818	16363.49
356.268	47093.65
356.718	196828.35
357.168	49047.86
357.617	24590.94
358.067	27372.48
358.517	25663.79
358.966	30155.5
359.416	33871.9
359.865	36507.97
360.315	43395.33
360.764	20261.42
361.213	11346.43
361.663	10733.34
362.112	13239.22
362.561	21401.45
363.01	16172.51
363.459	13575.83
363.908	14618.25
364.357	12451.81
364.806	21061.72
365.255	14463.25
365.703	13275.79
366.152	13306.3
366.601	10801.34
367.05	8783.36
367.498	7983.77
367.947	8325.64
368.395	8655.28
368.844	7681.22
369.292	9201.56
369.74	6372.96
370.189	9752.21
370.637	11385.7
371.085	9825.12
371.533	11936.47
371.981	11468.8
372.429	10960.17
372.877	11405.27
373.325	9566.67
373.773	9753
374.221	8693.18
374.669	10733.03
375.116	9261.64
375.564	9315.81
376.012	10393.1
376.459	8558.26
376.907	10201.99
377.354	12267.53
377.801	11444.97
378.249	13164.31
378.696	16773.29
379.143	20230.25
379.591	21575.3
380.038	36470.56
380.485	26369.27
380.932	28493.65
381.379	26169.88
381.826	19264.84
382.273	13627.2
382.72	11884.3
383.166	11545.38
383.613	7481.89
384.06	6744.88
384.506	7790.71
384.953	5716.05
385.4	5740.9
385.846	5010.58
386.292	4852.71
386.739	4735.94
387.185	4667.88
387.631	4642.92
388.078	4515.26
388.524	4808.63
388.97	4427.09
389.416	3687.2
389.862	3905.12
390.308	3691.01
390.754	3740.01
391.2	4040.08
391.645	4124.77
392.091	3958.37
392.537	3840.12
392.983	3804.86
393.428	3757.85
393.874	4022.64
394.319	4038.64
394.765	3841.55
395.21	3941.39
395.655	3693.13
396.101	3470.69
396.546	3122.81
396.991	3149.91
397.436	2918.08
397.881	2824.58
398.326	2659.23
398.771	2524.85
399.216	2196.72
399.661	1968.65
400.106	1967.14
400.551	2020.97
400.995	1811.45
401.44	1800.09
401.885	1691.05
402.329	1711.19
402.774	1647.45
403.218	1610.35
403.663	1549.3
404.107	1601.45
404.551	1623.34
404.995	1492.06
405.44	1437.04
405.884	1458.95
406.328	1410.64
406.772	1406.47
407.216	1285.98
407.66	1243.63
408.104	1173.09
408.547	1100.75
408.991	1067.26
409.435	1026.81
409.879	1017.31
410.322	1006.61
410.766	977.93
411.209	935.11
411.653	900.89
412.096	887.57
412.54	889.3
412.983	889.3
413.426	895.34
413.869	896
414.312	884.52
414.756	852.74
415.199	815.55
415.642	795.92
416.085	799.09
416.527	794.59
416.97	806.25
417.413	770.01
417.856	761.86
418.298	755.78
418.741	750.25
419.184	749.03
419.626	778.64
420.069	778.81
420.511	784.25
420.953	772.29
421.396	768.49
421.838	748.12
422.28	767.32
422.722	774.25
423.164	786.14
423.606	776.74
424.048	774.11
424.49	737.68
424.932	732.55
425.374	721.01
425.816	730.58
426.258	743.29
426.699	751.57
427.141	741.84
427.582	750.21
428.024	743.96
428.465	739.44
428.907	720.88
429.348	709.77
429.789	714.31
430.231	701.23
430.672	711.64
431.113	694.86
431.554	685.71
431.995	664.29
432.436	644.65
432.877	633.97
433.318	624.99
433.759	624.01
434.2	626.36
434.64	617.02
435.081	619.29
435.522	586.03
435.962	565.82
436.403	555.12
436.843	563.21
437.284	550.07
437.724	533.02
438.164	530.3
438.604	516.97
439.045	499.03
439.485	481.49
439.925	470.05
440.365	458.93
440.805	452.97
441.245	447.91
441.685	432.46
442.125	429.31
442.564	432.21
443.004	424.46
443.444	424.8
443.883	425.31
444.323	419.82
444.762	418.45
445.202	424.63
445.641	434.34
446.081	430.08
446.52	434.84
446.959	432.64
447.398	423.89
447.837	418.98
448.276	411.69
448.716	415.12
449.154	420.56
449.593	413.72
450.032	412.75
450.471	403.76
450.91	405.8
451.349	405.38
451.787	402.9
452.226	410
452.664	411.36
453.103	413.12
453.541	412.92
453.98	413.85
454.418	416.77
454.856	412.5
455.295	412.64
455.733	417.55
456.171	419.83
456.609	419.3
457.047	418.87
457.485	426.1
457.923	427.22
458.361	421.71
458.798	420.74
459.236	418.67
459.674	419.52
460.111	420.29
460.549	415.28
460.987	412.79
461.424	411.22
461.862	408.71
462.299	400.79
462.736	400.31
463.173	402.18
463.611	400.62
464.048	401.12
464.485	403.89
464.922	400.6
465.359	397.62
465.796	398.54
466.233	397.46
466.67	395.49
467.106	396.25
467.543	391.54
467.98	386.56
468.416	374.87
468.853	370.82
469.29	359.48
469.726	356.49
470.162	347.35
470.599	337.36
471.035	333.43
471.471	324.73
471.907	321.11
472.344	320.03
472.78	320.92
473.216	325.99
473.652	322.86
474.088	323.28
474.523	322.72
474.959	325.79
475.395	324.48
475.831	324.24
476.266	326.02
476.702	325.88
477.138	322.61
477.573	321.75
478.008	320.24
478.444	322.72
478.879	326.29
479.314	327.32
479.75	327.85
480.185	329.2
480.62	330.45
481.055	332.29
481.49	335.45
481.925	340.62
482.36	348.53
482.795	357.74
483.229	365.85
483.664	373.23
484.099	375.25
484.534	381.3
484.968	385.36
485.403	387.37
485.837	387.47
486.271	386.75
486.706	387.63
487.14	382.14
487.574	377.66
488.009	375.76
488.443	373.21
488.877	378.38
489.311	380.23
489.745	385.67
490.179	390.42
490.613	400.02
491.046	404.86
491.48	408.87
491.914	411.02
492.348	415.61
492.781	419.69
493.215	422.33
493.648	423.97
494.082	429.71
494.515	432.54
494.948	440.9
495.382	445.04
495.815	450.33
496.248	457.59
496.681	468.59
497.114	479.02
497.547	489.08
497.98	501.25
498.413	510.32
498.846	520.5
499.279	529.73
499.711	535.88
500.144	542.42
500.577	554.01
501.009	565.45
501.442	577.81
501.874	583.28
502.306	590.02
502.739	601.57
503.171	616.44
503.603	623.39
504.036	635.86
504.468	645.54
504.9	658.54
505.332	668.57
505.764	677.59
506.196	687.07
506.627	703.89
507.059	719.17
507.491	730.36
507.923	734.64
508.354	752.49
508.786	766.57
509.217	786.72
509.649	804.84
510.08	825.2
510.512	843.88
510.943	861.55
511.374	876.57
511.805	898.33
512.237	919.41
512.668	951.59
513.099	978.88
513.53	1006.51
513.961	1028.31
514.391	1059.16
514.822	1092.58
515.253	1127.3
515.684	1154.52
516.114	1184.84
516.545	1208.15
516.975	1236.19
517.406	1255.69
517.836	1262.03
518.267	1272.29
518.697	1292.84
519.127	1301.31
519.558	1311.77
519.988	1318.78
520.418	1330.76
520.848	1348.99
521.278	1360.2
521.708	1390.93
522.138	1406.35
522.567	1437.28
522.997	1462.84
523.427	1478.72
523.857	1496.12
524.286	1508.15
524.716	1525.39
525.145	1546.16
525.575	1557.9
526.004	1572.82
526.433	1557.53
526.863	1559.04
527.292	1552.5
527.721	1559.23
528.15	1566.43
528.579	1567.97
529.008	1579.88
529.437	1601.71
529.866	1615.57
530.295	1633.48
530.724	1646.54
531.152	1673.57
531.581	1688.64
532.01	1705.99
532.438	1714.51
532.867	1728.31
533.295	1746.92
533.723	1753.44
534.152	1752.28
534.58	1751.83
535.008	1737.04
535.436	1739.46
535.865	1746.29
536.293	1758.95
536.721	1774.05
537.149	1798.29
537.576	1801.92
538.004	1815.12
538.432	1821.94
538.86	1819.39
539.287	1826.76
539.715	1839.89
540.143	1842.81
540.57	1838.92
540.998	1835.31
541.425	1813.52
541.852	1793.92
542.28	1791.77
542.707	1774.56
543.134	1761.66
543.561	1758.61
543.988	1750.81
544.415	1750.52
544.842	1744.89
545.269	1739.01
545.696	1741.61
546.123	1754.78
546.549	1745.16
546.976	1734.72
547.403	1736.11
547.829	1738.31
548.256	1740.26
548.682	1738.67
549.108	1732.45
549.535	1733.31
549.961	1735.99
550.387	1725.3
550.813	1721.23
551.24	1728.22
551.666	1729.38
552.092	1720.38
552.518	1714.93
552.943	1710.07
553.369	1717.47
553.795	1723.81
554.221	1724.91
554.646	1722.95
555.072	1733.49
555.498	1737.57
555.923	1746.97
556.349	1761.98
556.774	1771.11
557.199	1772.35
557.625	1779.52
558.05	1775.34
558.475	1786.08
558.9	1785.65
559.325	1777.44
559.75	1771.27
560.175	1766.71
560.6	1760.38
561.025	1758.32
561.449	1760.08
561.874	1765.68
562.299	1771.08
562.723	1777.17
563.148	1766.93
563.572	1770.59
563.997	1780.81
564.421	1785.93
564.846	1784.6
565.27	1787.73
565.694	1784.96
566.118	1796.11
566.542	1804.07
566.966	1796.34
567.39	1791.89
567.814	1780.8
568.238	1780.9
568.662	1784.81
569.086	1786.57
569.509	1794
569.933	1779.13
570.357	1771.94
570.78	1750.86
571.204	1736.64
571.627	1724.89
572.05	1722.46
572.474	1722.48
572.897	1709.82
573.32	1702.42
573.743	1692.56
574.166	1674.27
574.589	1674.34
575.012	1667.05
575.435	1665.83
575.858	1657.69
576.281	1648.21
576.704	1633.27
577.126	1620.81
577.549	1610.22
577.972	1600.61
578.394	1589.72
578.817	1583.37
579.239	1565.71
579.661	1553.16
580.084	1538.25
580.506	1526.18
580.928	1522.07
581.35	1511.37
581.772	1506.87
582.194	1493.12
582.616	1480.91
583.038	1467.68
583.46	1457.13
583.882	1454.03
584.303	1457.14
584.725	1452.5
585.147	1455.53
585.568	1466.09
585.99	1477.5
586.411	1483.92
586.833	1498.28
587.254	1498.72
587.675	1510.78
588.096	1522.97
588.518	1516.92
588.939	1501.33
589.36	1498.1
589.781	1485.5
590.202	1457.73
590.623	1447.43
591.043	1444.69
591.464	1432.57
591.885	1430.02
592.305	1425.92
592.726	1412.68
593.147	1413.95
593.567	1408.56
593.987	1402.02
594.408	1397.53
594.828	1394.25
595.248	1389.38
595.669	1371.54
596.089	1364.23
596.509	1357.36
596.929	1344.32
597.349	1344.31
597.769	1333.79
598.189	1327.5
598.608	1328.92
599.028	1330.58
599.448	1331.09
599.867	1319.09
600.287	1315.54
600.706	1311.61
601.126	1302.27
601.545	1300.33
601.965	1298.96
602.384	1294.63
602.803	1296.07
603.222	1291.19
603.641	1283.7
604.061	1279.22
604.48	1274.66
604.898	1281.18
605.317	1284.25
605.736	1285.39
606.155	1282.98
606.574	1274.12
606.992	1277.37
607.411	1272.59
607.829	1264.19
608.248	1260.84
608.666	1258.97
609.085	1257.59
609.503	1249.35
609.921	1243.71
610.339	1244.93
610.758	1242.81
611.176	1237.41
611.594	1228.1
612.012	1223.72
612.43	1226.01
612.847	1230.55
613.265	1230.26
613.683	1233.33
614.101	1233.52
614.518	1228.54
614.936	1218.49
615.353	1204.87
615.771	1200.59
616.188	1200.85
616.606	1197.14
617.023	1189.32
617.44	1176.21
617.857	1168.4
618.274	1159.06
618.691	1151.83
619.108	1143.23
619.525	1135.95
619.942	1140.56
620.359	1142.33
620.776	1136.64
621.192	1132.56
621.609	1130.41
622.026	1135.37
622.442	1139.74
622.859	1143.34
623.275	1136.05
623.691	1139.7
624.108	1150.23
624.524	1163.63
624.94	1163
625.356	1171.06
625.772	1182.07
626.188	1191.64
626.604	1192.4
627.02	1188.9
627.436	1186.35
627.852	1194.28
628.268	1205.24
628.683	1196.59
629.099	1186.98
629.514	1181.99
629.93	1185.5
630.345	1189.77
630.761	1186.71
631.176	1188.83
631.591	1183.74
632.007	1177.72
632.422	1173.73
632.837	1162.2
633.252	1158.4
633.667	1147.8
634.082	1138.92
634.497	1125.93
634.911	1106.91
635.326	1100.02
635.741	1083.79
636.155	1071.75
636.57	1070.24
636.984	1067.53
637.399	1066.96
637.813	1063.43
638.228	1060.49
638.642	1060.03
639.056	1047.41
639.47	1043.26
639.884	1032.57
640.298	1022.87
640.712	1018.51
641.126	1004.93
641.54	993.43
641.954	983.23
642.368	970.01
642.781	960.27
643.195	941.47
643.609	937.96
644.022	928.64
644.436	921.24
644.849	906.78
645.262	892.27
645.676	888.57
646.089	880.27
646.502	866.27
646.915	858.53
647.328	840.88
647.741	837.21
648.154	824.74
648.567	821.4
648.98	809.73
649.393	808.54
649.805	804.84
650.218	796.53
650.631	783.79
651.043	777.12
651.456	770.94
651.868	769.54
652.28	781.78
652.693	790
653.105	793.08
653.517	797.44
653.929	795.85
654.341	798.34
654.753	787.9
655.165	789.73
655.577	785.14
655.989	779.04
656.401	769.97
656.813	740.19
657.224	722.03
657.636	697.24
658.047	681.8
658.459	663.99
658.87	652.12
659.282	639.97
659.693	622.01
660.104	608.62
660.515	594.53
660.926	588.41
661.338	581.65
661.749	573.12
662.159	563.09
662.57	554.81
662.981	548.32
663.392	539.94
663.803	538.88
664.213	532.4
664.624	524.33
665.035	522.49
665.445	510.33
665.855	502.96
666.266	495.11
666.676	489.91
667.086	481.28
667.497	478.24
667.907	472.18
668.317	463.94
668.727	462.65
669.137	460.37
669.547	457.45
669.956	457.08
670.366	456.07
670.776	455.36
671.186	456.35
671.595	457.49
672.005	456.96
672.414	455.94
672.824	454.33
673.233	452.89
673.642	454.73
674.052	456.38
674.461	458.65
674.87	460.93
675.279	460.55
675.688	459.84
676.097	462.07
676.506	461.38
676.915	469.46
677.323	470.79
677.732	471.07
678.141	471.67
678.549	466.27
678.958	466.04
679.366	467.33
679.775	471.34
680.183	482.29
680.592	487.93
681	495.06
681.408	495.98
681.816	505.44
682.224	514.92
682.632	528.18
683.04	552.41
683.448	575.2
683.856	601.91
684.264	634.44
684.671	663.29
685.079	700.35
685.487	740.47
685.894	793.68
686.302	841.26
686.709	886
687.116	933.66
687.524	978.73
687.931	1020.89
688.338	1061.05
688.745	1093.2
689.152	1131.92
689.559	1178.51
689.966	1227.15
690.373	1257.42
690.78	1301.1
691.187	1362.81
691.593	1412.82
692	1457.18
692.407	1518.05
692.813	1589.85
693.22	1649.39
693.626	1708.33
694.032	1757.5
694.439	1827.97
694.845	1882.74
695.251	1954.12
695.657	2016.31
696.063	2107.65
696.469	2177.11
696.875	2240.84
697.281	2276.02
697.687	2319.59
698.093	2356.69
698.498	2424.93
698.904	2477.67
699.31	2558.1
699.715	2615.36
700.12	2698.77
