Data from N_3_HIR_WI_4N_Splice17_13-12-15-122.txt Node
Date: Sat Mar 14 13:12:15 EDT 2020
User: sa697716
Spectrometer: FLMS03696
Trigger mode: 0
Integration Time (sec): 3.180400E-1
Scans to average: 20
Electric dark correction enabled: true
Nonlinearity correction enabled: true
Boxcar width: 5
XAxis mode: Wavelengths
Number of Pixels in Spectrum: 2048
>>>>>Begin Spectral Data<<<<<
187.83	-298502.45
188.298	2145.15
188.766	1193.94
189.233	1068.92
189.701	1506.35
190.169	2102.85
190.636	814.93
191.104	648.04
191.571	101.6
192.039	-86.01
192.506	-52.92
192.974	463.32
193.441	-900.75
193.908	-209.12
194.375	-47.83
194.842	24.47
195.31	160.27
195.777	204.52
196.244	428.82
196.711	490.06
197.177	607.41
197.644	862.7
198.111	1473.44
198.578	2061.97
199.045	1635.57
199.511	2656.85
199.978	3109
200.445	2637.76
200.911	2898.29
201.378	3247.08
201.844	2940.61
202.31	4965.65
202.777	5182.35
203.243	2868.76
203.709	2744.86
204.176	3271.41
204.642	2719.97
205.108	2544.32
205.574	2069.53
206.04	1885.54
206.506	1748.89
206.972	1660.53
207.438	1622.93
207.903	1834.25
208.369	1615.51
208.835	1611.15
209.301	1703.88
209.766	1732.01
210.232	1729.64
210.697	2164.17
211.163	2714.2
211.628	4169.31
212.094	3532.15
212.559	4382.36
213.024	2758.23
213.49	3392.11
213.955	3333.34
214.42	3270.52
214.885	3073.83
215.35	2950.82
215.815	2856.13
216.28	3051
216.745	2499.92
217.21	2751.85
217.675	2580.46
218.14	2968.73
218.604	3427.02
219.069	4015.54
219.534	4313.52
219.998	5126.53
220.463	6311.29
220.927	7932.45
221.392	7564.67
221.856	7753.38
222.32	9872.8
222.785	12272.77
223.249	15581.65
223.713	17439.99
224.177	17483.04
224.642	22510.56
225.106	27805.2
225.57	30474.85
226.034	22635.15
226.497	34496.16
226.961	31145.59
227.425	36294.38
227.889	40305.38
228.353	40264.8
228.816	83050.49
229.28	79563.7
229.744	67059.38
230.207	40722.9
230.671	40040.18
231.134	66335.34
231.597	76533.32
232.061	76517.05
232.524	74630.76
232.987	51355.1
233.45	46206.52
233.914	41472.58
234.377	42472.21
234.84	38871.55
235.303	45789.19
235.766	51092.14
236.229	52722.14
236.691	33152.75
237.154	37263.53
237.617	27996.62
238.08	28661.92
238.542	33523.43
239.005	23958.65
239.468	23750.19
239.93	22365.72
240.393	20336.46
240.855	17847.9
241.317	18281.45
241.78	22222.67
242.242	22938.45
242.704	24745.95
243.166	21532.14
243.629	19535.63
244.091	22504.28
244.553	24647.39
245.015	26472.55
245.477	34221.48
245.939	50098.23
246.4	53136.78
246.862	51631.01
247.324	48678.74
247.786	54453.65
248.247	71400.12
248.709	73670.36
249.17	55017.47
249.632	51807.8
250.093	60044.85
250.555	51821.9
251.016	31569.67
251.477	29905.8
251.939	32282.4
252.4	33819.23
252.861	40156.72
253.322	37282.64
253.783	44371.38
254.244	57493.67
254.705	45327.99
255.166	40272.2
255.627	39596.64
256.088	55814.32
256.549	59277.75
257.009	51008.2
257.47	61874.7
257.931	50422.54
258.391	37772.47
258.852	38919.84
259.312	40791.58
259.773	50326.99
260.233	42468.04
260.694	35792.64
261.154	40595.05
261.614	32552.36
262.074	29092.79
262.534	30213.65
262.994	28456.8
263.455	37902.79
263.915	31894.82
264.374	30017.89
264.834	32784.32
265.294	36336.72
265.754	37601.7
266.214	35559.01
266.673	33293.4
267.133	42002.02
267.593	41647.81
268.052	50874.85
268.512	44182.93
268.971	53229.83
269.431	58355.55
269.89	52179
270.349	78101.35
270.809	86957.78
271.268	78100.68
271.727	175064.98
272.186	113134.5
272.645	84722.16
273.104	61081.51
273.563	88379.8
274.022	69432.92
274.481	58990.06
274.94	45385.49
275.399	33705.75
275.857	39231.84
276.316	52983.05
276.775	47060.04
277.233	46368.89
277.692	43361.04
278.15	48993.79
278.609	50342.25
279.067	46548.7
279.525	43129.84
279.984	55632.12
280.442	66761.42
280.9	65715.74
281.358	43213.96
281.816	40240.75
282.274	39328.39
282.732	40581.86
283.19	40737.9
283.648	35110.19
284.106	37334.5
284.564	37948.56
285.021	35159.5
285.479	26194.81
285.937	23804.91
286.394	20852.91
286.852	21446.11
287.309	22512.21
287.767	21715.16
288.224	20632.9
288.682	22627.91
289.139	24828.52
289.596	22706.34
290.053	23554.61
290.511	29722.87
290.968	36009.25
291.425	48891.41
291.882	40635.43
292.339	35359.63
292.796	35103.6
293.252	33049.93
293.709	26206.58
294.166	23460.65
294.623	25926.1
295.079	24878.4
295.536	24933.92
295.992	22630.28
296.449	22330.28
296.905	23171.85
297.362	22173.44
297.818	23278.53
298.274	24121.37
298.731	24562.97
299.187	24281.65
299.643	26039.76
300.099	31444.32
300.555	34462.78
301.011	28767.3
301.467	27702.11
301.923	32420.02
302.379	31652.43
302.835	31075.46
303.291	31097.62
303.746	35384.04
304.202	44665.37
304.658	44771.49
305.113	30087.73
305.569	29467.07
306.024	31379.23
306.479	29851.6
306.935	25131.26
307.39	27394.02
307.845	25262.71
308.301	25370.23
308.756	24684.01
309.211	23753.91
309.666	24309.95
310.121	30139.43
310.576	30532.34
311.031	30268.82
311.486	34661.85
311.94	34596.11
312.395	46264.83
312.85	86883.04
313.305	426849.44
313.759	2205919.84
314.214	159760.84
314.668	126548.28
315.123	106320.42
315.577	38088.65
316.032	33798.52
316.486	42291.04
316.94	33356.3
317.394	23201.77
317.849	18013.23
318.303	17021.77
318.757	16057.06
319.211	17749.89
319.665	15517.85
320.119	15694.43
320.572	22513.68
321.026	21035.46
321.48	17494.19
321.934	19055.38
322.387	19089.2
322.841	20619.38
323.295	18511.65
323.748	21319.09
324.202	21570.74
324.655	25875.99
325.108	36137.78
325.562	25495.06
326.015	30288.48
326.468	22888.18
326.921	25540.99
327.374	23741.73
327.827	24674.21
328.28	27945.05
328.733	18710.73
329.186	16464.23
329.639	15680.39
330.092	13205.32
330.545	12563.99
330.997	12644.23
331.45	13798.81
331.903	16182.47
332.355	27837.6
332.808	27022.15
333.26	22264.52
333.713	24141.35
334.165	24261.07
334.617	32382.43
335.069	26131.88
335.522	47150.55
335.974	52248.5
336.426	47726.9
336.878	33010.37
337.33	16710.48
337.782	16322.59
338.234	20415.21
338.686	24369.9
339.137	28872.38
339.589	27149.72
340.041	21251.26
340.493	18276.55
340.944	18701.93
341.396	20150.57
341.847	16926.61
342.299	19989.92
342.75	24358.14
343.201	21307.04
343.653	24509.65
344.104	30101.11
344.555	23702.25
345.006	36880.24
345.457	28204.33
345.908	22380.65
346.359	21011.86
346.81	17099.11
347.261	18022.1
347.712	17715.09
348.163	18952.09
348.613	19184.79
349.064	17900.54
349.515	15664.52
349.965	16054.23
350.416	19330.64
350.866	21181.49
351.317	23886.54
351.767	39545.51
352.217	49864.71
352.668	41394.71
353.118	37871.91
353.568	36470
354.018	28810.2
354.468	30323.38
354.918	21715.94
355.368	18982.2
355.818	26842.04
356.268	77169.16
356.718	322371.28
357.168	80142.26
357.617	40146.34
358.067	44636.2
358.517	41821.47
358.966	49072.9
359.416	55024.02
359.865	59451.12
360.315	70602.35
360.764	32904.02
361.213	18452.5
361.663	17485.35
362.112	21561.93
362.561	34854.13
363.01	26261.49
363.459	22072.99
363.908	23839.64
364.357	20225.75
364.806	34080.07
365.255	23408.93
365.703	21417.6
366.152	21437.71
366.601	17352.46
367.05	14077.96
367.498	12773.14
367.947	13330.51
368.395	13848.47
368.844	12253.58
369.292	14734.37
369.74	10202.49
370.189	15633.73
370.637	18328.42
371.085	15754.08
371.533	19202.82
371.981	18500.02
372.429	17632.79
372.877	18361.21
373.325	15351.35
373.773	15628.23
374.221	13906.96
374.669	17204.72
375.116	14847.44
375.564	14911.64
376.012	16688.87
376.459	13752.74
376.907	16413.64
377.354	19814.75
377.801	18480.84
378.249	21235.7
378.696	27033.51
379.143	32742.3
379.591	34924.75
380.038	59129.44
380.485	42802.8
380.932	46228.22
381.379	42204.13
381.826	31061.81
382.273	22047.83
382.72	19228.48
383.166	18711.52
383.613	12156.26
384.06	10943.75
384.506	12663.59
384.953	9303.96
385.4	9359.04
385.846	8181.84
386.292	7970.53
386.739	7801.84
387.185	7725.75
387.631	7737.67
388.078	7509.8
388.524	8038.68
388.97	7432.61
389.416	6198.02
389.862	6580.29
390.308	6235.68
390.754	6326.79
391.2	6865.63
391.645	7019.63
392.091	6720.99
392.537	6491.56
392.983	6505.51
393.428	6398.33
393.874	6854.47
394.319	6876.37
394.765	6518.54
395.21	6700.1
395.655	6287.84
396.101	5887.98
396.546	5318.03
396.991	5346.59
397.436	4961.83
397.881	4781.3
398.326	4528.63
398.771	4279.22
399.216	3733.12
399.661	3360.52
400.106	3348.27
400.551	3425.54
400.995	3068.84
401.44	3026.79
401.885	2843.09
402.329	2872.82
402.774	2749.74
403.218	2653.44
403.663	2547.68
404.107	2614.16
404.551	2627.1
404.995	2400.62
405.44	2310.03
405.884	2338.85
406.328	2257.91
406.772	2244.19
407.216	2036.64
407.66	1967.97
408.104	1863.72
408.547	1746.09
408.991	1686.31
409.435	1618.83
409.879	1593.73
410.322	1566.37
410.766	1511.87
411.209	1432.7
411.653	1373.83
412.096	1343.65
412.54	1337.93
412.983	1328.71
413.426	1330.45
413.869	1328.36
414.312	1302.2
414.756	1254.63
415.199	1196.64
415.642	1158.99
416.085	1161.95
416.527	1154.24
416.97	1172.25
417.413	1114.5
417.856	1099.54
418.298	1085.16
418.741	1074.45
419.184	1068.2
419.626	1108.19
420.069	1105.76
420.511	1109.64
420.953	1086.58
421.396	1075.46
421.838	1044.81
422.28	1066.95
422.722	1073.92
423.164	1085.72
423.606	1069.19
424.048	1072.02
424.49	1017.09
424.932	1012.28
425.374	998.01
425.816	1013.38
426.258	1027.82
426.699	1039.31
427.141	1026
427.582	1039.81
428.024	1033.19
428.465	1023.39
428.907	993.78
429.348	982.57
429.789	981.14
430.231	961.82
430.672	972.78
431.113	952.79
431.554	938.19
431.995	911.53
432.436	877.04
432.877	859.1
433.318	844.73
433.759	839.89
434.2	838.56
434.64	827.94
435.081	829.88
435.522	787.49
435.962	755.52
436.403	737.94
436.843	747.91
437.284	732.49
437.724	712.06
438.164	712.08
438.604	695.65
439.045	668.73
439.485	643.97
439.925	627
440.365	611.08
440.805	602.57
441.245	597.84
441.685	576.9
442.125	572.05
442.564	576.92
443.004	565.46
443.444	565.88
443.883	568.08
444.323	561.99
444.762	562.58
445.202	569.62
445.641	580.63
446.081	575.93
446.52	579.75
446.959	575.74
447.398	561.93
447.837	556.75
448.276	546.94
448.716	553
449.154	557.7
449.593	547.59
450.032	546.14
450.471	537.25
450.91	537.39
451.349	536.98
451.787	534.7
452.226	542.28
452.664	540.64
453.103	541.9
453.541	540.79
453.98	542.88
454.418	547.22
454.856	540.67
455.295	539.53
455.733	545.52
456.171	549.03
456.609	548.06
457.047	547.78
457.485	558.24
457.923	559.89
458.361	551.31
458.798	551.13
459.236	547.62
459.674	550.85
460.111	553.98
460.549	547.63
460.987	544.88
461.424	542.69
461.862	540.12
462.299	530.32
462.736	529.54
463.173	532.69
463.611	528.86
464.048	529.44
464.485	532.33
464.922	526.49
465.359	523.38
465.796	519.32
466.233	516.63
466.67	512.86
467.106	511.91
467.543	505.4
467.98	497.82
468.416	483.74
468.853	477.94
469.29	463.89
469.726	459.53
470.162	446.57
470.599	438.03
471.035	433.91
471.471	423.06
471.907	419.96
472.344	418.37
472.78	419.96
473.216	425.41
473.652	421.53
474.088	420.13
474.523	418.15
474.959	422.29
475.395	419.45
475.831	417.34
476.266	420
476.702	418.76
477.138	414.46
477.573	413.69
478.008	412.6
478.444	414.6
478.879	419.56
479.314	422.15
479.75	422.64
480.185	423.83
480.62	427.66
481.055	429.37
481.49	433.6
481.925	439.82
482.36	447.81
482.795	459.82
483.229	472.24
483.664	481.49
484.099	482.99
484.534	490.77
484.968	497.08
485.403	498.91
485.837	499.18
486.271	498.33
486.706	498.91
487.14	493.31
487.574	485.29
488.009	481.25
488.443	477.14
488.877	483.04
489.311	485.14
489.745	491.21
490.179	496.34
490.613	506.35
491.046	511.23
491.48	515.65
491.914	517.73
492.348	522.83
492.781	527.01
493.215	529.57
493.648	532.07
494.082	537.04
494.515	538.41
494.948	545.51
495.382	550.54
495.815	555.74
496.248	562.3
496.681	573.56
497.114	584.58
497.547	595.52
497.98	609.77
498.413	618.12
498.846	629.73
499.279	639.47
499.711	646.25
500.144	651.1
500.577	663.01
501.009	674.99
501.442	687.33
501.874	692.7
502.306	697.41
502.739	707.64
503.171	722.26
503.603	728.2
504.036	739.63
504.468	749.05
504.9	762.61
505.332	771.45
505.764	779.53
506.196	789.72
506.627	806.82
507.059	823.11
507.491	833.35
507.923	836.64
508.354	853.65
508.786	866.93
509.217	886.26
509.649	903.84
510.08	926.03
510.512	945.22
510.943	962.01
511.374	975.67
511.805	997.37
512.237	1019.43
512.668	1052.58
513.099	1081.53
513.53	1111.78
513.961	1135.12
514.391	1168.08
514.822	1202.21
515.253	1239.25
515.684	1268.11
516.114	1299.95
516.545	1323.35
516.975	1352.03
517.406	1372.51
517.836	1379.29
518.267	1388.58
518.697	1409.8
519.127	1417.24
519.558	1426.86
519.988	1433.3
520.418	1445.64
520.848	1464.57
521.278	1476.03
521.708	1499.33
522.138	1514.29
522.567	1546.4
522.997	1572.48
523.427	1589.29
523.857	1607.48
524.286	1619.04
524.716	1635.5
525.145	1654.95
525.575	1667.4
526.004	1683.04
526.433	1673.91
526.863	1675.28
527.292	1666.46
527.721	1673.92
528.15	1679.96
528.579	1681.9
529.008	1694.88
529.437	1718.5
529.866	1733.66
530.295	1751.92
530.724	1765.34
531.152	1793.04
531.581	1807.38
532.01	1827.11
532.438	1836
532.867	1851.74
533.295	1871.22
533.723	1877.96
534.152	1875.57
534.58	1875.14
535.008	1858.72
535.436	1860.03
535.865	1867.94
536.293	1883.58
536.721	1898.33
537.149	1924.46
537.576	1926.29
538.004	1938.26
538.432	1945.05
538.86	1944.58
539.287	1952.02
539.715	1966.78
540.143	1969.72
540.57	1966.29
540.998	1961.24
541.425	1937.05
541.852	1915
542.28	1913.88
542.707	1899.5
543.134	1885.87
543.561	1881.2
543.988	1873.77
544.415	1872.72
544.842	1868.17
545.269	1861.06
545.696	1863.89
546.123	1878.48
546.549	1868.56
546.976	1855.6
547.403	1853.95
547.829	1855.69
548.256	1858.45
548.682	1854.96
549.108	1848.54
549.535	1848.52
549.961	1851.01
550.387	1837.43
550.813	1832.39
551.24	1839.05
551.666	1840.98
552.092	1831.44
552.518	1825.53
552.943	1820.09
553.369	1827.79
553.795	1833.97
554.221	1835.19
554.646	1831.67
555.072	1843.21
555.498	1847.77
555.923	1856.47
556.349	1872.3
556.774	1882.55
557.199	1883.97
557.625	1890.3
558.05	1884.54
558.475	1893.83
558.9	1894.04
559.325	1887.09
559.75	1881.2
560.175	1875.09
560.6	1869.99
561.025	1867.66
561.449	1867.45
561.874	1874
562.299	1878.79
562.723	1886.05
563.148	1877.58
563.572	1881.1
563.997	1890.7
564.421	1896.68
564.846	1896.73
565.27	1899.66
565.694	1896.25
566.118	1908.46
566.542	1916.46
566.966	1907.77
567.39	1902.6
567.814	1890.48
568.238	1888.64
568.662	1893.08
569.086	1893.57
569.509	1900.12
569.933	1882.5
570.357	1874.65
570.78	1851.63
571.204	1835.64
571.627	1824.58
572.05	1821.46
572.474	1819.29
572.897	1805.6
573.32	1796.86
573.743	1785.88
574.166	1766.58
574.589	1768.03
575.012	1759.63
575.435	1758.26
575.858	1749.58
576.281	1737.95
576.704	1720.68
577.126	1708.44
577.549	1697
577.972	1687.12
578.394	1677.07
578.817	1670.21
579.239	1650.6
579.661	1636.37
580.084	1620.39
580.506	1607.38
580.928	1603.38
581.35	1593.57
581.772	1589.71
582.194	1576.33
582.616	1563.36
583.038	1549.24
583.46	1537.51
583.882	1533.43
584.303	1538.96
584.725	1534.52
585.147	1535.2
585.568	1545.64
585.99	1557.04
586.411	1563.03
586.833	1577.62
587.254	1578.81
587.675	1592.57
588.096	1605.17
588.518	1599.74
588.939	1581.2
589.36	1578.62
589.781	1567.63
590.202	1538.7
590.623	1529.95
591.043	1526.86
591.464	1513.64
591.885	1509.64
592.305	1503.37
592.726	1488.85
593.147	1489.72
593.567	1484.67
593.987	1477.41
594.408	1472.96
594.828	1471.1
595.248	1465.96
595.669	1447.53
596.089	1441.04
596.509	1433.8
596.929	1420.52
597.349	1422.61
597.769	1412.46
598.189	1406.36
598.608	1407.59
599.028	1409.48
599.448	1409.44
599.867	1396.56
600.287	1391.48
600.706	1386.23
601.126	1377.45
601.545	1375.95
601.965	1373.92
602.384	1367.83
602.803	1370.14
603.222	1364.41
603.641	1356.65
604.061	1352.33
604.48	1346.68
604.898	1354.12
605.317	1358.72
605.736	1359.46
606.155	1355.37
606.574	1344.88
606.992	1350.09
607.411	1343.92
607.829	1334.53
608.248	1330.65
608.666	1327.23
609.085	1326.45
609.503	1316.95
609.921	1310.17
610.339	1310.28
610.758	1309.02
611.176	1303.4
611.594	1293.16
612.012	1288.65
612.43	1291.61
612.847	1296.97
613.265	1298.13
613.683	1301.24
614.101	1302.43
614.518	1297.56
614.936	1287.88
615.353	1273.14
615.771	1269.72
616.188	1269.13
616.606	1265.07
617.023	1256.5
617.44	1241.14
617.857	1231.8
618.274	1222
618.691	1214.9
619.108	1204.91
619.525	1197.62
619.942	1202.74
620.359	1204.2
620.776	1198.39
621.192	1194.47
621.609	1191.79
622.026	1198.68
622.442	1204.42
622.859	1207.34
623.275	1199.8
623.691	1204.11
624.108	1215.28
624.524	1228.33
624.94	1227.93
625.356	1236.39
625.772	1247.95
626.188	1259.63
626.604	1260.41
627.02	1255.16
627.436	1252.85
627.852	1259.11
628.268	1269.67
628.683	1259.93
629.099	1251.55
629.514	1246.78
629.93	1250.63
630.345	1253.98
630.761	1248.48
631.176	1250.62
631.591	1246.31
632.007	1240.14
632.422	1236.98
632.837	1226.24
633.252	1223.89
633.667	1213.09
634.082	1202.97
634.497	1190.2
634.911	1171.54
635.326	1167.51
635.741	1149.37
636.155	1135.55
636.57	1134.16
636.984	1132.66
637.399	1132.4
637.813	1128.71
638.228	1125.69
638.642	1127
639.056	1114.12
639.47	1111.29
639.884	1100.69
640.298	1091.94
640.712	1089.66
641.126	1075.76
641.54	1063.97
641.954	1056.26
642.368	1043.46
642.781	1032.84
643.195	1013.99
643.609	1012.6
644.022	1004.4
644.436	997.95
644.849	984.56
645.262	971.08
645.676	970.04
646.089	963.43
646.502	946.82
646.915	939.23
647.328	921.95
647.741	918.39
648.154	903.65
648.567	899.23
648.98	885.53
649.393	884.51
649.805	880.71
650.218	872.36
650.631	858.23
651.043	852.69
651.456	845.92
651.868	845.44
652.28	859.06
652.693	870.45
653.105	875.04
653.517	881.8
653.929	881.34
654.341	882.84
654.753	871.63
655.165	874.55
655.577	869.78
655.989	864.2
656.401	854.86
656.813	822.29
657.224	802.49
657.636	775.08
658.047	758.11
658.459	739.08
658.87	729.2
659.282	716.86
659.693	698.18
660.104	684.24
660.515	669.94
660.926	664.8
661.338	659.97
661.749	651.93
662.159	642
662.57	635.73
662.981	629.08
663.392	620.61
663.803	619.96
664.213	614.86
664.624	609.5
665.035	609.25
665.445	597.18
665.855	589.49
666.266	582.53
666.676	578.92
667.086	569.47
667.497	567.44
667.907	560.98
668.317	553.47
668.727	550.08
669.137	547.25
669.547	544.62
669.956	545.1
670.366	545.03
670.776	544.86
671.186	546.88
671.595	550.4
672.005	552
672.414	551.75
672.824	551.59
673.233	553.95
673.642	554.95
674.052	557.54
674.461	560.22
674.87	562.65
675.279	561.09
675.688	561.52
676.097	562.65
676.506	560.92
676.915	571.94
677.323	574.1
677.732	573.03
678.141	575.28
678.549	568.36
678.958	568.47
679.366	570.21
679.775	575.04
680.183	585.42
680.592	590.91
681	597.27
681.408	594.41
681.816	602.35
682.224	612.05
682.632	623.21
683.04	649.78
683.448	671.57
683.856	699.85
684.264	732.46
684.671	763.48
685.079	801.35
685.487	843.68
685.894	901.19
686.302	951.06
686.709	995.26
687.116	1044.47
687.524	1088.67
687.931	1129.22
688.338	1163.64
688.745	1194.43
689.152	1229.39
689.559	1275.25
689.966	1319.67
690.373	1343.93
690.78	1385.03
691.187	1448.83
691.593	1499.28
692	1541.07
692.407	1604.66
692.813	1681.46
693.22	1743
693.626	1806.47
694.032	1857.23
694.439	1932.73
694.845	1994.47
695.251	2071.28
695.657	2136.5
696.063	2233.97
696.469	2308.62
696.875	2376.3
697.281	2416.7
697.687	2463.38
698.093	2503.34
698.498	2578.36
