Data from N_3_DIV_OH_2N_Splice17_12-49-35-737.txt Node
Date: Sat Mar 14 12:49:35 EDT 2020
User: sa697716
Spectrometer: FLMS03696
Trigger mode: 0
Integration Time (sec): 3.180400E-1
Scans to average: 20
Electric dark correction enabled: true
Nonlinearity correction enabled: true
Boxcar width: 5
XAxis mode: Wavelengths
Number of Pixels in Spectrum: 2048
>>>>>Begin Spectral Data<<<<<
187.83	-355695.71
188.298	2624.52
188.766	1403.23
189.233	1269.88
189.701	1869.14
190.169	2584.28
190.636	1004.64
191.104	814.1
191.571	137.44
192.039	-66.22
192.506	-62.65
192.974	561.56
193.441	-843.2
193.908	-117.07
194.375	4.48
194.842	86.46
195.31	236.26
195.777	243.29
196.244	506.71
196.711	594.97
197.177	754.35
197.644	1076.37
198.111	1858.41
198.578	2569.55
199.045	1994.12
199.511	3212.28
199.978	3703.09
200.445	3118.54
200.911	3412.83
201.378	3751.06
201.844	3353.39
202.31	5622.66
202.777	5710.12
203.243	3107.03
203.709	2930.73
204.176	3472.25
204.642	2845.96
205.108	2649.52
205.574	2117.31
206.04	1913.55
206.506	1787.01
206.972	1674.79
207.438	1594.21
207.903	1800.06
208.369	1578.6
208.835	1559.78
209.301	1629.46
209.766	1642.15
210.232	1610.41
210.697	1974.43
211.163	2391.67
211.628	3546.01
212.094	2937.73
212.559	3605.76
213.024	2221.72
213.49	2694.18
213.955	2581.52
214.42	2468.61
214.885	2286.79
215.35	2177.22
215.815	2092.95
216.28	2195.39
216.745	1733.84
217.21	1805.58
217.675	1557.54
218.14	1648.13
218.604	1681.28
219.069	1781.45
219.534	1751.22
219.998	1873.58
220.463	2078.99
220.927	2273.24
221.392	1980.16
221.856	1894.66
222.32	2208.23
222.785	2580.28
223.249	3060.94
223.713	3272.06
224.177	3120.39
224.642	3815.64
225.106	4450.71
225.57	4679.03
226.034	3477.92
226.497	5141.5
226.961	4585.56
227.425	5228.61
227.889	5584.76
228.353	5444.07
228.816	10886.63
229.28	10208.28
229.744	8316.38
230.207	5056.15
230.671	4915.16
231.134	7806.67
231.597	8973.24
232.061	8674.22
232.524	8198.56
232.987	5639.65
233.45	5081.97
233.914	4539.68
234.377	4573.89
234.84	4163.88
235.303	4801.34
235.766	5311.97
236.229	5432.09
236.691	3340.69
237.154	3719.18
237.617	2853.31
238.08	2886.76
238.542	3329.17
239.005	2376.95
239.468	2373.92
239.93	2248.57
240.393	2047.35
240.855	1795.31
241.317	1827.41
241.78	2206.62
242.242	2301.13
242.704	2512.46
243.166	2201.76
243.629	2045.94
244.091	2353.96
244.553	2554.61
245.015	2752.09
245.477	3547.54
245.939	5149.34
246.4	5474.5
246.862	5309.09
247.324	4983.49
247.786	5489.94
248.247	7118.22
248.709	7164.46
249.17	5389.25
249.632	5187.4
250.093	6053.84
250.555	5231.3
251.016	3238.28
251.477	3074.6
251.939	3346.49
252.4	3491.34
252.861	4108.49
253.322	3860.71
253.783	4573.83
254.244	5896.36
254.705	4583.73
255.166	4022.21
255.627	3961.01
256.088	5614.19
256.549	5999.94
257.009	5143.86
257.47	6246.03
257.931	5057.91
258.391	3792.89
258.852	3916.92
259.312	4076.94
259.773	5026.15
260.233	4305.93
260.694	3668.74
261.154	4114.45
261.614	3327.06
262.074	2944.58
262.534	3063.2
262.994	2900.99
263.455	3798.93
263.915	3193.34
264.374	2979.14
264.834	3216.26
265.294	3509.69
265.754	3609.79
266.214	3376.99
266.673	3125.12
267.133	3913.82
267.593	3828.35
268.052	4658.52
268.512	4034.12
268.971	4952.32
269.431	5458.7
269.89	4864.9
270.349	7273.01
270.809	8101.45
271.268	7317.65
271.727	16194.48
272.186	10509.87
272.645	7874.27
273.104	5655.63
273.563	8198.31
274.022	6301.21
274.481	5412.18
274.94	4236.96
275.399	3145.25
275.857	3648.73
276.316	4905.05
276.775	4398.09
277.233	4355.5
277.692	4175.61
278.15	4766.54
278.609	5005.82
279.067	4654.34
279.525	4361.68
279.984	5605.31
280.442	6763.41
280.9	6800.34
281.358	4501.81
281.816	4251.27
282.274	4203.13
282.732	4296.55
283.19	4314.6
283.648	3725.07
284.106	3991.82
284.564	4045.94
285.021	3817.46
285.479	2864.92
285.937	2568.6
286.394	2298.51
286.852	2366.49
287.309	2489.81
287.767	2467.45
288.224	2377.36
288.682	2600.2
289.139	2894.11
289.596	2670.85
290.053	2753.63
290.511	3464.47
290.968	4224.52
291.425	5671.28
291.882	4784.59
292.339	4193.5
292.796	4077.53
293.252	3828.13
293.709	3090.79
294.166	2747.26
294.623	3020.11
295.079	2867.61
295.536	2908.47
295.992	2653.57
296.449	2627.85
296.905	2735.6
297.362	2623.46
297.818	2764
298.274	2886.23
298.731	2899.96
299.187	2865.64
299.643	3068.81
300.099	3751.1
300.555	4079.55
301.011	3380.97
301.467	3342.09
301.923	3827.67
302.379	3747.92
302.835	3691.78
303.291	3700.1
303.746	4210.11
304.202	5325.2
304.658	5328.01
305.113	3596.4
305.569	3562.2
306.024	3797.93
306.479	3552.74
306.935	3076.41
307.39	3353.02
307.845	3110.29
308.301	3158.45
308.756	3094.55
309.211	3020.63
309.666	3139.44
310.121	3969.95
310.576	4022.53
311.031	4011.09
311.486	4570.56
311.94	4540.55
312.395	6111.72
312.85	11499.21
313.305	55732.77
313.759	295212.11
314.214	21496.46
314.668	17165.17
315.123	14403.71
315.577	5222.22
316.032	4701.68
316.486	5928.07
316.94	4706.71
317.394	3308.11
317.849	2574.84
318.303	2452.8
318.757	2322.62
319.211	2569.27
319.665	2243.94
320.119	2280.25
320.572	3238.15
321.026	3044.99
321.48	2522.35
321.934	2712.2
322.387	2695.79
322.841	2940.52
323.295	2705.73
323.748	3041.8
324.202	3074.63
324.655	3718.48
325.108	5278.06
325.562	3774.87
326.015	4444.04
326.468	3398.49
326.921	3844.53
327.374	3633.74
327.827	3824.39
328.28	4326.25
328.733	2941.02
329.186	2614.43
329.639	2494.23
330.092	2099.02
330.545	2006.79
330.997	2055.87
331.45	2295.54
331.903	2729.27
332.355	4640.04
332.808	4483.43
333.26	3671.73
333.713	4029.09
334.165	4029.82
334.617	5369.05
335.069	4263.36
335.522	7680.91
335.974	8534.63
336.426	7680.51
336.878	5229.13
337.33	2705.71
337.782	2669.53
338.234	3416.12
338.686	4106.53
339.137	4898.5
339.589	4611.61
340.041	3648.89
340.493	3135.89
340.944	3194.43
341.396	3461.88
341.847	2950.82
342.299	3514.64
342.75	4323.51
343.201	3689.21
343.653	4194.63
344.104	5131.06
344.555	4059.1
345.006	6198.26
345.457	4834.47
345.908	3824.44
346.359	3668.28
346.81	2993.78
347.261	3125.94
347.712	3024.88
348.163	3266.79
348.613	3364.75
349.064	3153.24
349.515	2750.25
349.965	2873.54
350.416	3458.86
350.866	3775.23
351.317	4176.99
351.767	6906.37
352.217	8678.9
352.668	7328.46
353.118	6734.2
353.568	6436.62
354.018	5141.05
354.468	5471.68
354.918	3964.78
355.368	3437.63
355.818	4895.96
356.268	14051.97
356.718	59924.17
357.168	15059.55
357.617	7524.11
358.067	8330.94
358.517	7796.75
358.966	9216.61
359.416	10474.72
359.865	11248.63
360.315	13401.49
360.764	6300.02
361.213	3567.5
361.663	3308.05
362.112	4075.36
362.561	6570.81
363.01	5002.02
363.459	4220.87
363.908	4525.24
364.357	3860.78
364.806	6467.46
365.255	4467.23
365.703	4144.41
366.152	4164.09
366.601	3408.84
367.05	2794.89
367.498	2579.65
367.947	2692.07
368.395	2800.94
368.844	2524.18
369.292	2993.54
369.74	2099.97
370.189	3217.64
370.637	3770.88
371.085	3263.66
371.533	3995.22
371.981	3823.54
372.429	3692.87
372.877	3832.58
373.325	3231.7
373.773	3270.17
374.221	2915.32
374.669	3617.9
375.116	3140.45
375.564	3145.05
376.012	3498.11
376.459	2892.3
376.907	3439.19
377.354	4093.07
377.801	3879.88
378.249	4499.93
378.696	5718.98
379.143	6961.49
379.591	7372.79
380.038	12543.26
380.485	9198.89
380.932	9977.81
381.379	9305.3
381.826	6971.76
382.273	4995.29
382.72	4363.51
383.166	4269.03
383.613	2817.36
384.06	2576.19
384.506	3046.51
384.953	2261.55
385.4	2293.16
385.846	2060.46
386.292	2023.69
386.739	2052.21
387.185	2089.6
387.631	2169.97
388.078	2223.23
388.524	2475.93
388.97	2391.21
389.416	2072.41
389.862	2272.84
390.308	2225.96
390.754	2340.12
391.2	2662.16
391.645	2873.43
392.091	2964.79
392.537	3052.65
392.983	3199.2
393.428	3317.31
393.874	3710.6
394.319	3990.11
394.765	4139.75
395.21	4714.79
395.655	4909.94
396.101	5094.67
396.546	5072.25
396.991	5620.97
397.436	5757.48
397.881	6163.4
398.326	6492.52
398.771	6823.04
399.216	6594.7
399.661	6514.23
400.106	7047.56
400.551	7786.65
400.995	7502.39
401.44	7924.04
401.885	7902.57
402.329	8457.9
402.774	8541.04
403.218	8666.35
403.663	8791.97
404.107	9498.38
404.551	10068.96
404.995	9753.77
405.44	9969.58
405.884	10709.87
406.328	10930.93
406.772	11433.19
407.216	10899.94
407.66	11081.82
408.104	11159.24
408.547	11011.45
408.991	11180.29
409.435	11244.73
409.879	11492.79
410.322	11723.95
410.766	11702.58
411.209	11520.52
411.653	11495.46
412.096	11668.86
412.54	12093.91
412.983	12374.71
413.426	12730.94
413.869	13088.87
414.312	13152.18
414.756	13019.93
415.199	12750.9
415.642	12671.04
416.085	12959.35
416.527	13131.24
416.97	13614.77
417.413	13108.27
417.856	13187.88
418.298	13233.45
418.741	13272.12
419.184	13372.3
419.626	14071.81
420.069	14178.07
420.511	14366.81
420.953	14190.54
421.396	14215.55
421.838	14031.74
422.28	14519.62
422.722	14738.07
423.164	15212.67
423.606	15201.43
424.048	15469.16
424.49	14897.39
424.932	15059.72
425.374	15086.31
425.816	15492.8
426.258	15771.14
426.699	15784.48
427.141	15245.39
427.582	15243.09
428.024	15000.08
428.465	14972.94
428.907	14795.26
429.348	14930.34
429.789	15175.74
430.231	15039.61
430.672	15462.34
431.113	15409.46
431.554	15677.92
431.995	16007.57
432.436	16074.46
432.877	16308.95
433.318	16426.74
433.759	16710.04
434.2	16961.35
434.64	17031.29
435.081	17327.74
435.522	16689.24
435.962	16410.47
436.403	16312.36
436.843	16830.42
437.284	16747.46
437.724	16525.39
438.164	16821.13
438.604	16609.82
439.045	16113.5
439.485	15608.36
439.925	15535.74
440.365	15398.19
440.805	15398.73
441.245	15355.66
441.685	14889.88
442.125	14895.36
442.564	15055.19
443.004	14724.8
443.444	14741.87
443.883	14832.27
444.323	14887.09
444.762	15084.72
445.202	15399.35
445.641	15705.02
446.081	15760.21
446.52	15965.27
446.959	15890.5
447.398	15612.57
447.837	15592.61
448.276	15465.99
448.716	15706.3
449.154	15895.3
449.593	15441.25
450.032	15331
450.471	15076.65
450.91	15062.74
451.349	14947.06
451.787	14846.43
452.226	14999
452.664	14912.23
453.103	14850.27
453.541	14791.61
453.98	14635.32
454.418	14719.83
454.856	14406.79
455.295	14319.85
455.733	14329.47
456.171	14356.06
456.609	14271.46
457.047	14192.38
457.485	14290.84
457.923	14238.72
458.361	14011.4
458.798	14064.04
459.236	14022.14
459.674	14188.19
460.111	14284.57
460.549	14186.24
460.987	14209.48
461.424	14239.68
461.862	14226.94
462.299	14076.84
462.736	14095.29
463.173	14195.9
463.611	14008.03
464.048	13998.36
464.485	14152.37
464.922	14112.53
465.359	14157.78
465.796	13848.83
466.233	13838.42
466.67	13763.49
467.106	13804.62
467.543	13805.86
467.98	13748.4
468.416	13589.65
468.853	13647.57
469.29	13375.86
469.726	13331.26
470.162	13062.97
470.599	13164.03
471.035	13149.18
471.471	12940.21
471.907	12991.74
472.344	12976.47
472.78	13010.85
473.216	13192.26
473.652	13007.83
474.088	12966.71
474.523	12878.17
474.959	12976.2
475.395	12819.77
475.831	12668.85
476.266	12681.94
476.702	12587.03
477.138	12369.9
477.573	12268.18
478.008	12134.27
478.444	12079.6
478.879	12056.09
479.314	12005.23
479.75	11883.28
480.185	11838.14
480.62	11831.2
481.055	11769.8
481.49	11701.46
481.925	11713.7
482.36	11682.11
482.795	11806
483.229	11919.73
483.664	11951.95
484.099	11802.35
484.534	11787.45
484.968	11728.93
485.403	11621
485.837	11489.21
486.271	11353.08
486.706	11268.84
487.14	11123.56
487.574	10910.62
488.009	10785.95
488.443	10661.73
488.877	10692.41
489.311	10668.99
489.745	10713.46
490.179	10726.27
490.613	10802.41
491.046	10821.64
491.48	10827.86
491.914	10758.4
492.348	10762.49
492.781	10751.41
493.215	10722.31
493.648	10716.8
494.082	10749
494.515	10694.48
494.948	10734.57
495.382	10764.04
495.815	10746.94
496.248	10740.02
496.681	10847.51
497.114	10931.02
497.547	10971.98
497.98	11028.62
498.413	10969.5
498.846	10975.65
499.279	10988.13
499.711	10953.86
500.144	10883.41
500.577	10902.2
501.009	10941.44
501.442	10936.57
501.874	10828.95
502.306	10771.4
502.739	10746.82
503.171	10870.66
503.603	10820.69
504.036	10836.8
504.468	10791.23
504.9	10810.55
505.332	10783.49
505.764	10714.72
506.196	10690
506.627	10738.12
507.059	10754.33
507.491	10755.06
507.923	10572.75
508.354	10595.96
508.786	10573.77
509.217	10624.66
509.649	10640.28
510.08	10695.69
510.512	10705.23
510.943	10702.19
511.374	10658.08
511.805	10700.8
512.237	10736.88
512.668	10902.1
513.099	10993.88
513.53	11053.19
513.961	11033.01
514.391	11111.98
514.822	11179.44
515.253	11291.29
515.684	11311.4
516.114	11371.2
516.545	11356.61
516.975	11386.47
517.406	11349.69
517.836	11211.72
518.267	11123.25
518.697	11135.38
519.127	11049.06
519.558	10992.16
519.988	10899.51
520.418	10864.74
520.848	10878.64
521.278	10827.82
521.708	10548.15
522.138	10528.66
522.567	10630.81
522.997	10680.03
523.427	10659.37
523.857	10636.73
524.286	10583.29
524.716	10571.02
525.145	10582.42
525.575	10553.44
526.004	10556.99
526.433	10677.58
526.863	10594.97
527.292	10447.2
527.721	10420.41
528.15	10414.38
528.579	10380.46
529.008	10406.9
529.437	10501.48
529.866	10526.64
530.295	10567.62
530.724	10568.73
531.152	10662.95
531.581	10681.63
532.01	10737.1
532.438	10737.03
532.867	10775.58
533.295	10835.8
533.723	10826.74
534.152	10772.68
534.58	10737.26
535.008	10618.24
535.436	10599.89
535.865	10621.81
536.293	10680.92
536.721	10738.61
537.149	10841.48
537.576	10814.26
538.004	10859.24
538.432	10887.59
538.86	10862.81
539.287	10896.52
539.715	10962.87
540.143	10983.32
540.57	10964.84
540.998	10957.57
541.425	10829.72
541.852	10741.56
542.28	10762.05
542.707	10701.1
543.134	10643.52
543.561	10642.79
543.988	10620.56
544.415	10643.57
544.842	10634.79
545.269	10611.28
545.696	10635.69
546.123	10745.9
546.549	10704.03
546.976	10645.79
547.403	10657.88
547.829	10692.23
548.256	10729.57
548.682	10728.33
549.108	10702.65
549.535	10723.68
549.961	10756.07
550.387	10697.24
550.813	10671.53
551.24	10727.37
551.666	10754.15
552.092	10715.46
552.518	10698.07
552.943	10669.97
553.369	10732.85
553.795	10779.9
554.221	10789.09
554.646	10780.06
555.072	10837.36
555.498	10875.4
555.923	10926.93
556.349	11009.34
556.774	11056.13
557.199	11058.75
557.625	11109.37
558.05	11072.02
558.475	11140.62
558.9	11139.04
559.325	11091.22
559.75	11066.81
560.175	11041.56
560.6	11020.13
561.025	11021.56
561.449	11040.12
561.874	11079.83
562.299	11094.47
562.723	11139.68
563.148	11070.83
563.572	11094.84
563.997	11156.95
564.421	11193.42
564.846	11192.95
565.27	11201.63
565.694	11177.77
566.118	11231.42
566.542	11260.13
566.966	11212.68
567.39	11168.13
567.814	11090
568.238	11080.66
568.662	11111.6
569.086	11127.9
569.509	11190.89
569.933	11116.83
570.357	11111.4
570.78	11026.77
571.204	10986.49
571.627	10977.8
572.05	11031.07
572.474	11094.16
572.897	11091.39
573.32	11112.48
573.743	11136.05
574.166	11087.58
574.589	11171.4
575.012	11194.16
575.435	11268.58
575.858	11291.76
576.281	11303.31
576.704	11288.68
577.126	11306.53
577.549	11321.39
577.972	11352.07
578.394	11363.49
578.817	11386.28
579.239	11347.05
579.661	11339.72
580.084	11302.58
580.506	11299.86
580.928	11361.58
581.35	11366.68
581.772	11407.42
582.194	11377.58
582.616	11344.42
583.038	11307.12
583.46	11303.21
583.882	11329.99
584.303	11420.64
584.725	11449.91
585.147	11457.48
585.568	11546.46
585.99	11623.42
586.411	11654.57
586.833	11749.74
587.254	11756.17
587.675	11869.48
588.096	11971.6
588.518	11939.61
588.939	11816.35
589.36	11806.48
589.781	11796.85
590.202	11586.08
590.623	11571.68
591.043	11609.45
591.464	11552.07
591.885	11546.42
592.305	11516.84
592.726	11423.44
593.147	11434.31
593.567	11394.57
593.987	11330.49
594.408	11277.54
594.828	11275.06
595.248	11196.79
595.669	11019.13
596.089	10940.5
596.509	10873.18
596.929	10736.9
597.349	10703.78
597.769	10590.02
598.189	10496.3
598.608	10463.64
599.028	10431.07
599.448	10391.1
599.867	10267.22
600.287	10215.6
600.706	10153.26
601.126	10050.66
601.545	10015.97
601.965	9991.63
602.384	9942.55
602.803	9956.65
603.222	9912.16
603.641	9868.4
604.061	9840.46
604.48	9822.36
604.898	9889.38
605.317	9941.16
605.736	9970.98
606.155	9962.39
606.574	9911.29
606.992	9968.12
607.411	9951.37
607.829	9926.9
608.248	9934.77
608.666	9950.86
609.085	9973.02
609.503	9937.19
609.921	9917.57
610.339	9962.79
610.758	9996.05
611.176	9996.93
611.594	9963.04
612.012	9977.36
612.43	10026.17
612.847	10103.53
613.265	10127.35
613.683	10189.56
614.101	10229.99
614.518	10242.18
614.936	10205.7
615.353	10128.29
615.771	10139.57
616.188	10179.23
616.606	10189.25
617.023	10177.19
617.44	10108.35
617.857	10113.53
618.274	10092.2
618.691	10076.24
619.108	10035.33
619.525	10014.45
619.942	10084.93
620.359	10121.94
620.776	10095.21
621.192	10062.87
621.609	10043.43
622.026	10084.12
622.442	10117.76
622.859	10139.36
623.275	10081.81
623.691	10120.16
624.108	10204.62
624.524	10314.72
624.94	10304.92
625.356	10372.23
625.772	10477.38
626.188	10570.77
626.604	10580.12
627.02	10542.32
627.436	10514.79
627.852	10555.78
628.268	10637.91
628.683	10561.04
629.099	10492.09
629.514	10464.57
629.93	10506.36
630.345	10550
630.761	10534.11
631.176	10581.3
631.591	10541.19
632.007	10514.37
632.422	10538.84
632.837	10483.06
633.252	10488.81
633.667	10445.21
634.082	10409.73
634.497	10342.3
634.911	10217.03
635.326	10237.95
635.741	10148.26
636.155	10135.5
636.57	10194.59
636.984	10245.04
637.399	10305.58
637.813	10375.16
638.228	10430.09
638.642	10534.79
639.056	10522.19
639.47	10606.31
639.884	10606.34
640.298	10630.13
640.712	10695.05
641.126	10676.33
641.54	10694.61
641.954	10764.43
642.368	10738.07
642.781	10728.5
643.195	10651.78
643.609	10734.93
644.022	10761.48
644.436	10797.26
644.849	10758.2
645.262	10715.08
645.676	10802.13
646.089	10805.84
646.502	10687.17
646.915	10693.88
647.328	10604.05
647.741	10644.25
648.154	10577.95
648.567	10575.36
648.98	10488.34
649.393	10547.19
649.805	10567.31
650.218	10546.59
650.631	10433.07
651.043	10433.45
651.456	10413.75
651.868	10459.46
652.28	10659.41
652.693	10784.34
653.105	10822.11
653.517	10857.07
653.929	10796.29
654.341	10815.25
654.753	10664.07
655.165	10744.84
655.577	10744.82
655.989	10745.77
656.401	10737.05
656.813	10421.24
657.224	10330.13
657.636	10196.99
658.047	10175.36
658.459	10138.37
658.87	10210.03
659.282	10230.03
659.693	10099.01
660.104	10033.83
660.515	9976.41
660.926	10044.67
661.338	10117.38
661.749	10139.86
662.159	10100.57
662.57	10150.82
662.981	10175.32
663.392	10153.28
663.803	10269.45
664.213	10322.27
664.624	10342.88
665.035	10453.36
665.445	10347.6
665.855	10299.63
666.266	10234.08
666.676	10259.37
667.086	10182.04
667.497	10195.87
667.907	10139.29
668.317	10040.16
668.727	9960.06
669.137	9987.78
669.547	9953.29
669.956	9991.34
670.366	10017.7
670.776	10028.59
671.186	10071.8
671.595	10091.52
672.005	10130.75
672.414	10088.37
672.824	10035.57
673.233	10121.75
673.642	10120.44
674.052	10118.36
674.461	10091.63
674.87	10121.02
675.279	10038.23
675.688	10033.34
676.097	9994.67
676.506	9906.37
676.915	10058.91
677.323	10048.82
677.732	9974.08
678.141	9920.97
678.549	9750.31
678.958	9703.7
679.366	9644.05
679.775	9669.21
680.183	9688.78
680.592	9698.09
681	9686.13
681.408	9509
681.816	9509.78
682.224	9516.96
682.632	9492.85
683.04	9690.34
683.448	9772.65
683.856	9841.17
684.264	9892.39
