Data from N_3_DEC_NC_4N_Splice17_13-07-12-378.txt Node
Date: Sat Mar 14 13:07:12 EDT 2020
User: sa697716
Spectrometer: FLMS03696
Trigger mode: 0
Integration Time (sec): 3.180400E-1
Scans to average: 20
Electric dark correction enabled: true
Nonlinearity correction enabled: true
Boxcar width: 5
XAxis mode: Wavelengths
Number of Pixels in Spectrum: 2048
>>>>>Begin Spectral Data<<<<<
187.83	-308316.59
188.298	2402.31
188.766	1325.92
189.233	1146.49
189.701	1633.84
190.169	2379.37
190.636	910.06
191.104	756.62
191.571	127.31
192.039	-49.84
192.506	-63.24
192.974	523.36
193.441	-606.27
193.908	65.92
194.375	-4.92
194.842	54.16
195.31	203.59
195.777	164.45
196.244	356.44
196.711	396.09
197.177	514.61
197.644	706.02
198.111	1227.94
198.578	1733.28
199.045	1376.54
199.511	2238.82
199.978	2612.06
200.445	2232.95
200.911	2474.92
201.378	2736.2
201.844	2473.81
202.31	4197.54
202.777	4376.91
203.243	2447.8
203.709	2331.8
204.176	2780.66
204.642	2300.25
205.108	2145.46
205.574	1736.97
206.04	1593.79
206.506	1498.84
206.972	1405.02
207.438	1342.99
207.903	1524.17
208.369	1325.2
208.835	1313.7
209.301	1372.5
209.766	1414.18
210.232	1396.82
210.697	1730.38
211.163	2116.16
211.628	3199.35
212.094	2685.98
212.559	3316.91
213.024	2055.12
213.49	2512.81
213.955	2441.14
214.42	2373.03
214.885	2205.36
215.35	2104.53
215.815	2051.76
216.28	2162.73
216.745	1748.18
217.21	1890.31
217.675	1720.72
218.14	1927.69
218.604	2124.2
219.069	2390.88
219.534	2500.5
219.998	2850.18
220.463	3415.13
220.927	4122.6
221.392	3849.65
221.856	3896.41
222.32	4851.79
222.785	5952.45
223.249	7447.05
223.713	8280.14
224.177	8266.87
224.642	10521.38
225.106	12901.17
225.57	14083.2
226.034	10472.6
226.497	15938.85
226.961	14342.41
227.425	16711.75
227.889	18506.66
228.353	18433.2
228.816	37864.89
229.28	36198.56
229.744	30427.71
230.207	18510.98
230.671	18173.18
231.134	29952.25
231.597	34504.83
232.061	34357.74
232.524	33459.49
232.987	23004.02
233.45	20693.3
233.914	18568.28
234.377	19000.23
234.84	17368.84
235.303	20436.05
235.766	22810.52
236.229	23525.66
236.691	14793.56
237.154	16647.07
237.617	12529.95
238.08	12815.44
238.542	15006.99
239.005	10732.93
239.468	10643.34
239.93	10040.98
240.393	9138.91
240.855	8017.59
241.317	8215.34
241.78	9993.29
242.242	10318.25
242.704	11159.76
243.166	9728.56
243.629	8850.19
244.091	10179.5
244.553	11155.82
245.015	11989.92
245.477	15468.58
245.939	22652.3
246.4	24050.22
246.862	23351.04
247.324	22023.41
247.786	24577.59
248.247	32163.34
248.709	33107.58
249.17	24792.14
249.632	23403.1
250.093	27193.11
250.555	23470.94
251.016	14337.06
251.477	13601.17
251.939	14696.38
252.4	15430.61
252.861	18329.31
253.322	17103.71
253.783	20373
254.244	26399.78
254.705	20790.54
255.166	18450.41
255.627	18197.2
256.088	25674.93
256.549	27268.78
257.009	23508.23
257.47	28521.23
257.931	23247.59
258.391	17423.45
258.852	17966.65
259.312	18853.98
259.773	23281.87
260.233	19714.26
260.694	16650.45
261.154	18895.8
261.614	15226.47
262.074	13600.99
262.534	14150.93
262.994	13380.71
263.455	17811.65
263.915	15009.79
264.374	14137.22
264.834	15440.35
265.294	17116
265.754	17710.26
266.214	16757.06
266.673	15681.38
267.133	19784.82
267.593	19596.47
268.052	23926.77
268.512	20803.78
268.971	25155.05
269.431	27576.54
269.89	24720.2
270.349	37075.46
270.809	41391.83
271.268	37189.48
271.727	83262.24
272.186	53934.55
272.645	40452.38
273.104	29157.38
273.563	42223.06
274.022	33145.39
274.481	28267.33
274.94	21781.19
275.399	16170.12
275.857	18798.49
276.316	25437.07
276.775	22655.5
277.233	22336.08
277.692	20959.95
278.15	23727.41
278.609	24444.66
279.067	22632.71
279.525	21023.87
279.984	27111.93
280.442	32574.26
280.9	32197.69
281.358	21183.84
281.816	19744.7
282.274	19351.32
282.732	19970.99
283.19	20052.57
283.648	17283.67
284.106	18397.47
284.564	18729.57
285.021	17397.04
285.479	12974.04
285.937	11791.65
286.394	10364.53
286.852	10683.93
287.309	11219.08
287.767	10873.88
288.224	10382.17
288.682	11419.18
289.139	12553.08
289.596	11498.09
290.053	11963.47
290.511	15095.71
290.968	18344.74
291.425	24917.47
291.882	20767.07
292.339	18095.45
292.796	17906.05
293.252	16867.77
293.709	13402.4
294.166	12015.19
294.623	13257.87
295.079	12709.59
295.536	12785.93
295.992	11605.7
296.449	11464.43
296.905	11917.65
297.362	11422.29
297.818	12011.97
298.274	12470.32
298.731	12688.84
299.187	12551.55
299.643	13471.53
300.099	16306.28
300.555	17869.94
301.011	14914.84
301.467	14428.37
301.923	16838.86
302.379	16457.29
302.835	16169.12
303.291	16197.51
303.746	18451.04
304.202	23339.96
304.658	23442.52
305.113	15749.24
305.569	15459.5
306.024	16477.56
306.479	15636.16
306.935	13226.31
307.39	14436.23
307.845	13348.46
308.301	13436.15
308.756	13109.6
309.211	12632.84
309.666	12928.88
310.121	16082.47
310.576	16307.81
311.031	16198.4
311.486	18547.9
311.94	18501.18
312.395	24784.11
312.85	46590.56
313.305	228074.9
313.759	1182141.81
314.214	85487.33
314.668	67798.54
315.123	57025.41
315.577	20503.63
316.032	18272.18
316.486	22893.04
316.94	18063.62
317.394	12574.47
317.849	9769.02
318.303	9276.17
318.757	8752.05
319.211	9705.19
319.665	8501.22
320.119	8615.31
320.572	12311.71
321.026	11505.58
321.48	9585.84
321.934	10472.09
322.387	10480.75
322.841	11349.81
323.295	10233.13
323.748	11756.77
324.202	11901.07
324.655	14301.89
325.108	20009.43
325.562	14186.56
326.015	16854.58
326.468	12761.66
326.921	14253.06
327.374	13313.44
327.827	13861
328.28	15695.87
328.733	10542
329.186	9296.89
329.639	8865.34
330.092	7458.05
330.545	7095.5
330.997	7172.36
331.45	7854.81
331.903	9227.53
332.355	15887.61
332.808	15391.81
333.26	12701.04
333.713	13817.12
334.165	13917.79
334.617	18616.13
335.069	15062.77
335.522	27228.45
335.974	30076.23
336.426	27533.24
336.878	19040.37
337.33	9666.23
337.782	9462.72
338.234	11835.04
338.686	14122.76
339.137	16739.54
339.589	15730
340.041	12333.98
340.493	10628.9
340.944	10912.09
341.396	11741.11
341.847	9891.83
342.299	11721.24
342.75	14345.53
343.201	12517.78
343.653	14400.34
344.104	17672.36
344.555	13937.74
345.006	21700.82
345.457	16627.44
345.908	13203.13
346.359	12416.06
346.81	10112.91
347.261	10616.48
347.712	10432.24
348.163	11187.62
348.613	11383.88
349.064	10651.19
349.515	9326.26
349.965	9561.34
350.416	11522.76
350.866	12625.92
351.317	14282.04
351.767	23678.31
352.217	29918.86
352.668	24896.18
353.118	22851.98
353.568	21934.39
354.018	17361.06
354.468	18342.87
354.918	13154.16
355.368	11499.96
355.818	16252.93
356.268	46585.22
356.718	195230.35
357.168	48723.2
357.617	24440.22
358.067	27193.98
358.517	25505.14
358.966	29903.84
359.416	33613.89
359.865	36419.29
360.315	43400.48
360.764	20318.98
361.213	11434.25
361.663	10800.32
362.112	13303.01
362.561	21505.16
363.01	16235.26
363.459	13662.36
363.908	14793.23
364.357	12553.67
364.806	21170.99
365.255	14557.85
365.703	13374.58
366.152	13394.6
366.601	10867.31
367.05	8850.85
367.498	8038.49
367.947	8376.03
368.395	8717.42
368.844	7713.05
369.292	9279.45
369.74	6428.55
370.189	9849.21
370.637	11540.19
371.085	9963.66
371.533	12154.61
371.981	11682.38
372.429	11180.93
372.877	11657.56
373.325	9769.86
373.773	9956.59
374.221	8860.31
374.669	10971.36
375.116	9470.16
375.564	9547.58
376.012	10631.49
376.459	8786.24
376.907	10513.32
377.354	12678.7
377.801	11861.12
378.249	13641.32
378.696	17468.78
379.143	21190.84
379.591	22605.48
380.038	38293.77
380.485	27673.98
380.932	30017
381.379	27471.14
381.826	20310.88
382.273	14444.71
382.72	12616.86
383.166	12331.16
383.613	8013.24
384.06	7247.41
384.506	8405.66
384.953	6177.93
385.4	6214.64
385.846	5445.35
386.292	5294.02
386.739	5173.29
387.185	5126.74
387.631	5146.76
388.078	5013.87
388.524	5363.43
388.97	4954.98
389.416	4140.8
389.862	4413.05
390.308	4199.64
390.754	4277.54
391.2	4659.24
391.645	4777.41
392.091	4595.21
392.537	4449.03
392.983	4448.88
393.428	4396.06
393.874	4716.08
394.319	4756.19
394.765	4527.68
395.21	4654.95
395.655	4354.18
396.101	4091.7
396.546	3700.51
396.991	3733.08
397.436	3469.69
397.881	3358.22
398.326	3180.54
398.771	3017.4
399.216	2628.88
399.661	2366.19
400.106	2365.35
400.551	2440.55
400.995	2191.31
401.44	2168.41
401.885	2037.1
402.329	2056.08
402.774	1972.75
403.218	1916.86
403.663	1849.05
404.107	1909.79
404.551	1929.53
404.995	1768.66
405.44	1702.43
405.884	1724.05
406.328	1669.23
406.772	1661.45
407.216	1520.85
407.66	1469.15
408.104	1389.42
408.547	1297.99
408.991	1252.98
409.435	1205.12
409.879	1187.61
410.322	1171.11
410.766	1135.48
411.209	1080.69
411.653	1038.61
412.096	1015.78
412.54	1013.96
412.983	1008.05
413.426	1010.63
413.869	1008.54
414.312	992.16
414.756	956.54
415.199	908.2
415.642	880.76
416.085	881.94
416.527	875.31
416.97	887.08
417.413	843.72
417.856	833.55
418.298	824.69
418.741	818.51
419.184	813.98
419.626	845.29
420.069	848.74
420.511	853.58
420.953	836.13
421.396	827.15
421.838	804.45
422.28	825.23
422.722	829.22
423.164	841.72
423.606	827.41
424.048	822.93
424.49	781.96
424.932	776.66
425.374	764.82
425.816	775.51
426.258	793.09
426.699	801.76
427.141	788.59
427.582	799.89
428.024	793.86
428.465	786.87
428.907	767.34
429.348	756.37
429.789	755.72
430.231	739.94
430.672	747.47
431.113	724.8
431.554	713.7
431.995	692.01
432.436	668.85
432.877	654.37
433.318	645.99
433.759	642.99
434.2	645.09
434.64	637.12
435.081	638.27
435.522	606.28
435.962	584.73
436.403	572.56
436.843	580.04
437.284	565.89
437.724	548.67
438.164	546.53
438.604	533.82
439.045	513.93
439.485	495.64
439.925	484.26
440.365	471.1
440.805	464.05
441.245	458.52
441.685	443.49
442.125	438.29
442.564	441.26
443.004	432.02
443.444	430.17
443.883	429.84
444.323	422.66
444.762	421.07
445.202	427.62
445.641	438.13
446.081	432.32
446.52	435.04
446.959	432.08
447.398	421.31
447.837	415.84
448.276	408.47
448.716	411.59
449.154	415.3
449.593	407.53
450.032	404.6
450.471	394.29
450.91	394.98
451.349	393.24
451.787	389.88
452.226	396.81
452.664	396.81
453.103	397.1
453.541	395.34
453.98	396.59
454.418	397.17
454.856	391.58
455.295	391.09
455.733	394.37
456.171	395.19
456.609	395.1
457.047	394.39
457.485	399.46
457.923	400.3
458.361	393.94
458.798	393.52
459.236	392.28
459.674	393.54
460.111	394.98
460.549	391.28
460.987	389.91
461.424	388.89
461.862	385.93
462.299	379.66
462.736	379.05
463.173	381.61
463.611	379.21
464.048	378.85
464.485	381.54
464.922	376.93
465.359	373.78
465.796	374.08
466.233	371.87
466.67	370.29
467.106	370.52
467.543	366.42
467.98	360.43
468.416	349.46
468.853	345.72
469.29	335.08
469.726	331.88
470.162	324.04
470.599	315.66
471.035	312.68
471.471	304.42
471.907	300.6
472.344	298.03
472.78	299.47
473.216	302.87
473.652	299.74
474.088	298.66
474.523	298.31
474.959	301.04
475.395	297.74
475.831	296.07
476.266	297.04
476.702	296.56
477.138	294.16
477.573	292.74
478.008	291.85
478.444	294.6
478.879	298.47
479.314	300.08
479.75	300.43
480.185	301.98
480.62	303.77
481.055	305.5
481.49	307.98
481.925	312.37
482.36	319.6
482.795	328.04
483.229	334.54
483.664	341.03
484.099	341.14
484.534	345.53
484.968	348.56
485.403	349.12
485.837	347.67
486.271	347.01
486.706	346.87
487.14	341.46
487.574	336.45
488.009	333.75
488.443	331.12
488.877	335.76
489.311	336.73
489.745	341.5
490.179	345.2
490.613	353.25
491.046	355.91
491.48	358.38
491.914	359.23
492.348	362.35
492.781	365.31
493.215	366.44
493.648	366.94
494.082	370.34
494.515	371.18
494.948	377.03
495.382	379.08
495.815	383.49
496.248	388.42
496.681	396.06
497.114	403.09
497.547	410.26
497.98	419.93
498.413	426.02
498.846	433.6
499.279	440.02
499.711	444.29
500.144	448.05
500.577	455.89
501.009	464.28
501.442	473.48
501.874	477.31
502.306	481.62
502.739	489.72
503.171	500.17
503.603	505.04
504.036	512.98
504.468	519.24
504.9	529.31
505.332	536.3
505.764	542.51
506.196	549.06
506.627	560.99
507.059	572.02
507.491	578.84
507.923	580.7
508.354	593.25
508.786	603.94
509.217	618.19
509.649	630.5
510.08	645.76
510.512	659.87
510.943	673.51
511.374	685.07
511.805	701.54
512.237	717.97
512.668	742.26
513.099	764.18
513.53	786.15
513.961	804.39
514.391	829.77
514.822	857.05
515.253	884.75
515.684	905.94
516.114	929.41
516.545	947.74
516.975	969.47
517.406	986.45
517.836	991.23
518.267	1000.34
518.697	1016.78
519.127	1024.1
519.558	1031.74
519.988	1038.04
520.418	1048.85
520.848	1065.43
521.278	1075.42
521.708	1108.34
522.138	1121.92
522.567	1148.74
522.997	1169.6
523.427	1183.72
523.857	1199.58
524.286	1211.07
524.716	1226.47
525.145	1244.28
525.575	1254.56
526.004	1267.92
526.433	1249.46
526.863	1250.79
527.292	1246.09
527.721	1253.01
528.15	1259.68
528.579	1262.74
529.008	1272.63
529.437	1291.06
529.866	1302.67
530.295	1317.53
530.724	1328.93
531.152	1351.41
531.581	1364.3
532.01	1377.92
532.438	1385.57
532.867	1397.21
533.295	1410.7
533.723	1416.15
534.152	1414.93
534.58	1415.54
535.008	1403.46
535.436	1406.34
535.865	1413.07
536.293	1424.76
536.721	1437.51
537.149	1456.66
537.576	1460.52
538.004	1471.27
538.432	1476.41
538.86	1474.69
539.287	1479.37
539.715	1490.71
540.143	1491.99
540.57	1489.12
540.998	1485.21
541.425	1467.57
541.852	1451.56
542.28	1449.29
542.707	1435.8
543.134	1426.86
543.561	1424.3
543.988	1419.4
544.415	1418.79
544.842	1414.12
545.269	1408.4
545.696	1410.59
546.123	1421.12
546.549	1413.13
546.976	1404.72
547.403	1405.57
547.829	1405.99
548.256	1407.95
548.682	1405.27
549.108	1400.85
549.535	1401.2
549.961	1403.12
550.387	1393.43
550.813	1389.92
551.24	1395.76
551.666	1394.73
552.092	1387.27
552.518	1383.43
552.943	1378.86
553.369	1384.81
553.795	1388.42
554.221	1389.06
554.646	1387.57
555.072	1396.61
555.498	1399.18
555.923	1405.51
556.349	1418.07
556.774	1425.08
557.199	1424.58
557.625	1428.42
558.05	1423.46
558.475	1431.09
558.9	1429.39
559.325	1420.97
559.75	1414.65
560.175	1409.27
560.6	1403.53
561.025	1400.33
561.449	1399.01
561.874	1403.51
562.299	1405.99
562.723	1410.23
563.148	1400.93
563.572	1402.36
563.997	1408.66
564.421	1410.54
564.846	1408.12
565.27	1408.91
565.694	1404.84
566.118	1412.4
566.542	1415.54
566.966	1408.16
567.39	1402.43
567.814	1392.48
568.238	1390.36
568.662	1392.33
569.086	1392.55
569.509	1395.65
569.933	1382.82
570.357	1375.08
570.78	1357.1
571.204	1345.56
571.627	1335.54
572.05	1331.06
572.474	1328.39
572.897	1316.27
573.32	1308.4
573.743	1298.46
574.166	1284.53
574.589	1281.22
575.012	1273.86
575.435	1270.31
575.858	1261
576.281	1250.79
576.704	1237.49
577.126	1225.99
577.549	1216.76
577.972	1207.56
578.394	1198.84
578.817	1191.9
579.239	1177.83
579.661	1167.15
580.084	1154.77
580.506	1144.92
580.928	1140.84
581.35	1131.74
581.772	1128.12
582.194	1118.05
582.616	1107.78
583.038	1096.53
583.46	1087.2
583.882	1083.23
584.303	1084.44
584.725	1080.2
585.147	1081.7
585.568	1088.99
585.99	1097.67
586.411	1101.77
586.833	1110.57
587.254	1110.77
587.675	1119.17
588.096	1126.94
588.518	1122.02
588.939	1109.44
589.36	1107.14
589.781	1096.44
590.202	1076.46
590.623	1068.64
591.043	1064.4
591.464	1053.87
591.885	1050.91
592.305	1046.31
592.726	1036.51
593.147	1037.2
593.567	1032.14
593.987	1026.12
594.408	1021.11
594.828	1017.23
595.248	1012.85
595.669	1001.08
596.089	996.48
596.509	990.85
596.929	980.28
597.349	979.85
597.769	971.92
598.189	968.31
598.608	969.2
599.028	970.52
599.448	970.53
599.867	961.03
600.287	955.94
600.706	952.23
601.126	945.13
601.545	944.43
601.965	943.05
602.384	938.78
602.803	939.46
603.222	935.52
603.641	930.56
604.061	926.91
604.48	922.87
604.898	928.53
605.317	930.96
605.736	931.08
606.155	928.82
606.574	921.28
606.992	924.14
607.411	919.71
607.829	912.7
608.248	909.1
608.666	906.49
609.085	905.46
609.503	898.45
609.921	893.81
610.339	893.85
610.758	891.41
611.176	887.05
611.594	879.44
612.012	876.46
612.43	877.46
612.847	881.24
613.265	881.69
613.683	882.96
614.101	883.05
614.518	878.62
614.936	871.23
615.353	861.01
615.771	858.62
616.188	857.72
616.606	854.01
617.023	848.91
617.44	838.09
617.857	831.71
618.274	825.31
618.691	820.47
619.108	814.04
619.525	809.17
619.942	812.02
620.359	813.13
620.776	808.87
621.192	806.37
621.609	803.92
622.026	808.26
622.442	811.98
622.859	813.67
623.275	808.2
623.691	810.72
624.108	818.66
624.524	827.55
624.94	827.28
625.356	833.02
625.772	840.3
626.188	846.83
626.604	846.37
627.02	842.3
627.436	840.13
627.852	844.28
628.268	852.2
628.683	844.56
629.099	838.58
629.514	833.75
629.93	836.76
630.345	839.67
630.761	837.11
631.176	838.2
631.591	835.07
632.007	831.15
632.422	828.74
632.837	820.42
633.252	819.11
633.667	811.35
634.082	804.54
634.497	794.65
634.911	781.21
635.326	777.4
635.741	765.49
636.155	756.75
636.57	756.2
636.984	753.49
637.399	752.84
637.813	749.23
638.228	746.61
638.642	747.58
639.056	739.34
639.47	736.36
639.884	728.43
640.298	721.94
640.712	717.95
641.126	707.2
641.54	699.56
641.954	692.32
642.368	683.1
642.781	676.82
643.195	662.99
643.609	660.83
644.022	654.27
644.436	648.93
644.849	639.71
645.262	630.93
645.676	629.12
646.089	624.43
646.502	614.96
646.915	610.03
647.328	598.94
647.741	596.86
648.154	587.47
648.567	586.15
648.98	577.7
649.393	576.87
649.805	575.1
650.218	570.43
650.631	561.53
651.043	557.95
651.456	554.08
651.868	552.3
652.28	560.28
652.693	566.81
653.105	568.43
653.517	573.1
653.929	572.57
654.341	574.39
654.753	566.81
655.165	569.34
655.577	566.35
655.989	562.24
656.401	556.65
656.813	537.01
657.224	525.46
657.636	507.95
658.047	497.7
658.459	486.13
658.87	478.17
659.282	470.82
659.693	458.93
660.104	450.38
660.515	442.72
660.926	439.62
661.338	436.31
661.749	431.16
662.159	426.43
662.57	423.91
662.981	420.04
663.392	416.06
663.803	417.47
664.213	414.45
664.624	410.44
665.035	410.21
665.445	403.71
665.855	401.56
666.266	398.03
666.676	396.32
667.086	389.67
667.497	389.87
667.907	387
668.317	382.23
668.727	383.98
669.137	384.17
669.547	383.43
669.956	384.27
670.366	384.12
670.776	385.3
671.186	387.74
671.595	391.24
672.005	393.47
672.414	394.08
672.824	394.62
673.233	394.54
673.642	396.96
674.052	400.45
674.461	404.44
674.87	407.66
675.279	407.58
675.688	408.49
676.097	410.85
676.506	410.48
676.915	418.75
677.323	420.96
677.732	421.71
678.141	423.12
678.549	418.1
678.958	417.88
679.366	418.4
679.775	422.13
680.183	431.94
680.592	436.37
681	441.22
681.408	439.41
681.816	445.27
682.224	450.47
682.632	458.43
683.04	477.45
683.448	493.07
683.856	513.23
684.264	535.12
684.671	553.48
685.079	577.71
685.487	603.73
685.894	640.83
686.302	671.56
686.709	700.05
687.116	731.7
687.524	758.11
687.931	782.29
688.338	803.03
688.745	822.93
689.152	844.92
689.559	874.49
689.966	908.31
690.373	926.77
690.78	958.91
691.187	1002.17
691.593	1038.86
692	1071.16
692.407	1116.93
692.813	1176.07
693.22	1222.09
693.626	1270.97
694.032	1311.79
694.439	1368.32
694.845	1416.91
695.251	1475.4
695.657	1530.46
696.063	1606.93
696.469	1667.96
696.875	1726.73
697.281	1761.89
697.687	1804.87
698.093	1843.89
698.498	1909.71
698.904	1962.79
699.31	2036.71
699.715	2093.23
700.12	2171.4
700.526	2195.15
700.931	2258.08
701.337	2307.51
701.742	2342.32
702.147	2417.9
702.552	2449.15
702.957	2503.85
