Data from N_3_DIV_WI_4N_Splice17_12-57-22-018.txt Node
Date: Sat Mar 14 12:57:22 EDT 2020
User: sa697716
Spectrometer: FLMS03696
Trigger mode: 0
Integration Time (sec): 3.180400E-1
Scans to average: 20
Electric dark correction enabled: true
Nonlinearity correction enabled: true
Boxcar width: 5
XAxis mode: Wavelengths
Number of Pixels in Spectrum: 2048
>>>>>Begin Spectral Data<<<<<
187.83	-385156.65
188.298	2827.96
188.766	1524.33
189.233	1388.28
189.701	1896.38
190.169	2495.06
190.636	924.48
191.104	770.69
191.571	155.37
192.039	-19.22
192.506	-97.54
192.974	303.58
193.441	-332.41
193.908	193.81
194.375	98.73
194.842	83.37
195.31	175.02
195.777	163.17
196.244	315.28
196.711	207.33
197.177	181.05
197.644	142.66
198.111	224.16
198.578	269.98
199.045	198.45
199.511	267
199.978	288.77
200.445	252.49
200.911	262.92
201.378	204.72
201.844	236.58
202.31	359.31
202.777	421.02
203.243	225.47
203.709	228.2
204.176	290.4
204.642	266.85
205.108	256.57
205.574	190.18
206.04	141.28
206.506	143.41
206.972	104.09
207.438	97.1
207.903	98.68
208.369	127.33
208.835	142.74
209.301	149.43
209.766	137.05
210.232	156.96
210.697	184.89
211.163	221.52
211.628	302.44
212.094	286.53
212.559	502.02
213.024	323.61
213.49	401.55
213.955	389.31
214.42	349.26
214.885	336.4
215.35	320.4
215.815	414.42
216.28	472.61
216.745	393.25
217.21	472.74
217.675	389.38
218.14	464.12
218.604	517.45
219.069	611.19
219.534	706.19
219.998	838.42
220.463	1038.22
220.927	1217.73
221.392	1172.07
221.856	1245.2
222.32	1514.17
222.785	1936.54
223.249	2439.55
223.713	2757.38
224.177	2781.31
224.642	3525.23
225.106	4361.6
225.57	4768.28
226.034	3661.19
226.497	5666.56
226.961	5191.31
227.425	6195.52
227.889	6879.56
228.353	6953.33
228.816	14408.3
229.28	13969.32
229.744	11834.13
230.207	7278.45
230.671	7230.26
231.134	11944.25
231.597	13910
232.061	13887.27
232.524	13566.59
232.987	9451.53
233.45	8631.37
233.914	7781.43
234.377	7939.5
234.84	7351.43
235.303	8719.15
235.766	9820.23
236.229	10158.75
236.691	6407.76
237.154	7215.35
237.617	5476.58
238.08	5626.01
238.542	6584.36
239.005	4760.02
239.468	4786.42
239.93	4530.39
240.393	4132.55
240.855	3642.89
241.317	3737.1
241.78	4530.55
242.242	4720.86
242.704	5153.72
243.166	4506.54
243.629	4150.96
244.091	4788.18
244.553	5258.76
245.015	5699.69
245.477	7376.26
245.939	10830.39
246.4	11579.89
246.862	11327.22
247.324	10767.45
247.786	12065.48
248.247	15849.72
248.709	16286.26
249.17	12279.49
249.632	11722.16
250.093	13697.32
250.555	11929
251.016	7347.46
251.477	7017.32
251.939	7635.17
252.4	8020.47
252.861	9517.03
253.322	8939.41
253.783	10668.68
254.244	13856.72
254.705	10926.99
255.166	9700.65
255.627	9570.94
256.088	13568.02
256.549	14446.12
257.009	12451.97
257.47	15139.89
257.931	12411
258.391	9319.29
258.852	9650.22
259.312	10129.6
259.773	12539.89
260.233	10692.57
260.694	9096.21
261.154	10344.99
261.614	8372.61
262.074	7526.86
262.534	7874.12
262.994	7448.32
263.455	9929.22
263.915	8418.57
264.374	7987.3
264.834	8764.8
265.294	9703.24
265.754	10077.88
266.214	9551.46
266.673	8969.49
267.133	11315.11
267.593	11230.47
268.052	13821.41
268.512	12076.68
268.971	14628.18
269.431	16072.67
269.89	14393.85
270.349	21678.92
270.809	24182.55
271.268	21783.94
271.727	48708.79
272.186	31655.31
272.645	23756.56
273.104	17093.48
273.563	24786
274.022	19438.52
274.481	16596.37
274.94	12837.8
275.399	9545.57
275.857	11136.55
276.316	15110.56
276.775	13505.87
277.233	13325.97
277.692	12555.77
278.15	14288.35
278.609	14772.75
279.067	13727.08
279.525	12780.28
279.984	16490.31
280.442	19871.64
280.9	19673.61
281.358	12932.59
281.816	12102.14
282.274	11871.06
282.732	12259.62
283.19	12299.4
283.648	10601.22
284.106	11274.44
284.564	11464.82
285.021	10690.36
285.479	7958.28
285.937	7233.4
286.394	6388.65
286.852	6582.4
287.309	6955.57
287.767	6763.32
288.224	6480.29
288.682	7133.62
289.139	7907.75
289.596	7277.02
290.053	7576.37
290.511	9637.53
290.968	11784.56
291.425	16073.68
291.882	13511.84
292.339	11836.96
292.796	11773.73
293.252	11130.43
293.709	8927.84
294.166	8019.18
294.623	8907.09
295.079	8587.01
295.536	8658.58
295.992	7886.49
296.449	7817.29
296.905	8145.14
297.362	7847.08
297.818	8281.43
298.274	8630.44
298.731	8790.81
299.187	8722.41
299.643	9363.26
300.099	11356.06
300.555	12485.43
301.011	10439.42
301.467	10138.67
301.923	11831.29
302.379	11548.48
302.835	11355.07
303.291	11392.4
303.746	12952.96
304.202	16357.19
304.658	16441.85
305.113	11061.98
305.569	10845.63
306.024	11558.5
306.479	10933.78
306.935	9234.22
307.39	10067.29
307.845	9302.32
308.301	9339.97
308.756	9107.8
309.211	8793.19
309.666	8995.71
310.121	11180.5
310.576	11325.71
311.031	11207.31
311.486	12795.15
311.94	12780.11
312.395	17079.21
312.85	32012.66
313.305	156813.13
313.759	815057.86
314.214	59033.61
314.668	46840.46
315.123	39458.93
315.577	14150.94
316.032	12640.41
316.486	15849.33
316.94	12531.65
317.394	8757.59
317.849	6829.27
318.303	6471.65
318.757	6128.37
319.211	6789.35
319.665	5965.77
320.119	6039.76
320.572	8652.86
321.026	8103.57
321.48	6781.04
321.934	7395.08
322.387	7377.73
322.841	7972.31
323.295	7212.41
323.748	8254.73
324.202	8369.36
324.655	10075.8
325.108	14166.67
325.562	10065.54
326.015	11959.83
326.468	9036.61
326.921	10098.17
327.374	9469.8
327.827	9904.84
328.28	11225.54
328.733	7539.21
329.186	6630.22
329.639	6315.85
330.092	5289.62
330.545	5028.37
330.997	5082.47
331.45	5571
331.903	6545.7
332.355	11196.77
332.808	10827.58
333.26	8897.85
333.713	9674.6
334.165	9723.25
334.617	12912.05
335.069	10400.18
335.522	18791.44
335.974	20771.38
336.426	18886.87
336.878	13031.18
337.33	6626.77
337.782	6467.34
338.234	8141.79
338.686	9721.73
339.137	11534.67
339.589	10857.65
340.041	8526.09
340.493	7315.41
340.944	7479
341.396	8090.61
341.847	6843.77
342.299	8139.8
342.75	10002.49
343.201	8702.31
343.653	10023.96
344.104	12343.56
344.555	9785.45
345.006	15222.49
345.457	11786.59
345.908	9399.46
346.359	8878.7
346.81	7239.7
347.261	7600.74
347.712	7463.44
348.163	8034.42
348.613	8215.08
349.064	7698.11
349.515	6735.92
349.965	6943.38
350.416	8324.44
350.866	9146.57
351.317	10288.02
351.767	17083.21
352.217	21664.06
352.668	18023.8
353.118	16499.39
353.568	15777.13
354.018	12507.29
354.468	13230.21
354.918	9509.66
355.368	8335.48
355.818	11791.33
356.268	34029.27
356.718	142580.76
357.168	35537.42
357.617	17769.23
358.067	19770.04
358.517	18595.36
358.966	21818.04
359.416	24485.81
359.865	26400.27
360.315	31448.29
360.764	14684.61
361.213	8236.55
361.663	7767.41
362.112	9589.36
362.561	15568.71
363.01	11761.48
363.459	9893.23
363.908	10697.02
364.357	9141.65
364.806	15439.22
365.255	10621.43
365.703	9761.72
366.152	9752.24
366.601	7915.15
367.05	6434.43
367.498	5855.57
367.947	6108.58
368.395	6347.1
368.844	5640.92
369.292	6753.27
369.74	4667
370.189	7115.56
370.637	8334.36
371.085	7208.75
371.533	8771.82
371.981	8446.06
372.429	8079.2
372.877	8389.26
373.325	7015.94
373.773	7106.21
374.221	6305.84
374.669	7841.47
375.116	6776.46
375.564	6799.9
376.012	7579.92
376.459	6259.22
376.907	7444.66
377.354	8910.06
377.801	8358.7
378.249	9600.86
378.696	12272.58
379.143	14850.97
379.591	15757.44
380.038	26644.3
380.485	19300.93
380.932	20905.4
381.379	19156.17
381.826	14117.3
382.273	10058.42
382.72	8721.62
383.166	8509.34
383.613	5515.35
384.06	4968.47
384.506	5769.89
384.953	4244.22
385.4	4252.69
385.846	3696.48
386.292	3572.6
386.739	3481.62
387.185	3411.24
387.631	3402.92
388.078	3304.71
388.524	3518.24
388.97	3232.2
389.416	2685.63
389.862	2847.03
390.308	2696.62
390.754	2743.24
391.2	2971.43
391.645	3030.82
392.091	2928.76
392.537	2837.83
392.983	2814.7
393.428	2790.18
393.874	2981.56
394.319	2994.49
394.765	2842.4
395.21	2904.08
395.655	2703.38
396.101	2529.2
396.546	2272.59
396.991	2260.96
397.436	2084.31
397.881	2006.77
398.326	1870.93
398.771	1769.3
399.216	1523.93
399.661	1356.75
400.106	1345.06
400.551	1381.11
400.995	1232.54
401.44	1215.53
401.885	1146.07
402.329	1155.48
402.774	1106.77
403.218	1082.36
403.663	1036.61
404.107	1067.8
404.551	1073.88
404.995	981.37
405.44	936.26
405.884	943.13
406.328	908.53
406.772	901.93
407.216	820.13
407.66	787.51
408.104	734.32
408.547	685.75
408.991	660.66
409.435	632.96
409.879	624.18
410.322	613.49
410.766	594.18
411.209	566.5
411.653	540.91
412.096	531.75
412.54	529.36
412.983	528.01
413.426	530.48
413.869	527.66
414.312	518.38
414.756	496.77
415.199	474.14
415.642	460.7
416.085	459.42
416.527	453.55
416.97	454.95
417.413	433.89
417.856	424.17
418.298	417.78
418.741	411.71
419.184	407.01
419.626	419.8
420.069	420.6
420.511	420.42
420.953	412.33
421.396	410.99
421.838	400.23
422.28	408.83
422.722	413.08
423.164	416.92
423.606	412.18
424.048	410.09
424.49	391.94
424.932	388.09
425.374	380.83
425.816	383.4
426.258	387.29
426.699	391.88
427.141	387.27
427.582	390.64
428.024	387.87
428.465	383.54
428.907	374.45
429.348	367.4
429.789	368
430.231	363.44
430.672	368.83
431.113	359.07
431.554	351.57
431.995	338.28
432.436	329.26
432.877	321.19
433.318	316.7
433.759	314.16
434.2	313.77
434.64	307.63
435.081	305.3
435.522	287.35
435.962	275.25
436.403	268.98
436.843	269.22
437.284	257.98
437.724	248.24
438.164	244.81
438.604	236.61
439.045	229.5
439.485	222.76
439.925	218.2
440.365	213.58
440.805	209.98
441.245	206.88
441.685	200.5
442.125	197.52
442.564	197.22
443.004	193.02
443.444	193.08
443.883	191.79
444.323	183.96
444.762	178.57
445.202	178.3
445.641	182.74
446.081	179.26
446.52	179.76
446.959	179.37
447.398	174.58
447.837	171.88
448.276	166.9
448.716	166.5
449.154	167.48
449.593	165.4
450.032	164.89
450.471	158.25
450.91	156.13
451.349	155.67
451.787	152.98
452.226	155.19
452.664	153.91
453.103	154.89
453.541	153.64
453.98	156.7
454.418	156.84
454.856	156.22
455.295	156.4
455.733	160.8
456.171	160.95
456.609	161.59
457.047	162.56
457.485	166.9
457.923	168.52
458.361	166.35
458.798	165.79
459.236	165.3
459.674	163.22
460.111	164.81
460.549	162.67
460.987	161.15
461.424	160.93
461.862	159.6
462.299	156.51
462.736	155.14
463.173	154.81
463.611	156.43
464.048	157.31
464.485	160.5
464.922	158.42
465.359	156.34
465.796	164.31
466.233	164.18
466.67	164.72
467.106	165.99
467.543	163.78
467.98	162.01
468.416	155.49
468.853	153.08
469.29	146.62
469.726	144.38
470.162	140.4
470.599	130.46
471.035	126.75
471.471	122.65
471.907	118.19
472.344	116.88
472.78	118.12
473.216	116.83
473.652	115.47
474.088	114.56
474.523	115.25
474.959	116.49
475.395	115.8
475.831	116.85
476.266	116.9
476.702	117.53
477.138	117.18
477.573	116.53
478.008	117.88
478.444	119.66
478.879	123.14
479.314	123.94
479.75	123.74
480.185	123.66
480.62	123.73
481.055	124.65
481.49	126.43
481.925	128.35
482.36	133.42
482.795	136.59
483.229	139.2
483.664	141.09
484.099	140.47
484.534	142.9
484.968	145.17
485.403	144.91
485.837	143.18
486.271	142.07
486.706	141.68
487.14	136.59
487.574	133.91
488.009	131.85
488.443	130.51
488.877	133.11
489.311	132.68
489.745	133.52
490.179	135.1
490.613	139.33
491.046	138.91
491.48	138.63
491.914	138.96
492.348	139.54
492.781	140.29
493.215	139.01
493.648	136.45
494.082	136.42
494.515	135.48
494.948	136.2
495.382	133.98
495.815	134.7
496.248	135.17
496.681	135.83
497.114	136.02
497.547	137
497.98	139.85
498.413	141.58
498.846	142.4
499.279	142.03
499.711	140.9
500.144	139.93
500.577	141.15
501.009	140.86
501.442	142.45
501.874	141.61
502.306	139.22
502.739	141.45
503.171	141.5
503.603	140.72
504.036	140.23
504.468	139.42
504.9	139.44
505.332	138.12
505.764	138.05
506.196	136.27
506.627	136.29
507.059	136.99
507.491	132.48
507.923	130.53
508.354	129.99
508.786	130
509.217	130.79
509.649	131.01
510.08	130.66
510.512	131.04
510.943	130.66
511.374	130.64
511.805	130.57
512.237	129.95
512.668	129.97
513.099	130.14
513.53	130.22
513.961	130.41
514.391	132.28
514.822	135.49
515.253	136.25
515.684	136.95
516.114	137.49
516.545	138.2
516.975	139.67
517.406	139.95
517.836	138.1
518.267	137.71
518.697	137.84
519.127	135.76
519.558	132.92
519.988	131.01
520.418	129.36
520.848	127.91
521.278	126.51
521.708	165.85
522.138	166.45
522.567	167.66
522.997	168.2
523.427	167.48
523.857	167.67
524.286	167.18
524.716	167.89
525.145	169.25
525.575	170.23
526.004	169.49
526.433	128.58
526.863	126.23
527.292	126.24
527.721	126.58
528.15	126.13
528.579	125.63
529.008	125.95
529.437	125.99
529.866	125.29
530.295	124.97
530.724	126.62
531.152	127.55
531.581	129.32
532.01	129.33
532.438	128.23
532.867	128.31
533.295	128.96
533.723	128.88
534.152	128.89
534.58	129.58
535.008	127.97
535.436	128.84
535.865	129.08
536.293	128.68
536.721	128.56
537.149	130.43
537.576	131.45
538.004	132.46
538.432	131.93
538.86	131.64
539.287	130.74
539.715	132.18
540.143	130.12
540.57	129.96
540.998	129.7
541.425	130.25
541.852	128.02
542.28	126.68
542.707	124.22
543.134	123.07
543.561	122.84
543.988	122.81
544.415	122.1
544.842	121.08
545.269	120.9
545.696	121.39
546.123	121.29
546.549	121.02
546.976	120.92
547.403	121.26
547.829	120.91
548.256	120.12
548.682	119.73
549.108	121.07
549.535	121.07
549.961	119.63
550.387	117.96
550.813	119.17
551.24	119.59
551.666	118.79
552.092	118.59
552.518	119.35
552.943	120.37
553.369	120.57
553.795	120.2
554.221	121.25
554.646	121.69
555.072	124.49
555.498	122.4
555.923	122.13
556.349	123.59
556.774	124.11
557.199	123.81
557.625	122.75
558.05	123.64
558.475	123.92
558.9	124.42
559.325	125.47
559.75	124.84
560.175	124.67
560.6	124.93
561.025	124.16
561.449	125.01
561.874	125.43
562.299	127.48
562.723	127.47
563.148	126.99
563.572	126.77
563.997	127.75
564.421	126.4
564.846	126.33
565.27	127.8
565.694	128.88
566.118	129.6
566.542	132.12
566.966	131.97
567.39	132.3
567.814	133
568.238	134.53
568.662	134.25
569.086	136.24
569.509	137.98
569.933	138.63
570.357	138.52
570.78	137.06
571.204	137.89
571.627	137.38
572.05	138.11
572.474	139.26
572.897	138.15
573.32	139.73
573.743	138.54
574.166	138.34
574.589	137.61
575.012	138.05
575.435	139.21
575.858	137.79
576.281	137.71
576.704	136.59
577.126	134.65
577.549	133.85
577.972	132.37
578.394	133.55
578.817	135.65
579.239	135.05
579.661	135.11
580.084	136.24
580.506	136.48
580.928	135.87
581.35	135.95
581.772	137.02
582.194	137.26
582.616	136.3
583.038	134.43
583.46	131.57
583.882	131.09
584.303	130.27
584.725	128.4
585.147	133.98
585.568	136.8
585.99	138.83
586.411	139.95
586.833	142
587.254	143.29
587.675	144.47
588.096	146.42
588.518	146.75
588.939	146.18
589.36	146.87
589.781	139.49
590.202	139.75
590.623	138.26
591.043	137.54
591.464	136.65
591.885	136.93
592.305	137.09
592.726	135.68
593.147	136.05
593.567	136.06
593.987	135.01
594.408	134.5
594.828	131.08
595.248	131.82
595.669	131.24
596.089	130.4
596.509	129.03
596.929	127.64
597.349	128.05
597.769	127.22
598.189	126.58
598.608	126.99
599.028	127.66
599.448	127.27
599.867	125.35
600.287	124.13
600.706	124.79
601.126	125.61
601.545	127.22
601.965	127.32
602.384	126.9
602.803	127.3
603.222	126.97
603.641	125.85
604.061	127.54
604.48	128
604.898	129.8
605.317	129.32
605.736	128.9
606.155	129.97
606.574	129.66
606.992	131.07
607.411	131.37
607.829	131.62
608.248	132.42
608.666	131.25
609.085	132.16
609.503	131.72
609.921	133.18
610.339	134.18
610.758	132.99
611.176	133.1
611.594	132.87
612.012	133.19
612.43	134.74
612.847	135.49
613.265	137.47
613.683	137.94
614.101	138.36
614.518	136.98
614.936	136.27
615.353	136.09
615.771	136.85
616.188	137.89
616.606	138.03
617.023	137.39
617.44	136.67
617.857	134.54
618.274	133.63
618.691	134.1
619.108	133.41
619.525	132.79
619.942	134.34
620.359	134.54
620.776	132.98
621.192	134.02
621.609	134.8
622.026	136.23
622.442	138.33
622.859	138.37
623.275	137.36
623.691	138.89
624.108	141.05
624.524	141.56
624.94	141.48
625.356	143.16
625.772	142.75
626.188	143.13
626.604	143.49
627.02	142.85
627.436	143.51
627.852	145.33
628.268	146.83
628.683	145.16
629.099	144.29
629.514	143.32
629.93	144.08
630.345	145.67
630.761	144.93
631.176	145.71
631.591	147.84
632.007	148.28
632.422	147.31
632.837	146.02
633.252	147.75
633.667	147.04
634.082	147.07
634.497	147.09
634.911	147.39
635.326	148.08
635.741	146.52
636.155	143.74
636.57	145.53
636.984	145.81
637.399	148.75
637.813	148.23
638.228	149.08
638.642	149.79
639.056	148.52
639.47	148.22
639.884	147.83
640.298	147.53
640.712	149.21
641.126	147.74
641.54	147.58
641.954	145.4
642.368	145.24
642.781	148.36
643.195	148.3
643.609	149.82
644.022	149.05
644.436	148.72
644.849	148.02
645.262	146.81
645.676	147.21
646.089	148.93
646.502	149.34
646.915	149.84
647.328	146.22
647.741	146.86
648.154	146.08
648.567	149.81
648.98	150.05
649.393	151.16
649.805	152.31
650.218	152.02
650.631	150.44
651.043	150.32
651.456	150.15
651.868	150.71
652.28	152.95
652.693	154.63
653.105	153.41
653.517	155.43
653.929	156.78
654.341	158.03
654.753	157.76
655.165	158.26
655.577	158.4
655.989	158.43
656.401	157.22
656.813	154.13
657.224	152.02
657.636	148.16
658.047	147.38
658.459	145.47
658.87	144.02
659.282	142.69
659.693	142.04
660.104	141.38
660.515	139.76
660.926	140.85
661.338	141.2
661.749	140.91
662.159	142.11
662.57	141.18
662.981	140.93
663.392	140.6
663.803	142.73
664.213	142.45
664.624	141.87
665.035	142.85
665.445	140.61
665.855	141.05
666.266	142
666.676	142.09
667.086	139.7
667.497	140.6
667.907	140.37
668.317	138.99
668.727	142.38
669.137	142.64
669.547	143.04
669.956	143.61
670.366	143.53
670.776	143.98
671.186	144.12
671.595	146.09
672.005	145.73
672.414	146.08
672.824	146.77
673.233	143.93
673.642	144.24
674.052	145.32
674.461	146.88
674.87	147.24
675.279	147.65
675.688	146.49
676.097	148.56
676.506	148.42
676.915	150.13
677.323	149.71
677.732	148.63
678.141	148.52
678.549	145.42
678.958	143.27
679.366	141.76
679.775	139.67
680.183	144.18
680.592	142.52
681	142.13
681.408	140.19
681.816	140
682.224	139.7
682.632	141.26
683.04	144.64
683.448	148.01
683.856	152.47
684.264	158
684.671	157.88
685.079	161.18
685.487	164.87
685.894	171.11
686.302	174.35
686.709	177.65
687.116	178.75
687.524	181.85
687.931	183.24
688.338	181.98
688.745	177.22
689.152	176.01
689.559	176.4
689.966	177.78
690.373	174.95
690.78	175.06
691.187	175.87
691.593	176.06
692	173.67
692.407	173.48
692.813	178.26
693.22	180.46
693.626	179.52
694.032	179.83
694.439	181.85
694.845	181.49
695.251	182.11
695.657	183.45
696.063	185.21
696.469	184.14
696.875	185.61
697.281	181.47
697.687	180.3
698.093	179.84
698.498	180.94
698.904	178.34
699.31	180.07
699.715	183.82
700.12	185.14
700.526	184.21
700.931	186.87
701.337	187.05
701.742	186.8
702.147	188.41
702.552	187.88
702.957	187.26
703.362	186.39
703.767	185.61
704.172	181.95
704.577	176.66
704.981	175.39
705.386	175.17
705.791	172.89
706.195	173.47
706.6	172.88
707.004	173.05
707.408	169.65
707.813	171.44
708.217	170.53
708.621	169.4
709.025	173.84
709.43	175.43
709.834	176.44
710.237	177.31
710.641	175.35
711.045	175.76
711.449	176.91
711.853	182.27
712.256	181.07
712.66	180.35
713.064	182.57
713.467	183.96
713.87	186.46
714.274	188.77
714.677	194.12
715.08	201.17
