Data from N_3_DEC_ON_6N_Splice17_13-37-19-931.txt Node
Date: Sat Mar 14 13:37:19 EDT 2020
User: sa697716
Spectrometer: FLMS03696
Trigger mode: 0
Integration Time (sec): 3.180400E-1
Scans to average: 20
Electric dark correction enabled: true
Nonlinearity correction enabled: true
Boxcar width: 5
XAxis mode: Wavelengths
Number of Pixels in Spectrum: 2048
>>>>>Begin Spectral Data<<<<<
187.83	-380347.56
188.298	2639.58
188.766	1518
189.233	1332.68
189.701	1840.7
190.169	2546.3
190.636	937.89
191.104	762.53
191.571	81.16
192.039	-137.82
192.506	-120.71
192.974	535.57
193.441	-1036.21
193.908	-217
194.375	-77.81
194.842	-41.07
195.31	26.26
195.777	179.29
196.244	499.02
196.711	712.9
197.177	894.52
197.644	1320.84
198.111	2284.04
198.578	3185.81
199.045	2531.57
199.511	4123.48
199.978	4808.48
200.445	4023.14
200.911	4413.89
201.378	4894.49
201.844	4307.64
202.31	7262.26
202.777	7425.9
203.243	4029.43
203.709	3771.47
204.176	4459.83
204.642	3651.51
205.108	3368.26
205.574	2717.05
206.04	2452.15
206.506	2284.91
206.972	2143.68
207.438	2062.82
207.903	2334.66
208.369	2045.25
208.835	2035.43
209.301	2100.59
209.766	2116.65
210.232	2069.18
210.697	2530.63
211.163	3064.07
211.628	4535.54
212.094	3758.05
212.559	4561.29
213.024	2809.7
213.49	3390.89
213.955	3267.69
214.42	3166.43
214.885	2909.61
215.35	2773.13
215.815	2678.44
216.28	2785.82
216.745	2222.44
217.21	2303.25
217.675	1986.19
218.14	2106.64
218.604	2167.86
219.069	2275.34
219.534	2219.96
219.998	2367.55
220.463	2622.93
220.927	2879.35
221.392	2529.79
221.856	2393.52
222.32	2786.93
222.785	3286.4
223.249	3893.67
223.713	4182.39
224.177	4014.07
224.642	4853.63
225.106	5750.01
225.57	6062.22
226.034	4450.63
226.497	6579.9
226.961	5817.16
227.425	6700.06
227.889	7172.98
228.353	6994.19
228.816	13962.35
229.28	13143.51
229.744	10899.04
230.207	6614.8
230.671	6419.99
231.134	10242.61
231.597	11746.04
232.061	11471.76
232.524	10935.09
232.987	7441.01
233.45	6692.9
233.914	5957.45
234.377	5955.89
234.84	5418.29
235.303	6255.81
235.766	6891.12
236.229	7031.55
236.691	4340.69
237.154	4842.32
237.617	3650.43
238.08	3720.83
238.542	4284.89
239.005	3073.15
239.468	3060.49
239.93	2869.17
240.393	2610.67
240.855	2294.8
241.317	2349.07
241.78	2828.71
242.242	2936.3
242.704	3206.37
243.166	2799.08
243.629	2594.16
244.091	2967.9
244.553	3233.85
245.015	3499.05
245.477	4489.42
245.939	6521
246.4	6947.09
246.862	6741.7
247.324	6341.84
247.786	6994.63
248.247	9092.37
248.709	9127.61
249.17	6850.56
249.632	6590.34
250.093	7734.55
250.555	6687.83
251.016	4137.83
251.477	3931
251.939	4280.35
252.4	4461.29
252.861	5275.73
253.322	4954.19
253.783	5885.67
254.244	7627.56
254.705	5956.39
255.166	5197.77
255.627	5135.37
256.088	7288.5
256.549	7720.64
257.009	6616.31
257.47	8016.68
257.931	6551.52
258.391	4878.27
258.852	5027.59
259.312	5213.98
259.773	6397.84
260.233	5467.54
260.694	4608.89
261.154	5125.59
261.614	4179.24
262.074	3726.02
262.534	3891.83
262.994	3660.77
263.455	4827.26
263.915	4071.64
264.374	3816.53
264.834	4147.03
265.294	4558.69
265.754	4709.71
266.214	4447.58
266.673	4115.68
267.133	5123.59
267.593	5008.6
268.052	6113.37
268.512	5311.02
268.971	6476.8
269.431	7125.36
269.89	6373.6
270.349	9530.49
270.809	10615.68
271.268	9577.5
271.727	21284.18
272.186	13887.12
272.645	10443.53
273.104	7458.9
273.563	10770.06
274.022	8305.87
274.481	7142.52
274.94	5526.44
275.399	4084.01
275.857	4732.45
276.316	6376.26
276.775	5706.75
277.233	5639.64
277.692	5372.93
278.15	6158.24
278.609	6453.88
279.067	6033.67
279.525	5634.77
279.984	7300.34
280.442	8881.72
280.9	8956.63
281.358	5960.81
281.816	5591.03
282.274	5491.13
282.732	5643.81
283.19	5691.55
283.648	4895.45
284.106	5251.07
284.564	5343.89
285.021	5010.93
285.479	3726.82
285.937	3342.94
286.394	2963.77
286.852	3060.52
287.309	3249.52
287.767	3192.02
288.224	3063.16
288.682	3403.57
289.139	3771.42
289.596	3487.07
290.053	3624.21
290.511	4575.76
290.968	5597.34
291.425	7538.77
291.882	6376.17
292.339	5553.94
292.796	5449.52
293.252	5097.42
293.709	4068.88
294.166	3635.64
294.623	3989.81
295.079	3791.23
295.536	3841.67
295.992	3484.45
296.449	3451.4
296.905	3578.26
297.362	3446.69
297.818	3618.46
298.274	3793.31
298.731	3825.15
299.187	3774.21
299.643	4039.39
300.099	4932.17
300.555	5404.44
301.011	4510.82
301.467	4450.92
301.923	5132.92
302.379	5024.52
302.835	4972.66
303.291	4985.57
303.746	5687.12
304.202	7250.54
304.658	7311.51
305.113	4891.94
305.569	4810.79
306.024	5119.86
306.479	4765.36
306.935	4081
307.39	4435.78
307.845	4109.43
308.301	4177.87
308.756	4083.89
309.211	3944.77
309.666	4073.35
310.121	5156.55
310.576	5236.54
311.031	5251.68
311.486	6063.91
311.94	6053.43
312.395	8180.84
312.85	15456.88
313.305	75527.53
313.759	400793.95
314.214	29078.82
314.668	23177.23
315.123	19727
315.577	7184.83
316.032	6438.34
316.486	8100.25
316.94	6493.58
317.394	4546.19
317.849	3534.51
318.303	3328.8
318.757	3130.84
319.211	3484.54
319.665	3020.46
320.119	3032.07
320.572	4310.38
321.026	4038.92
321.48	3337.12
321.934	3577.84
322.387	3570.31
322.841	3872.64
323.295	3548.82
323.748	4030.48
324.202	4066.99
324.655	4954.09
325.108	7045.47
325.562	4992.65
326.015	5892.5
326.468	4490.91
326.921	5047.8
327.374	4768.51
327.827	5027.48
328.28	5703.59
328.733	3864.02
329.186	3438.07
329.639	3288.28
330.092	2750.97
330.545	2636.04
330.997	2689.84
331.45	2997.89
331.903	3577.32
332.355	6112.21
332.808	5919.6
333.26	4879.77
333.713	5363.46
334.165	5407.56
334.617	7200.65
335.069	5771.71
335.522	10411.94
335.974	11555.52
336.426	10443.13
336.878	7122.91
337.33	3629.3
337.782	3577.8
338.234	4556.25
338.686	5418.91
339.137	6437.02
339.589	6093.02
340.041	4795.56
340.493	4145.74
340.944	4250.1
341.396	4614.48
341.847	3939.31
342.299	4718.57
342.75	5749.71
343.201	4924.85
343.653	5656.75
344.104	6866.89
344.555	5384.33
345.006	8323.04
345.457	6451.42
345.908	5104.82
346.359	4826.07
346.81	3919.34
347.261	4075.54
347.712	3968.66
348.163	4265.98
348.613	4394.07
349.064	4133.58
349.515	3620.17
349.965	3741.88
350.416	4466.08
350.866	4906.49
351.317	5455.62
351.767	9073.87
352.217	11469.89
352.668	9632.94
353.118	8872.07
353.568	8410.89
354.018	6727.05
354.468	7145.03
354.918	5198.72
355.368	4568.48
355.818	6468.92
356.268	18744.48
356.718	78760.47
357.168	19766.86
357.617	9862
358.067	10947.74
358.517	10322.41
358.966	12161.33
359.416	13717.97
359.865	14674.79
360.315	17472.93
360.764	8242.04
361.213	4653.68
361.663	4368.28
362.112	5384.96
362.561	8751.26
363.01	6644.63
363.459	5595.43
363.908	6020.74
364.357	5178.8
364.806	8724.13
365.255	6002.13
365.703	5524.27
366.152	5566.72
366.601	4576.27
367.05	3763.15
367.498	3461.01
367.947	3629.84
368.395	3775.94
368.844	3388.11
369.292	4034.04
369.74	2832.32
370.189	4352.68
370.637	5139.43
371.085	4432.13
371.533	5412.76
371.981	5196.56
372.429	4975.36
372.877	5191.27
373.325	4379.24
373.773	4444.48
374.221	3983.59
374.669	4933.76
375.116	4284.67
375.564	4326.95
376.012	4873.52
376.459	4043.91
376.907	4837.8
377.354	5855.7
377.801	5555.78
378.249	6469.72
378.696	8331.11
379.143	10227.88
379.591	10974.04
380.038	18739.77
380.485	13755.46
380.932	14913.15
381.379	13894.13
381.826	10483.38
382.273	7561.08
382.72	6619.92
383.166	6570.51
383.613	4345.71
384.06	3975.82
384.506	4729.53
384.953	3540.71
385.4	3610.29
385.846	3254.75
386.292	3246.09
386.739	3260.05
387.185	3348.06
387.631	3497.24
388.078	3563.16
388.524	3984.17
388.97	3846.3
389.416	3319.31
389.862	3656.93
390.308	3585.82
390.754	3784.76
391.2	4301.14
391.645	4667.9
392.091	4778.2
392.537	4905.39
392.983	5152.24
393.428	5317.55
393.874	5963.18
394.319	6396.22
394.765	6596.66
395.21	7460.28
395.655	7732.83
396.101	7967.51
396.546	7872.25
396.991	8700.64
397.436	8847.04
397.881	9405.37
398.326	9853.54
398.771	10264.25
399.216	9853.23
399.661	9657.67
400.106	10360.64
400.551	11366.23
400.995	10871.69
401.44	11409.57
401.885	11293.91
402.329	11986.55
402.774	12015.61
403.218	12084.51
403.663	12173.91
404.107	13055.03
404.551	13745.61
404.995	13236.12
405.44	13425.91
405.884	14319.99
406.328	14514.07
406.772	15080.65
407.216	14311.79
407.66	14481.53
408.104	14516.82
408.547	14241.56
408.991	14392.46
409.435	14413.34
409.879	14669.71
410.322	14918.85
410.766	14838.83
411.209	14555.01
411.653	14480.67
412.096	14657.81
412.54	15140.23
412.983	15442.34
413.426	15846.21
413.869	16245.71
414.312	16283.87
414.756	16093.34
415.199	15712.54
415.642	15580.82
416.085	15906.1
416.527	16082.41
416.97	16624.83
417.413	15979.64
417.856	16045.93
418.298	16064.53
418.741	16085.63
419.184	16176.27
419.626	16986.1
420.069	17097.74
420.511	17304.25
420.953	17068.52
421.396	17074.39
421.838	16835.48
422.28	17395.24
422.722	17644.56
423.164	18196.22
423.606	18159.51
424.048	18466.67
424.49	17769.98
424.932	17944.56
425.374	17955.23
425.816	18426.51
426.258	18760.78
426.699	18771.42
427.141	18128.59
427.582	18126.12
428.024	17851.56
428.465	17821.6
428.907	17574.98
429.348	17694.17
429.789	17951.43
430.231	17759.06
430.672	18225.44
431.113	18132.54
431.554	18414.76
431.995	18762.44
432.436	18776.48
432.877	18983.28
433.318	19060.76
433.759	19346.89
434.2	19609.22
434.64	19661.91
435.081	19985.66
435.522	19234.46
435.962	18893.29
436.403	18768.13
436.843	19340.24
437.284	19238.34
437.724	18975.66
438.164	19307.19
438.604	19060.32
439.045	18473.02
439.485	17865.62
439.925	17750.5
440.365	17565.49
440.805	17535.06
441.245	17450.54
441.685	16907.12
442.125	16891.67
442.564	17062.69
443.004	16676.83
443.444	16690.04
443.883	16782.37
444.323	16834.41
444.762	17054.64
445.202	17393.17
445.641	17728.04
446.081	17788.11
446.52	18003.17
446.959	17906.71
447.398	17574.36
447.837	17526.49
448.276	17360.81
448.716	17614.4
449.154	17824.87
449.593	17310.63
450.032	17187.63
450.471	16898.58
450.91	16873
451.349	16730.55
451.787	16613.58
452.226	16774.09
452.664	16668.37
453.103	16586.81
453.541	16487.62
453.98	16270.49
454.418	16310.81
454.856	15923.56
455.295	15802.09
455.733	15774.01
456.171	15772.78
456.609	15648.08
457.047	15509.18
457.485	15585.43
457.923	15493.9
458.361	15220.09
458.798	15255.53
459.236	15191.53
459.674	15350.36
460.111	15418
460.549	15299.49
460.987	15313.28
461.424	15320.38
461.862	15306.97
462.299	15131.21
462.736	15129.95
463.173	15234.86
463.611	15028.96
464.048	15020.89
464.485	15177.63
464.922	15122.27
465.359	15151.81
465.796	14790.22
466.233	14768.09
466.67	14668.52
467.106	14694.52
467.543	14687.62
467.98	14604.92
468.416	14412.58
468.853	14436.64
469.29	14115.57
469.726	14043.85
470.162	13736.8
470.599	13816.85
471.035	13768.16
471.471	13515.89
471.907	13536.78
472.344	13486.83
472.78	13494.12
473.216	13652.43
473.652	13439.09
474.088	13372.58
474.523	13245.85
474.959	13311.12
475.395	13117.09
475.831	12934.52
476.266	12919.14
476.702	12792.48
477.138	12539.44
477.573	12399.45
478.008	12228.71
478.444	12134.49
478.879	12074.58
479.314	11994
479.75	11844.14
480.185	11772.06
480.62	11737.43
481.055	11653.38
481.49	11563.07
481.925	11559.8
482.36	11525.62
482.795	11658.16
483.229	11790.72
483.664	11839.62
484.099	11703.07
484.534	11689.63
484.968	11629.54
485.403	11510.74
485.837	11370.38
486.271	11220.79
486.706	11111.02
487.14	10933.4
487.574	10675.67
488.009	10509.03
488.443	10351.42
488.877	10352.29
489.311	10308.82
489.745	10335.58
490.179	10339.53
490.613	10401.85
491.046	10412.45
491.48	10415.67
491.914	10344.75
492.348	10348.91
492.781	10338.44
493.215	10309.19
493.648	10299
494.082	10325.55
494.515	10276.46
494.948	10318.53
495.382	10354.56
495.815	10349.39
496.248	10354.52
496.681	10473.46
497.114	10572.92
497.547	10628.36
497.98	10704.65
498.413	10670.55
498.846	10701.18
499.279	10730.3
499.711	10711.95
500.144	10655.67
500.577	10688.78
501.009	10743.17
501.442	10756.66
501.874	10658.8
502.306	10612.39
502.739	10587.31
503.171	10709.9
503.603	10661.16
504.036	10680.28
504.468	10644.46
504.9	10675.32
505.332	10657.98
505.764	10598.46
506.196	10579.89
506.627	10639.33
507.059	10667.32
507.491	10685.07
507.923	10518.2
508.354	10554.22
508.786	10545.76
509.217	10608.45
509.649	10637.43
510.08	10707.6
510.512	10736.87
510.943	10756.69
511.374	10738.19
511.805	10801.33
512.237	10859.46
512.668	11051.45
513.099	11175.82
513.53	11274
513.961	11294.31
514.391	11414.85
514.822	11520.67
515.253	11669.9
515.684	11719.53
516.114	11805.78
516.545	11811.28
516.975	11858.76
517.406	11835.86
517.836	11699.98
518.267	11607.66
518.697	11610.91
519.127	11511.5
519.558	11444.55
519.988	11344.81
520.418	11301.23
520.848	11308.64
521.278	11253.89
521.708	10969.33
522.138	10950.45
522.567	11061.1
522.997	11121.8
523.427	11116.37
523.857	11110.23
524.286	11074.44
524.716	11074.44
525.145	11098.18
525.575	11080.94
526.004	11096.65
526.433	11229.62
526.863	11156.12
527.292	11009.33
527.721	10982.03
528.15	10973.58
528.579	10934.53
529.008	10961.19
529.437	11064.31
529.866	11103.24
530.295	11160.35
530.724	11175.75
531.152	11290.36
531.581	11320.95
532.01	11390.5
532.438	11404.25
532.867	11456.44
533.295	11533.48
533.723	11534.42
534.152	11486.52
534.58	11454.44
535.008	11330.14
535.436	11317.09
535.865	11345.12
536.293	11417.55
536.721	11491.14
537.149	11614.72
537.576	11601.78
538.004	11664
538.432	11703.42
538.86	11684.07
539.287	11726.64
539.715	11808.05
540.143	11838.38
540.57	11827.61
540.998	11823.95
541.425	11687.26
541.852	11592.6
542.28	11614.37
542.707	11549.47
543.134	11489.95
543.561	11489.24
543.988	11470.2
544.415	11500.12
544.842	11494.31
545.269	11470.89
545.696	11501.93
546.123	11626.23
546.549	11586.05
546.976	11527.29
547.403	11543.11
547.829	11584.57
548.256	11630.98
548.682	11631.57
549.108	11604.7
549.535	11630.26
549.961	11670.69
550.387	11609.26
550.813	11586.16
551.24	11649.22
551.666	11680.78
552.092	11640.18
552.518	11621.87
552.943	11594.13
553.369	11666.82
553.795	11722.09
554.221	11735.18
554.646	11728.12
555.072	11791.58
555.498	11836.85
555.923	11900.13
556.349	11994.98
556.774	12050.73
557.199	12055.04
557.625	12110.86
558.05	12069.49
558.475	12141.95
558.9	12137.96
559.325	12083.13
559.75	12057.3
560.175	12024.86
560.6	11995.42
561.025	11990.72
561.449	12005.11
561.874	12044.25
562.299	12058.23
562.723	12104.12
563.148	12026.97
563.572	12046.39
563.997	12106.24
564.421	12135.66
564.846	12127.69
565.27	12127.17
565.694	12096.32
566.118	12145.2
566.542	12166.98
566.966	12104.48
567.39	12045.63
567.814	11953.22
568.238	11936.05
568.662	11959.96
569.086	11968.42
569.509	12023.88
569.933	11932.19
570.357	11911.73
570.78	11806.74
571.204	11752.82
571.627	11733.74
572.05	11781.63
572.474	11840.51
572.897	11832.95
573.32	11851.77
573.743	11875.14
574.166	11823.04
574.589	11915.68
575.012	11945.34
575.435	12034.31
575.858	12065.94
576.281	12085.38
576.704	12074.95
577.126	12095.34
577.549	12111.81
577.972	12147.95
578.394	12161.15
578.817	12187.44
579.239	12146.33
579.661	12137.18
580.084	12093.05
580.506	12089.66
580.928	12152.9
581.35	12158.81
581.772	12205.62
582.194	12179.04
582.616	12147.65
583.038	12117.54
583.46	12121.24
583.882	12157.61
584.303	12262.13
584.725	12305.48
585.147	12323.79
585.568	12436.89
585.99	12544.81
586.411	12607.32
586.833	12736.21
587.254	12765.36
587.675	12901.46
588.096	13029.13
588.518	13008.03
588.939	12888
589.36	12887.91
589.781	12883
590.202	12650.5
590.623	12624.78
591.043	12649.11
591.464	12571.81
591.885	12557.25
592.305	12522.06
592.726	12411.98
593.147	12416.04
593.567	12364.33
593.987	12285.92
594.408	12223.16
594.828	12215.65
595.248	12122.03
595.669	11919.83
596.089	11823.61
596.509	11738.23
596.929	11574.75
597.349	11526.58
597.769	11393.21
598.189	11280.03
598.608	11235.55
599.028	11189.73
599.448	11137.19
599.867	10994.48
600.287	10929.98
600.706	10849.71
601.126	10726.41
601.545	10679.71
601.965	10646.48
602.384	10584.71
602.803	10594.69
603.222	10539.53
603.641	10486.08
604.061	10448.71
604.48	10424.65
604.898	10494.31
605.317	10552.26
605.736	10589.01
606.155	10583.74
606.574	10534.9
606.992	10604.72
607.411	10593.44
607.829	10574.79
608.248	10590.82
608.666	10618.27
609.085	10650.61
609.503	10618.81
609.921	10606.14
610.339	10664.08
610.758	10710.2
611.176	10719.96
611.594	10689.57
612.012	10711.45
612.43	10770.96
612.847	10863.65
613.265	10898.78
613.683	10977.42
614.101	11033.49
614.518	11057.64
614.936	11023.52
615.353	10945.15
615.771	10962.71
616.188	11010.59
616.606	11026
617.023	11016.64
617.44	10943.44
617.857	10945.44
618.274	10921.6
618.691	10902.18
619.108	10855.85
619.525	10835.66
619.942	10914.4
620.359	10954.39
620.776	10927.61
621.192	10894.87
621.609	10879.09
622.026	10929.97
622.442	10975.93
622.859	11004.34
623.275	10948.26
623.691	10994.6
624.108	11090.98
624.524	11216.49
624.94	11211.96
625.356	11292.28
625.772	11412.58
626.188	11519.98
626.604	11533.68
627.02	11496.78
627.436	11471.07
627.852	11520.35
628.268	11617.22
628.683	11541.57
629.099	11471.28
629.514	11448.93
629.93	11497.46
630.345	11551.61
630.761	11536.83
631.176	11592.71
631.591	11550.75
632.007	11526.08
632.422	11554.87
632.837	11496.13
633.252	11501.26
633.667	11452.37
634.082	11409.06
634.497	11336.12
634.911	11194.35
635.326	11213.76
635.741	11112.63
636.155	11093.77
636.57	11156.31
636.984	11210.43
637.399	11272.2
637.813	11343.57
638.228	11398.89
638.642	11514.12
639.056	11494.17
639.47	11584.53
639.884	11581.82
640.298	11604.54
640.712	11671.16
641.126	11638.79
641.54	11648.86
641.954	11715.99
642.368	11678.93
642.781	11662.66
643.195	11568.8
643.609	11652.89
644.022	11674.19
644.436	11706.77
644.849	11659.78
645.262	11611.83
645.676	11707.4
646.089	11710.82
646.502	11585.94
646.915	11595.91
647.328	11501.64
647.741	11539.88
648.154	11463.48
648.567	11458.33
648.98	11364.37
649.393	11425.71
649.805	11443.05
650.218	11418.1
650.631	11289.82
651.043	11282.7
651.456	11256.36
651.868	11303.05
652.28	11527.6
652.693	11679.1
653.105	11739.62
653.517	11804.62
653.929	11763.4
654.341	11803.48
654.753	11651.94
655.165	11752.84
655.577	11760.24
655.989	11763.88
656.401	11750.99
656.813	11399.13
657.224	11285.24
657.636	11119.94
658.047	11064.04
658.459	10993.02
658.87	11048.69
659.282	11052.56
659.693	10895.47
660.104	10811.81
660.515	10740.38
660.926	10807.36
661.338	10876.66
661.749	10892.19
662.159	10841.52
662.57	10888.07
662.981	10908.46
663.392	10876.81
663.803	10995.26
664.213	11047.69
664.624	11068.66
665.035	11182.44
665.445	11063.55
665.855	11008.99
666.266	10933.75
666.676	10954.19
667.086	10869.02
667.497	10882.13
667.907	10824.09
668.317	10717.22
668.727	10632.97
669.137	10664.12
669.547	10631.83
669.956	10676.13
670.366	10705.4
670.776	10721.29
671.186	10775.21
671.595	10803.34
672.005	10851.52
672.414	10808.91
672.824	10755.95
673.233	10851.53
673.642	10850.21
674.052	10851.65
674.461	10827.89
674.87	10865.44
675.279	10783.14
675.688	10784.01
676.097	10745.65
676.506	10655.99
676.915	10828.6
677.323	10827.15
677.732	10756.3
678.141	10710.24
678.549	10535.1
678.958	10492.75
679.366	10437.93
679.775	10474.07
680.183	10505.98
680.592	10528.75
681	10529.74
681.408	10352.21
681.816	10368.95
682.224	10392.83
