Data from N_3_DEC_CT_2N_Splice17_13-02-24-476.txt Node
Date: Sat Mar 14 13:02:24 EDT 2020
User: sa697716
Spectrometer: FLMS03696
Trigger mode: 0
Integration Time (sec): 3.180400E-1
Scans to average: 20
Electric dark correction enabled: true
Nonlinearity correction enabled: true
Boxcar width: 5
XAxis mode: Wavelengths
Number of Pixels in Spectrum: 2048
>>>>>Begin Spectral Data<<<<<
187.83	-295071.41
188.298	2208.38
188.766	1204.13
189.233	1052.81
189.701	1613.98
190.169	2291.7
190.636	844.48
191.104	654.48
191.571	108.52
192.039	-69.44
192.506	-116.53
192.974	462.07
193.441	-706.18
193.908	-186.18
194.375	-88.98
194.842	82.47
195.31	220.15
195.777	199.45
196.244	414.5
196.711	497.37
197.177	626.87
197.644	899.94
198.111	1539.91
198.578	2181.36
199.045	1753.19
199.511	2895.31
199.978	3355.16
200.445	2847.23
200.911	3146.85
201.378	3515.43
201.844	3193.28
202.31	5441.81
202.777	5661.09
203.243	3180.08
203.709	3011.42
204.176	3573.45
204.642	2942.38
205.108	2754.61
205.574	2238.2
206.04	2047.69
206.506	1910.22
206.972	1803.82
207.438	1752.58
207.903	1996.73
208.369	1750.38
208.835	1746.67
209.301	1855.11
209.766	1901
210.232	1891.84
210.697	2354.09
211.163	2923.09
211.628	4453.06
212.094	3752.19
212.559	4599.22
213.024	2860.77
213.49	3476.01
213.955	3410.23
214.42	3322.96
214.885	3099.16
215.35	2964.9
215.815	2858.22
216.28	3028.43
216.745	2485.5
217.21	2694.68
217.675	2499.93
218.14	2842.86
218.604	3212.08
219.069	3710.51
219.534	3935.21
219.998	4623.96
220.463	5666.89
220.927	7065.46
221.392	6723.73
221.856	6843.14
222.32	8697.7
222.785	10780.75
223.249	13637.78
223.713	15289.82
224.177	15361.65
224.642	19775.24
225.106	24420.53
225.57	26757.22
226.034	19929.88
226.497	30334.39
226.961	27455.14
227.425	31963.02
227.889	35579.76
228.353	35624.99
228.816	73560.03
229.28	70254.14
229.744	59279.95
230.207	36067.72
230.671	35526.36
231.134	58871.87
231.597	67887.24
232.061	67887.19
232.524	66311.61
232.987	45659.14
233.45	41097.58
233.914	36903.23
234.377	37876.53
234.84	34672.24
235.303	40903.54
235.766	45646.09
236.229	47124.28
236.691	29701.52
237.154	33392.13
237.617	25127.21
238.08	25749.76
238.542	30156.9
239.005	21579.28
239.468	21433.46
239.93	20209.92
240.393	18362.35
240.855	16125.47
241.317	16526.88
241.78	20115.25
242.242	20793.6
242.704	22447.02
243.166	19537.43
243.629	17740.75
244.091	20457.83
244.553	22421.9
245.015	24096.77
245.477	31178.89
245.939	45757.23
246.4	48601.53
246.862	47302.24
247.324	44593.69
247.786	49943.05
248.247	65516.87
248.709	67675.61
249.17	50614.91
249.632	47677.28
250.093	55357.68
250.555	47841.06
251.016	29182.99
251.477	27685.75
251.939	29891.53
252.4	31372.53
252.861	37328.81
253.322	34759.53
253.783	41432.11
254.244	53740.75
254.705	42396.15
255.166	37708.18
255.627	37175.78
256.088	52414.09
256.549	55725.25
257.009	48048.39
257.47	58360.83
257.931	47592.62
258.391	35673.29
258.852	36781.72
259.312	38617.88
259.773	47781.9
260.233	40369.71
260.694	34062.89
261.154	38672.78
261.614	31065.46
262.074	27774.46
262.534	28875.11
262.994	27211.11
263.455	36301.88
263.915	30581.38
264.374	28805.53
264.834	31480.09
265.294	34940.29
265.754	36184.09
266.214	34273.55
266.673	32128.84
267.133	40599.14
267.593	40327.88
268.052	49384.5
268.512	42964.15
268.971	51831.09
269.431	56889.17
269.89	50940.12
270.349	76391.44
270.809	85254.81
271.268	76648.58
271.727	171861.38
272.186	111275.96
272.645	83424.85
273.104	60206.05
273.563	87163.74
274.022	68570.35
274.481	58326.37
274.94	44933.13
275.399	33386.3
275.857	38864
276.316	52614.76
276.775	46825.88
277.233	46163.02
277.692	43215.96
278.15	48900.81
278.609	50308.38
279.067	46549.34
279.525	43248.94
279.984	55862.16
280.442	67132.34
280.9	66186.62
281.358	43484.65
281.816	40513.54
282.274	39597.59
282.732	40918.15
283.19	41105.75
283.648	35462.2
284.106	37784.86
284.564	38397.97
285.021	35591.65
285.479	26527.96
285.937	24132.88
286.394	21201.52
286.852	21824.04
287.309	22962.22
287.767	22188.06
288.224	21097.53
288.682	23178.23
289.139	25436.85
289.596	23299.02
290.053	24240.73
290.511	30635.98
290.968	37149.76
291.425	50405.99
291.882	41942.98
292.339	36489.32
292.796	36216.3
293.252	34125.05
293.709	27094.52
294.166	24300.47
294.623	26850.35
295.079	25751.79
295.536	25846.51
295.992	23471.67
296.449	23207.1
296.905	24103.58
297.362	23105.77
297.818	24287.78
298.274	25176.08
298.731	25642.64
299.187	25356.91
299.643	27229.07
300.099	32942.58
300.555	36096.26
301.011	30154.12
301.467	29026.3
301.923	34018.44
302.379	33230.68
302.835	32633.81
303.291	32694.38
303.746	37217.47
304.202	47083.82
304.658	47202.31
305.113	31737.98
305.569	31110.94
306.024	33169.99
306.479	31583.4
306.935	26632.87
307.39	29102.68
307.845	26878.73
308.301	27024.48
308.756	26330.9
309.211	25349.09
309.666	26000.95
310.121	32256.99
310.576	32743.17
311.031	32487.98
311.486	37225.81
311.94	37171.25
312.395	49714.31
312.85	93483.88
313.305	459614.99
313.759	2376160.49
314.214	172087.66
314.668	136293.89
315.123	114618.49
315.577	41092.27
316.032	36522.86
316.486	45823.1
316.94	36158.41
317.394	25128
317.849	19517.48
318.303	18460.47
318.757	17414.6
319.211	19259.5
319.665	16874.49
320.119	17077.57
320.572	24508.94
321.026	22879.08
321.48	19018.64
321.934	20715.13
322.387	20763.54
322.841	22391.8
323.295	20143.76
323.748	23205.91
324.202	23507.46
324.655	28203.66
325.108	39337.94
325.562	27747.86
326.015	32972.31
326.468	24939.65
326.921	27884.04
327.374	25960.72
327.827	27011.3
328.28	30528.4
328.733	20425.85
329.186	17970.4
329.639	17130.8
330.092	14445.68
330.545	13765.26
330.997	13887.44
331.45	15153.03
331.903	17760.38
332.355	30568.57
332.808	29757.71
333.26	24574.64
333.713	26689.1
334.165	26865.32
334.617	35822.21
335.069	28983.99
335.522	52364.6
335.974	57957.85
336.426	52895.42
336.878	36578.31
337.33	18529.68
337.782	18073.1
338.234	22596.28
338.686	27049.55
339.137	32040.14
339.589	30169.13
340.041	23621.17
340.493	20290.13
340.944	20765.94
341.396	22386.35
341.847	18852.16
342.299	22291.42
342.75	27195.95
343.201	23754.51
343.653	27308.06
344.104	33540.6
344.555	26376.32
345.006	41002.29
345.457	31376.52
345.908	24941.73
346.359	23451.89
346.81	19088.55
347.261	20070.9
347.712	19765.88
348.163	21180.8
348.613	21395.1
349.064	19972.43
349.515	17486.1
349.965	17942.64
350.416	21602.16
350.866	23691.14
351.317	26800.26
351.767	44353.27
352.217	55978.17
352.668	46412.27
353.118	42529.9
353.568	41048.47
354.018	32445.39
354.468	34210.57
354.918	24522.09
355.368	21464.97
355.818	30292.12
356.268	87055.35
356.718	364103.83
357.168	90645.61
357.617	45482.94
358.067	50653.79
358.517	47552.62
358.966	55734.12
359.416	62433.59
359.865	67391.46
360.315	80135.29
360.764	37374.05
361.213	20945.76
361.663	19807.63
362.112	24441.94
362.561	39453.3
363.01	29709.96
363.459	24948.32
363.908	26972.24
364.357	22925.42
364.806	38768.4
365.255	26645.29
365.703	24398.26
366.152	24377.45
366.601	19799.35
367.05	16069.86
367.498	14608.55
367.947	15242.6
368.395	15857.37
368.844	14021.06
369.292	16846.04
369.74	11624.42
370.189	17792.03
370.637	20855.81
371.085	18025.97
371.533	21910.51
371.981	21119.23
372.429	20101.49
372.877	20941.98
373.325	17497.43
373.773	17839.8
374.221	15883.22
374.669	19676.24
375.116	16996.07
375.564	17090.06
376.012	19046.38
376.459	15697.62
376.907	18728.91
377.354	22618.8
377.801	21073.34
378.249	24190.03
378.696	30882.1
379.143	37356.35
379.591	39740.42
380.038	67130.66
380.485	48525.07
380.932	52293.77
381.379	47758.2
381.826	35086.73
382.273	24900.09
382.72	21737.85
383.166	21140.72
383.613	13694.08
384.06	12323.22
384.506	14257.66
384.953	10442.18
385.4	10489.17
385.846	9199.25
386.292	8943.83
386.739	8744.67
387.185	8638.8
387.631	8616.25
388.078	8347.82
388.524	8920
388.97	8223.1
389.416	6842.98
389.862	7263.42
390.308	6873.95
390.754	6958.6
391.2	7540.34
391.645	7694.45
392.091	7343.65
392.537	7083.8
392.983	7084.32
393.428	6944.42
393.874	7428.78
394.319	7441.86
394.765	7053.73
395.21	7225.59
395.655	6756.41
396.101	6312.72
396.546	5695.11
396.991	5737.66
397.436	5323.92
397.881	5138.57
398.326	4861.86
398.771	4589.83
399.216	4002.55
399.661	3591.18
400.106	3579.02
400.551	3661.02
400.995	3282.02
401.44	3244.03
401.885	3042.16
402.329	3075.53
402.774	2942.26
403.218	2839.35
403.663	2731.05
404.107	2804.89
404.551	2830.69
404.995	2588.27
405.44	2489.31
405.884	2524.14
406.328	2436.82
406.772	2422.74
407.216	2199.77
407.66	2123.65
408.104	2015.45
408.547	1886.52
408.991	1822.62
409.435	1753.59
409.879	1729.37
410.322	1706.35
410.766	1646.63
411.209	1565.85
411.653	1503.25
412.096	1472.52
412.54	1476.25
412.983	1468.01
413.426	1471.86
413.869	1471
414.312	1439.51
414.756	1384.43
415.199	1319.33
415.642	1279.52
416.085	1279.63
416.527	1268.77
416.97	1286.85
417.413	1218.26
417.856	1204.23
418.298	1192.28
418.741	1183.45
419.184	1177.97
419.626	1225.8
420.069	1224.53
420.511	1229.99
420.953	1203.8
421.396	1193.46
421.838	1160.51
422.28	1187.11
422.722	1190.61
423.164	1206
423.606	1186.49
424.048	1185.65
424.49	1130.22
424.932	1125.71
425.374	1109.1
425.816	1126.76
426.258	1148.25
426.699	1162.41
427.141	1142.12
427.582	1159.84
428.024	1152.39
428.465	1141.67
428.907	1110.55
429.348	1092.22
429.789	1090.56
430.231	1069.08
430.672	1080.82
431.113	1052.72
431.554	1035.22
431.995	1010.38
432.436	972.84
432.877	949.76
433.318	934.61
433.759	931.81
434.2	933.86
434.64	922.29
435.081	924.05
435.522	875.88
435.962	845.36
436.403	828.17
436.843	836.54
437.284	818.58
437.724	796.45
438.164	799.15
438.604	782.35
439.045	753.5
439.485	724.51
439.925	708.44
440.365	691.5
440.805	683.07
441.245	675.7
441.685	652.01
442.125	646.24
442.564	650.71
443.004	633.4
443.444	630.45
443.883	630.87
444.323	624.57
444.762	623.49
445.202	631.85
445.641	642.56
446.081	636.85
446.52	641.93
446.959	636.76
447.398	622.44
447.837	615.03
448.276	604.56
448.716	609.32
449.154	614.19
449.593	602.15
450.032	599.04
450.471	586.5
450.91	585.2
451.349	582.92
451.787	578.84
452.226	585.93
452.664	586.96
453.103	587.84
453.541	586.88
453.98	586.23
454.418	587.47
454.856	580.08
455.295	578.46
455.733	584.2
456.171	587.28
456.609	586.91
457.047	586.67
457.485	594.79
457.923	595.16
458.361	585.95
458.798	587.05
459.236	585.16
459.674	586.08
460.111	588.95
460.549	582.13
460.987	578.14
461.424	576.1
461.862	572.29
462.299	561.94
462.736	561.31
463.173	563.2
463.611	557.37
464.048	558.16
464.485	562.97
464.922	557.67
465.359	553.7
465.796	550.34
466.233	548.2
466.67	544.41
467.106	544.1
467.543	537.61
467.98	530.97
468.416	516.3
468.853	511.19
469.29	495.73
469.726	490.46
470.162	477.53
470.599	468.55
471.035	463.76
471.471	452.01
471.907	448.23
472.344	445.5
472.78	446.5
473.216	452.16
473.652	445.82
474.088	444.94
474.523	442.94
474.959	447.82
475.395	444.85
475.831	441.64
476.266	442.8
476.702	441.61
477.138	436.83
477.573	434.88
478.008	432.9
478.444	435.81
478.879	439.57
479.314	441.76
479.75	441.68
480.185	442.18
480.62	445.56
481.055	448.27
481.49	450.97
481.925	457.01
482.36	465.85
482.795	478.73
483.229	490.63
483.664	501.15
484.099	502.55
484.534	509.54
484.968	514.57
485.403	515.98
485.837	515.11
486.271	514.28
486.706	515.22
487.14	508.29
487.574	499.89
488.009	495.21
488.443	489.42
488.877	494.77
489.311	496.27
489.745	501.18
490.179	505.87
490.613	515.6
491.046	518.98
491.48	522.04
491.914	522.59
492.348	525.78
492.781	529.05
493.215	531.15
493.648	531.49
494.082	535.2
494.515	536.75
494.948	543.22
495.382	546.65
495.815	551.73
496.248	557.37
496.681	567.75
497.114	577.73
497.547	586.66
497.98	598.28
498.413	605.05
498.846	614.43
499.279	622.07
499.711	625.9
500.144	629.22
500.577	639.59
501.009	648.71
501.442	658.16
501.874	660.56
502.306	663.69
502.739	672.47
503.171	685.62
503.603	689.98
504.036	699.45
504.468	706.64
504.9	718.56
505.332	726.53
505.764	733.4
506.196	742.28
506.627	758.44
507.059	772.35
507.491	782.31
507.923	784.23
508.354	801.22
508.786	814.53
509.217	833.47
509.649	850.42
510.08	870.1
510.512	888.92
510.943	905.77
511.374	919.59
511.805	941.84
512.237	962.75
512.668	995.93
513.099	1023
513.53	1051.25
513.961	1075.81
514.391	1108.74
514.822	1143.51
515.253	1179.98
515.684	1209.58
516.114	1241.27
516.545	1266.73
516.975	1296.37
517.406	1318.85
517.836	1327.1
518.267	1338.88
518.697	1360.54
519.127	1370.18
519.558	1381.94
519.988	1390.18
520.418	1404.12
520.848	1426.08
521.278	1439.42
521.708	1467.48
522.138	1483.84
522.567	1518.86
522.997	1548.14
523.427	1566.94
523.857	1587.24
524.286	1601.74
524.716	1620.71
525.145	1642.78
525.575	1657.49
526.004	1674.9
526.433	1666.28
526.863	1669.93
527.292	1661.96
527.721	1669.88
528.15	1678.08
528.579	1681.14
529.008	1694.37
529.437	1720.13
529.866	1736.15
530.295	1754.75
530.724	1768.4
531.152	1798.36
531.581	1815.03
532.01	1836.69
532.438	1847.74
532.867	1864.27
533.295	1885.19
533.723	1893.02
534.152	1892.28
534.58	1893.76
535.008	1878.08
535.436	1882.06
535.865	1890.4
536.293	1905.9
536.721	1922.41
537.149	1948.83
537.576	1952.98
538.004	1966.74
538.432	1975.38
538.86	1974.88
539.287	1982.75
539.715	1999.17
540.143	2002.34
540.57	1999.4
540.998	1995.76
541.425	1972.65
541.852	1950.97
542.28	1950.12
542.707	1932.21
543.134	1917.91
543.561	1914.67
543.988	1907.06
544.415	1907.06
544.842	1901.72
545.269	1894.86
545.696	1897.45
546.123	1911.71
546.549	1902.37
546.976	1889.1
547.403	1890.83
547.829	1894.29
548.256	1896.6
548.682	1893.92
549.108	1886.1
549.535	1886.71
549.961	1889.28
550.387	1875.58
550.813	1870
551.24	1877.81
551.666	1880.18
552.092	1870.49
552.518	1863.24
552.943	1856.43
553.369	1864.8
553.795	1872.07
554.221	1873.78
554.646	1870.24
555.072	1882.16
555.498	1888.37
555.923	1897.51
556.349	1913.16
556.774	1923.15
557.199	1925.53
557.625	1932.14
558.05	1925.6
558.475	1936.46
558.9	1935.02
559.325	1927.31
559.75	1921.55
560.175	1913.63
560.6	1906.24
561.025	1903.34
561.449	1902.8
561.874	1908.22
562.299	1912.44
562.723	1919.45
563.148	1907.76
563.572	1912.1
563.997	1919.61
564.421	1922.54
564.846	1921.82
565.27	1923.95
565.694	1920.2
566.118	1930.88
566.542	1936.82
566.966	1928.14
567.39	1921.5
567.814	1908.28
568.238	1904.6
568.662	1910.17
569.086	1910.84
569.509	1916.28
569.933	1898.73
570.357	1889.19
570.78	1864.95
571.204	1849.46
571.627	1837.16
572.05	1833.53
572.474	1831.22
572.897	1817.18
573.32	1806.19
573.743	1795.11
574.166	1773.67
574.589	1772.34
575.012	1762.86
575.435	1760.71
575.858	1748.36
576.281	1735.57
576.704	1718.17
577.126	1704.7
577.549	1692.44
577.972	1682.09
578.394	1670.47
578.817	1664.25
579.239	1644.82
579.661	1631.36
580.084	1615.13
580.506	1603.03
580.928	1598.06
581.35	1586.34
581.772	1580.89
582.194	1566.43
582.616	1552.81
583.038	1536.73
583.46	1524.33
583.882	1520.49
584.303	1523.5
584.725	1518.92
585.147	1520.15
585.568	1530.61
585.99	1543.34
586.411	1549.67
586.833	1564.55
587.254	1565.26
587.675	1579.86
588.096	1592.9
588.518	1587.25
588.939	1569.07
589.36	1566.17
589.781	1553.96
590.202	1525.31
590.623	1514.16
591.043	1510.91
591.464	1496.08
591.885	1491.65
592.305	1485.32
592.726	1470.54
593.147	1470.4
593.567	1464.8
593.987	1456.54
594.408	1452.4
594.828	1449.71
595.248	1443.74
595.669	1424.99
596.089	1418
596.509	1410.6
596.929	1396.78
597.349	1396.29
597.769	1385.74
598.189	1379.35
598.608	1379.68
599.028	1379.62
599.448	1379.42
599.867	1365.5
600.287	1360.6
600.706	1356.54
601.126	1347.64
601.545	1346.1
601.965	1344.89
602.384	1338.03
602.803	1339.93
603.222	1334.55
603.641	1327.57
604.061	1322.2
604.48	1318.13
604.898	1325.25
605.317	1328.04
605.736	1327.13
606.155	1322.9
606.574	1311.96
606.992	1317.01
607.411	1310.82
607.829	1307.12
608.248	1303.44
608.666	1299.96
609.085	1298.11
609.503	1288.88
609.921	1282.86
610.339	1284.93
610.758	1283.01
611.176	1278.13
611.594	1268.43
612.012	1264.37
612.43	1261.61
612.847	1266.22
613.265	1266.5
613.683	1269.95
614.101	1269.91
614.518	1264.36
614.936	1252.8
615.353	1237.95
615.771	1233.46
616.188	1231.6
616.606	1226.54
617.023	1217.57
617.44	1202.57
617.857	1193.86
618.274	1183.93
618.691	1176.25
619.108	1166.46
619.525	1160.15
619.942	1165.28
620.359	1167.17
620.776	1162.12
621.192	1157.55
621.609	1155.09
622.026	1161.27
622.442	1166.88
622.859	1169.08
623.275	1162.74
623.691	1167.34
624.108	1176.73
624.524	1188.64
624.94	1188.54
625.356	1197.71
625.772	1209.79
626.188	1219.92
626.604	1220.61
627.02	1216.53
627.436	1214.63
627.852	1221.08
628.268	1232.68
628.683	1224.55
629.099	1217.73
629.514	1212.56
629.93	1215.22
630.345	1218.12
630.761	1214
631.176	1217.13
631.591	1211.37
632.007	1205.98
632.422	1202.8
632.837	1190.09
633.252	1187.89
633.667	1176.03
634.082	1166.15
634.497	1153.01
634.911	1134.99
635.326	1129.83
635.741	1111.08
636.155	1099.6
636.57	1098.4
636.984	1095.31
637.399	1095.18
637.813	1091.06
638.228	1087.64
638.642	1089.37
639.056	1077.38
639.47	1073.55
639.884	1063.07
640.298	1055.21
640.712	1050.75
641.126	1036.86
641.54	1025.89
641.954	1016.14
642.368	1002.49
642.781	993.15
643.195	974.11
643.609	970.25
644.022	962.3
644.436	954.5
644.849	940.67
645.262	926.6
645.676	924.12
646.089	917.52
646.502	903.95
646.915	897.31
647.328	880.41
647.741	875.95
648.154	864.08
648.567	861.06
648.98	850.62
649.393	849.24
649.805	846.21
650.218	838.74
650.631	824.61
651.043	819.14
651.456	813.14
651.868	812.23
652.28	824.85
652.693	834.47
653.105	837.16
653.517	843.57
653.929	843.21
654.341	846.14
654.753	835.47
655.165	839.28
655.577	835.52
655.989	829.71
656.401	822.04
656.813	792.91
657.224	775.12
657.636	750.49
658.047	734.59
658.459	717.91
658.87	707.88
659.282	696.2
659.693	679.19
660.104	665.89
660.515	653.71
660.926	650.65
661.338	646.53
661.749	640.64
662.159	632.55
662.57	627.3
662.981	622.37
663.392	616.21
663.803	618.6
664.213	615.37
664.624	611.36
665.035	613.4
665.445	602.11
665.855	595.84
666.266	590.04
666.676	587.61
667.086	579.38
667.497	577.79
667.907	572.4
668.317	564.86
668.727	562.91
669.137	562.73
669.547	560.75
669.956	562.64
670.366	563.86
670.776	564.94
671.186	568.43
671.595	572.52
672.005	575.87
672.414	576.83
672.824	576.97
673.233	579.82
673.642	582.03
674.052	584.59
674.461	587.07
674.87	593.06
675.279	592.86
675.688	593.22
676.097	595.49
676.506	593.2
676.915	605.12
677.323	607.37
677.732	607.63
678.141	608.42
678.549	601.82
678.958	601.98
679.366	600.86
679.775	604.89
680.183	615.97
680.592	621.35
681	627.92
681.408	624.92
681.816	633.22
682.224	641.09
682.632	651.34
683.04	677.62
683.448	699.18
683.856	726.73
684.264	757.5
684.671	785.69
685.079	821.57
685.487	860.34
685.894	913.49
686.302	958.9
686.709	998.52
687.116	1044.92
687.524	1084
687.931	1119.23
688.338	1150.81
688.745	1179.04
689.152	1211.81
689.559	1254.82
689.966	1299.5
690.373	1324.77
690.78	1367.03
691.187	1429.12
691.593	1477.95
692	1523
692.407	1587.61
692.813	1666.03
693.22	1730.42
693.626	1797.84
694.032	1852.38
694.439	1932.22
694.845	1996.25
695.251	2076.07
695.657	2148.73
696.063	2253.68
696.469	2334
696.875	2409.83
697.281	2456.16
697.687	2511.36
698.093	2557.68
