Data from N_3_DEC_OH_4N_Splice17_13-34-57-460.txt Node
Date: Sat Mar 14 13:34:57 EDT 2020
User: sa697716
Spectrometer: FLMS03696
Trigger mode: 0
Integration Time (sec): 3.180400E-1
Scans to average: 20
Electric dark correction enabled: true
Nonlinearity correction enabled: true
Boxcar width: 5
XAxis mode: Wavelengths
Number of Pixels in Spectrum: 2048
>>>>>Begin Spectral Data<<<<<
187.83	-399611.13
188.298	2946.41
188.766	1580.94
189.233	1466.41
189.701	2139.34
190.169	2962.27
190.636	1089.26
191.104	859.69
191.571	147.78
192.039	-72.66
192.506	-52.09
192.974	666.63
193.441	-1040.24
193.908	-253.44
194.375	-13.65
194.842	115.25
195.31	294.05
195.777	215.61
196.244	479.59
196.711	569
197.177	696.77
197.644	985.13
198.111	1699.33
198.578	2394.38
199.045	1912.54
199.511	3084.49
199.978	3584.99
200.445	3015.14
200.911	3342.5
201.378	3731.31
201.844	3386.08
202.31	5816.25
202.777	6034.91
203.243	3339.83
203.709	3172.62
204.176	3776.15
204.642	3136.81
205.108	2911.46
205.574	2380.18
206.04	2171.57
206.506	2033.52
206.972	1916.7
207.438	1842.79
207.903	2103.94
208.369	1864.62
208.835	1864.6
209.301	1960.34
209.766	1991.65
210.232	1983.4
210.697	2458.88
211.163	3029.46
211.628	4555.43
212.094	3831.57
212.559	4717.92
213.024	2942.11
213.49	3598.07
213.955	3524.14
214.42	3439.09
214.885	3224.4
215.35	3123.01
215.815	3038.17
216.28	3260.6
216.745	2680.67
217.21	2909.71
217.675	2697.69
218.14	3059.69
218.604	3453.88
219.069	3991.14
219.534	4222.58
219.998	4940.15
220.463	6014.05
220.927	7455.23
221.392	7051.35
221.856	7171.55
222.32	9099.45
222.785	11263.84
223.249	14255.7
223.713	15950.77
224.177	15951.88
224.642	20509.15
225.106	25317.43
225.57	27743.02
226.034	20669.71
226.497	31551.28
226.961	28552.83
227.425	33287.4
227.889	36963.58
228.353	36938.6
228.816	76247.48
229.28	73032.26
229.744	61663.67
230.207	37511.5
230.671	36941.03
231.134	61082.1
231.597	70408.23
232.061	70340.61
232.524	68606
232.987	47313.36
233.45	42587.33
233.914	38227.7
234.377	39154.1
234.84	35825.09
235.303	42245.59
235.766	47135.86
236.229	48723.43
236.691	30684.69
237.154	34523.11
237.617	25998.59
238.08	26628.51
238.542	31181.14
239.005	22285.84
239.468	22121.16
239.93	20846.97
240.393	18955.37
240.855	16634.34
241.317	17031.54
241.78	20742.42
242.242	21438.59
242.704	23113.47
243.166	20114.52
243.629	18283.66
244.091	21071.3
244.553	23100.81
245.015	24832.41
245.477	32117.12
245.939	47132.07
246.4	50038.89
246.862	48622.29
247.324	45855.76
247.786	51379.43
248.247	67459.76
248.709	69682.06
249.17	52184.91
249.632	49184.96
250.093	57089.82
250.555	49339.88
251.016	30103.77
251.477	28567.4
251.939	30869.37
252.4	32416.34
252.861	38567.98
253.322	35857.5
253.783	42686.7
254.244	55364.15
254.705	43715.09
255.166	38876.97
255.627	38319.41
256.088	54080.08
256.549	57505.94
257.009	49567.68
257.47	60171.34
257.931	49023.65
258.391	36794.05
258.852	37987.86
259.312	39872.85
259.773	49295.05
260.233	41726.78
260.694	35209.54
261.154	39955.43
261.614	32083.11
262.074	28710.06
262.534	29852.71
262.994	28171.53
263.455	37579.69
263.915	31676.4
264.374	29874.19
264.834	32646.6
265.294	36209.75
265.754	37548.27
266.214	35616.29
266.673	33442.63
267.133	42239.17
267.593	41951.74
268.052	51387.78
268.512	44746.68
268.971	54021.23
269.431	59250.12
269.89	53114.47
270.349	79718.51
270.809	88980.72
271.268	79996.39
271.727	179465.81
272.186	116334.06
272.645	87335.19
273.104	63085.44
273.563	91354.72
274.022	71869.71
274.481	61239.13
274.94	47208.95
275.399	35119.45
275.857	40933.96
276.316	55409.3
276.775	49343.14
277.233	48611.41
277.692	45512.43
278.15	51491.03
278.609	52974.06
279.067	49068.3
279.525	45598.76
279.984	58932.3
280.442	70859.74
280.9	69852.03
281.358	45955.8
281.816	42870.49
282.274	41995.42
282.732	43418.1
283.19	43626.78
283.648	37682.81
284.106	40145.46
284.564	40832.09
285.021	37861.23
285.479	28206.87
285.937	25664.43
286.394	22520.32
286.852	23184.34
287.309	24385.99
287.767	23558.61
288.224	22422.66
288.682	24613.62
289.139	27014.67
289.596	24726.96
290.053	25723.79
290.511	32476.22
290.968	39393.04
291.425	53570.45
291.882	44575.3
292.339	38810.89
292.796	38525.2
293.252	36324.47
293.709	28870.62
294.166	25892.81
294.623	28613.92
295.079	27464.17
295.536	27611.85
295.992	25078.32
296.449	24781.51
296.905	25763.4
297.362	24710.25
297.818	26007.72
298.274	27005.31
298.731	27507.78
299.187	27240.38
299.643	29263.44
300.099	35364.14
300.555	38789.88
301.011	32411.39
301.467	31233.47
301.923	36564.62
302.379	35697.49
302.835	35083.82
303.291	35092.65
303.746	39972.63
304.202	50461.14
304.658	50680.08
305.113	34098.74
305.569	33408.7
306.024	35612.75
306.479	33955.31
306.935	28618.7
307.39	31283.7
307.845	28866.15
308.301	29056.09
308.756	28323.75
309.211	27288.05
309.666	27940.78
310.121	34671.24
310.576	35169.97
311.031	34892.41
311.486	39914.45
311.94	39936.27
312.395	53384.53
312.85	100492.25
313.305	493688.93
313.759	2552009.53
314.214	184993.36
314.668	146761.46
315.123	123457.01
315.577	44263.79
316.032	39404.35
316.486	49454.92
316.94	39004.04
317.394	27159.65
317.849	21093.27
318.303	19975.95
318.757	18876.4
319.211	20873.18
319.665	18269.46
320.119	18513.42
320.572	26583.48
321.026	24836.18
321.48	20644.51
321.934	22509.46
322.387	22546.75
322.841	24344.74
323.295	21881.28
323.748	25212.44
324.202	25580.38
324.655	30698.09
325.108	42871.01
325.562	30291.97
326.015	36015.28
326.468	27223.41
326.921	30442.39
327.374	28387.96
327.827	29540.57
328.28	33399.92
328.733	22371.34
329.186	19668.37
329.639	18745.08
330.092	15795
330.545	15028.48
330.997	15140.97
331.45	16547.95
331.903	19366.9
332.355	33317.26
332.808	32376.07
333.26	26730.77
333.713	29016.42
334.165	29224.53
334.617	39006.86
335.069	31503.85
335.522	56973.13
335.974	63010.8
336.426	57550.17
336.878	39873.49
337.33	20215.33
337.782	19744.39
338.234	24734.19
338.686	29587.06
339.137	35054.34
339.589	32978.05
340.041	25841.78
340.493	22231.56
340.944	22811.82
341.396	24607.34
341.847	20680.75
342.299	24404.65
342.75	29787
343.201	26028.44
343.653	29914.63
344.104	36799.19
344.555	29042.05
345.006	45277.29
345.457	34619.86
345.908	27509.49
346.359	25859.03
346.81	21087.04
347.261	22234.24
347.712	21891.65
348.163	23473.28
348.613	23773.66
349.064	22184.4
349.515	19409.16
349.965	19919.05
350.416	24010.18
350.866	26350.43
351.317	29772.11
351.767	49326.42
352.217	62343.36
352.668	51791.82
353.118	47452.39
353.568	45766
354.018	36212.9
354.468	38190.18
354.918	27348.47
355.368	23935.89
355.818	33817.68
356.268	97468.78
356.718	407639.01
357.168	101542.95
357.617	50954.83
358.067	56793.66
358.517	53223.17
358.966	62380.5
359.416	69936.14
359.865	75541.3
360.315	89864.03
360.764	42028.29
361.213	23534.4
361.663	22345.69
362.112	27557.88
362.561	44531.73
363.01	33548.57
363.459	28223.06
363.908	30528.07
364.357	25905.69
364.806	43810.57
365.255	30118.47
365.703	27559.17
366.152	27575.75
366.601	22325.06
367.05	18090.05
367.498	16416.55
367.947	17135.32
368.395	17803.1
368.844	15760.02
369.292	19023.93
369.74	13140.41
370.189	20134.46
370.637	23565.64
371.085	20312.03
371.533	24691.4
371.981	23815.94
372.429	22714.92
372.877	23643.96
373.325	19780.31
373.773	20145.6
374.221	17924.67
374.669	22194.43
375.116	19151.27
375.564	19287.15
376.012	21571.22
376.459	17807.17
376.907	21246.19
377.354	25614.66
377.801	23854.82
378.249	27419.47
378.696	34993
379.143	42317.08
379.591	45078.32
380.038	76280.81
380.485	55079.36
380.932	59405.33
381.379	54153.16
381.826	39845.57
382.273	28324.39
382.72	24744.65
383.166	24088.51
383.613	15628.24
384.06	14066.02
384.506	16279.23
384.953	11930.74
385.4	11998.18
385.846	10509.61
386.292	10243.94
386.739	10018.97
387.185	9895.76
387.631	9886.01
388.078	9586.22
388.524	10220.38
388.97	9433.99
389.416	7856.45
389.862	8344.58
390.308	7901.65
390.754	8008.88
391.2	8688.99
391.645	8905.45
392.091	8531.05
392.537	8264.13
392.983	8283.14
393.428	8163.6
393.874	8752.81
394.319	8805.36
394.765	8373.05
395.21	8614.33
395.655	8087.56
396.101	7583.33
396.546	6844.33
396.991	6901.02
397.436	6406.5
397.881	6191.69
398.326	5864.96
398.771	5555.59
399.216	4850.87
399.661	4363.2
400.106	4352.62
400.551	4463.47
400.995	4001.59
401.44	3956.94
401.885	3721.29
402.329	3762.75
402.774	3606.13
403.218	3497.59
403.663	3363.27
404.107	3460.23
404.551	3484.32
404.995	3196.07
405.44	3072.37
405.884	3120.65
406.328	3020.28
406.772	3006.43
407.216	2735.78
407.66	2642.99
408.104	2505.36
408.547	2346.41
408.991	2266.4
409.435	2181.16
409.879	2143.97
410.322	2116.4
410.766	2040.4
411.209	1934.75
411.653	1856.21
412.096	1817.39
412.54	1817.96
412.983	1804.49
413.426	1808.13
413.869	1805.26
414.312	1773.04
414.756	1709.9
415.199	1629.27
415.642	1580.79
416.085	1583.9
416.527	1571.48
416.97	1591.83
417.413	1508.64
417.856	1492.59
418.298	1474.33
418.741	1461.62
419.184	1452.35
419.626	1509.36
420.069	1507.51
420.511	1515.83
420.953	1484.13
421.396	1470.14
421.838	1434.36
422.28	1466.32
422.722	1470.46
423.164	1491.53
423.606	1467.6
424.048	1466.45
424.49	1394.7
424.932	1386.7
425.374	1365.12
425.816	1383.57
426.258	1408.2
426.699	1421.49
427.141	1397.39
427.582	1418.12
428.024	1409.97
428.465	1400.3
428.907	1363.03
429.348	1345.33
429.789	1343.19
430.231	1314.42
430.672	1333.73
431.113	1302.18
431.554	1282.49
431.995	1251.71
432.436	1206.67
432.877	1178.28
433.318	1158.17
433.759	1151.96
434.2	1150.73
434.64	1138.96
435.081	1141.8
435.522	1081.62
435.962	1042.73
436.403	1018.48
436.843	1030.09
437.284	1008.38
437.724	982.33
438.164	983.94
438.604	963.17
439.045	926.04
439.485	888.86
439.925	870.82
440.365	848.68
440.805	838.87
441.245	829.25
441.685	800.24
442.125	794.63
442.564	799.06
443.004	783.38
443.444	781.74
443.883	784.38
444.323	779.62
444.762	781.55
445.202	792.98
445.641	809.12
446.081	806.93
446.52	815.77
446.959	810.21
447.398	793.2
447.837	784.46
448.276	772.92
448.716	782.26
449.154	792.26
449.593	777.07
450.032	778.69
450.471	765.84
450.91	768.63
451.349	768.12
451.787	767.85
452.226	781.22
452.664	783.33
453.103	788.02
453.541	788.29
453.98	788.4
454.418	793.94
454.856	781.38
455.295	780.15
455.733	787.07
456.171	792.29
456.609	791.83
457.047	793.12
457.485	805.53
457.923	805.91
458.361	795.62
458.798	798
459.236	796.49
459.674	802.34
460.111	805.87
460.549	797.13
460.987	793.96
461.424	791.12
461.862	785.62
462.299	772.62
462.736	771.9
463.173	773.76
463.611	765.05
464.048	762.93
464.485	768.77
464.922	760.93
465.359	756.34
465.796	748.28
466.233	743.61
466.67	737.79
467.106	735.19
467.543	727.92
467.98	719.09
468.416	700.36
468.853	694.45
469.29	673.55
469.726	666.99
470.162	651.45
470.599	641.99
471.035	636.25
471.471	622.19
471.907	620.3
472.344	616.35
472.78	618.8
473.216	627.08
473.652	620.63
474.088	620.57
474.523	620.22
474.959	626.14
475.395	622.58
475.831	620.3
476.266	624.16
476.702	623.58
477.138	619.44
477.573	619.97
478.008	619.17
478.444	623.62
478.879	631.05
479.314	635.15
479.75	636.06
480.185	639.12
480.62	646.09
481.055	650.59
481.49	656.94
481.925	667.39
482.36	679.21
482.795	699.51
483.229	720.25
483.664	735.87
484.099	739.45
484.534	752.41
484.968	761
485.403	764.45
485.837	765
486.271	764.4
486.706	767.66
487.14	760.56
487.574	749.61
488.009	743.55
488.443	738.4
488.877	748.71
489.311	752.79
489.745	763.29
490.179	772.81
490.613	788.93
491.046	797.58
491.48	805.06
491.914	809.23
492.348	818.51
492.781	826.91
493.215	832.44
493.648	836.03
494.082	845.44
494.515	850.07
494.948	862.6
495.382	872
495.815	882.1
496.248	892.38
496.681	912
497.114	930.51
497.547	946.41
497.98	967.34
498.413	979.93
498.846	998.02
499.279	1012.97
499.711	1023.02
500.144	1030.75
500.577	1047.71
501.009	1066.76
501.442	1084.49
501.874	1090.44
502.306	1097.65
502.739	1112.11
503.171	1135.9
503.603	1143.15
504.036	1160.93
504.468	1172.74
504.9	1192.84
505.332	1206.85
505.764	1215.81
506.196	1228.26
506.627	1251.02
507.059	1273.18
507.491	1288.76
507.923	1289.64
508.354	1312.97
508.786	1328.87
509.217	1356.51
509.649	1377.19
510.08	1404.42
510.512	1428.71
510.943	1450.79
511.374	1467.56
511.805	1495.43
512.237	1523.11
512.668	1567.1
513.099	1604.76
513.53	1642.39
513.961	1668.94
514.391	1713.15
514.822	1757.3
515.253	1805.9
515.684	1839.68
516.114	1878.56
516.545	1905.6
516.975	1936.66
517.406	1957.22
517.836	1957.8
518.267	1963.34
518.697	1984.6
519.127	1986.52
519.558	1992.92
519.988	1994.27
520.418	2004.37
520.848	2023.72
521.278	2032.46
521.708	2053.22
522.138	2068.47
522.567	2106.04
522.997	2136.25
523.427	2154.05
523.857	2174.12
524.286	2184.18
524.716	2200.54
525.145	2223.06
525.575	2235.41
526.004	2251.06
526.433	2238.47
526.863	2234.99
527.292	2219.99
527.721	2224.24
528.15	2229.46
528.579	2226.7
529.008	2239.13
529.437	2267.44
529.866	2282.15
530.295	2302.45
530.724	2316.95
531.152	2350.17
531.581	2367.61
532.01	2388.64
532.438	2399.64
532.867	2416.2
533.295	2439.47
533.723	2446.16
534.152	2442.22
534.58	2440.23
535.008	2416.38
535.436	2417.61
535.865	2425.74
536.293	2442.51
536.721	2460.92
537.149	2492.62
537.576	2495.69
538.004	2510.61
538.432	2519.32
538.86	2513.79
539.287	2522.19
539.715	2540.08
540.143	2542.39
540.57	2536.05
540.998	2529.25
541.425	2497.43
541.852	2467.89
542.28	2464.04
542.707	2440.8
543.134	2421.53
543.561	2416.32
543.988	2405.7
544.415	2404.33
544.842	2395.96
545.269	2386.74
545.696	2389.57
546.123	2406.57
546.549	2392.29
546.976	2375.42
547.403	2375.02
547.829	2378.01
548.256	2380.26
548.682	2376.59
549.108	2366.49
549.535	2366.11
549.961	2369.22
550.387	2352.79
550.813	2347.63
551.24	2357.21
551.666	2359.79
552.092	2349.49
552.518	2341.37
552.943	2335.33
553.369	2344.66
553.795	2355.11
554.221	2357.82
554.646	2355.82
555.072	2370.98
555.498	2379.15
555.923	2394.36
556.349	2415.86
556.774	2429.6
557.199	2433.94
557.625	2444.46
558.05	2439.63
558.475	2453.22
558.9	2455.08
559.325	2446.32
559.75	2440.18
560.175	2433.98
560.6	2426.89
561.025	2427.19
561.449	2431.38
561.874	2441.61
562.299	2451.11
562.723	2464.01
563.148	2453.08
563.572	2461.81
563.997	2478.88
564.421	2489.88
564.846	2493.35
565.27	2501.62
565.694	2501.27
566.118	2520.87
566.542	2535.53
566.966	2528.18
567.39	2525.65
567.814	2515.92
568.238	2518.18
568.662	2529.48
569.086	2536.99
569.509	2550.96
569.933	2533.29
570.357	2526.29
570.78	2499.9
571.204	2483.46
571.627	2473.49
572.05	2473.93
572.474	2477.81
572.897	2463.84
573.32	2455.58
573.743	2445.28
574.166	2422.47
574.589	2426.94
575.012	2419.64
575.435	2421.06
575.858	2413.04
576.281	2400.95
576.704	2382.39
577.126	2367.62
577.549	2355.51
577.972	2344.96
578.394	2333.92
578.817	2328.24
579.239	2304.36
579.661	2289.25
580.084	2271.11
580.506	2254.4
580.928	2252.2
581.35	2239.61
581.772	2237.14
582.194	2221.41
582.616	2206.25
583.038	2188.21
583.46	2175.08
583.882	2173.34
584.303	2181.97
584.725	2177.87
585.147	2182.7
585.568	2200.99
585.99	2220.47
586.411	2231.53
586.833	2254.99
587.254	2258.31
587.675	2281.89
588.096	2302.79
588.518	2296.56
588.939	2274
589.36	2272.5
589.781	2259.67
590.202	2217.45
590.623	2205.47
591.043	2203.56
591.464	2185.6
591.885	2180.31
592.305	2171.33
592.726	2151.13
593.147	2153.77
593.567	2145.74
593.987	2134.71
594.408	2128.46
594.828	2125.53
595.248	2116.82
595.669	2089.43
596.089	2079.48
596.509	2071.81
596.929	2052.62
597.349	2054.32
597.769	2039.85
598.189	2032.06
598.608	2034.1
599.028	2036.87
599.448	2038.53
599.867	2021.84
600.287	2016.07
600.706	2010.92
601.126	1997.17
601.545	1996.61
601.965	1995.34
602.384	1988.85
602.803	1992.79
603.222	1987.68
603.641	1979.19
604.061	1975.13
604.48	1969.93
604.898	1983.27
605.317	1991.07
605.736	1995.51
606.155	1993.24
606.574	1981.24
606.992	1990.46
607.411	1985.7
607.829	1975
608.248	1972.18
608.666	1969.42
609.085	1970.33
609.503	1959.62
609.921	1952.85
610.339	1957.92
610.758	1959.4
611.176	1955.36
611.594	1943.14
612.012	1939.71
612.43	1946.91
612.847	1958.12
613.265	1962.77
613.683	1972.21
614.101	1977.73
614.518	1973.97
614.936	1960.04
615.353	1939.18
615.771	1936.32
616.188	1938.15
616.606	1934.82
617.023	1924.64
617.44	1904.58
617.857	1894.42
618.274	1882.7
618.691	1872.74
619.108	1860.49
619.525	1852.95
619.942	1863.24
620.359	1867.24
620.776	1860.78
621.192	1855.62
621.609	1853.45
622.026	1863.9
622.442	1873.28
622.859	1878.03
623.275	1869.19
623.691	1877.3
624.108	1894.71
624.524	1916.38
624.94	1916.52
625.356	1932.97
625.772	1952.23
626.188	1969.85
626.604	1972.2
627.02	1966.06
627.436	1962.58
627.852	1971.85
628.268	1989.15
628.683	1975.21
629.099	1962.09
629.514	1955.37
629.93	1959.84
630.345	1967.24
630.761	1961.34
631.176	1965.1
631.591	1956.35
632.007	1946.99
632.422	1942.87
632.837	1925.38
633.252	1921.67
633.667	1905.53
634.082	1890.29
634.497	1869.49
634.911	1838.11
635.326	1831.1
635.741	1805.2
636.155	1788.99
636.57	1789.89
636.984	1789.09
637.399	1790.64
637.813	1788.61
638.228	1786.27
638.642	1792.35
639.056	1775.18
639.47	1774.32
639.884	1760.77
640.298	1749.15
640.712	1745.43
641.126	1725.5
641.54	1709.59
641.954	1699.08
642.368	1677.93
642.781	1662.55
643.195	1633.01
643.609	1630.98
644.022	1618.65
644.436	1609.1
644.849	1589.22
645.262	1569.08
645.676	1568.39
646.089	1560.46
646.502	1535.48
646.915	1525.81
647.328	1499.7
647.741	1494.93
648.154	1473.23
648.567	1468.37
648.98	1447.19
649.393	1445.94
649.805	1438.95
650.218	1426.2
650.631	1401.75
651.043	1392.76
651.456	1383.86
651.868	1384.11
652.28	1407.01
652.693	1426.63
653.105	1433.61
653.517	1446.86
653.929	1447.29
654.341	1454.84
654.753	1436.61
655.165	1443.3
655.577	1438.25
655.989	1429.78
656.401	1417.12
656.813	1365.4
657.224	1335.37
657.636	1294.14
658.047	1267.24
658.459	1238.02
658.87	1223.1
659.282	1203.43
659.693	1173.31
660.104	1150.46
660.515	1128.92
660.926	1121.28
661.338	1112.88
661.749	1100.22
662.159	1083.56
662.57	1073
662.981	1061.95
663.392	1046.67
663.803	1047.28
664.213	1037
664.624	1025.81
665.035	1023.91
665.445	1002.27
665.855	987.55
666.266	972.91
666.676	965.64
667.086	948.81
667.497	942.68
667.907	931.28
668.317	915.44
668.727	909.18
669.137	905.98
669.547	899.39
669.956	898.55
670.366	897.17
670.776	895.91
671.186	897.05
671.595	898.54
672.005	899.11
672.414	895.41
672.824	891.15
673.233	892.95
673.642	893.59
674.052	894.87
674.461	894.64
674.87	899.64
675.279	895.78
675.688	896.01
676.097	896.76
676.506	893.98
676.915	910.22
677.323	914.62
677.732	912.92
678.141	913.69
678.549	902.34
678.958	903.9
679.366	903.63
679.775	911.87
680.183	928.49
680.592	939.89
681	950.6
681.408	948.49
681.816	963.08
682.224	979.63
682.632	998.75
683.04	1043.78
683.448	1083.85
683.856	1133.81
684.264	1189.09
684.671	1241.93
685.079	1307.23
685.487	1378.07
685.894	1473.51
686.302	1558.45
686.709	1630.2
687.116	1714.87
687.524	1784.23
687.931	1844.39
688.338	1896.83
688.745	1942.48
689.152	1993.04
689.559	2056.07
689.966	2117.81
690.373	2147.2
690.78	2200.03
691.187	2285.46
691.593	2345.33
692	2395.09
692.407	2472.7
692.813	2567.89
693.22	2638.51
693.626	2710.66
694.032	2764.12
694.439	2852.29
694.845	2914.96
695.251	3000.06
