Data from N_3_DIV_IL_4N_Splice17_13-20-54-058.txt Node
Date: Sat Mar 14 13:20:54 EDT 2020
User: sa697716
Spectrometer: FLMS03696
Trigger mode: 0
Integration Time (sec): 3.180400E-1
Scans to average: 20
Electric dark correction enabled: true
Nonlinearity correction enabled: true
Boxcar width: 5
XAxis mode: Wavelengths
Number of Pixels in Spectrum: 2048
>>>>>Begin Spectral Data<<<<<
187.83	-391916.01
188.298	2860.12
188.766	1562.93
189.233	1442.56
189.701	1993.26
190.169	2626.88
190.636	1026.84
191.104	815.54
191.571	143.81
192.039	-88.27
192.506	-108.28
192.974	633.32
193.441	-957.19
193.908	-142.72
194.375	-54.57
194.842	46.92
195.31	52.76
195.777	188.12
196.244	409.11
196.711	454.72
197.177	551.22
197.644	766.69
198.111	1351.54
198.578	1870.19
199.045	1481.29
199.511	2411.77
199.978	2760.06
200.445	2368.64
200.911	2593.6
201.378	2861.94
201.844	2587.09
202.31	4394.41
202.777	4584.68
203.243	2541.26
203.709	2422.32
204.176	2893.38
204.642	2409.55
205.108	2261.53
205.574	1834.64
206.04	1648.36
206.506	1562.78
206.972	1469.42
207.438	1419.61
207.903	1601.46
208.369	1398.49
208.835	1374.57
209.301	1438.28
209.766	1446.07
210.232	1422.91
210.697	1733.14
211.163	2132.3
211.628	3142.27
212.094	2634.36
212.559	3216.72
213.024	2004.49
213.49	2435.92
213.955	2392.66
214.42	2310.7
214.885	2140.86
215.35	2031.15
215.815	1977.78
216.28	2076.2
216.745	1672.93
217.21	1794.26
217.675	1604.2
218.14	1749.52
218.604	1879.12
219.069	2059.96
219.534	2096.8
219.998	2374.32
220.463	2795.01
220.927	3283
221.392	3015.28
221.856	3001.36
222.32	3644.32
222.785	4442.89
223.249	5511.28
223.713	6081.81
224.177	6022.65
224.642	7613.66
225.106	9245.49
225.57	10051.13
226.034	7498.81
226.497	11398.28
226.961	10299.27
227.425	12050.14
227.889	13266.74
228.353	13157.32
228.816	27093.82
229.28	26000.97
229.744	21895.59
230.207	13386.08
230.671	13090.02
231.134	21557.22
231.597	24876.86
232.061	24774.6
232.524	24031.19
232.987	16572.6
233.45	15028.39
233.914	13506.43
234.377	13788.97
234.84	12617.62
235.303	14823.51
235.766	16599.44
236.229	17134.45
236.691	10766.41
237.154	12093.84
237.617	9151.46
238.08	9382.24
238.542	10952.16
239.005	7822.97
239.468	7767.62
239.93	7336.59
240.393	6675.6
240.855	5866.86
241.317	6006.07
241.78	7297.71
242.242	7563.07
242.704	8187.78
243.166	7136.02
243.629	6520.3
244.091	7535.47
244.553	8268.73
245.015	8913.39
245.477	11494.93
245.939	16824.86
246.4	17896.27
246.862	17400.27
247.324	16403.23
247.786	18326.65
248.247	23988.83
248.709	24689.46
249.17	18481.34
249.632	17525.87
250.093	20347.6
250.555	17620.58
251.016	10790.09
251.477	10243.15
251.939	11078.46
252.4	11612.13
252.861	13765.13
253.322	12841.2
253.783	15262.5
254.244	19779.78
254.705	15527.36
255.166	13774.07
255.627	13565.4
256.088	19163.57
256.549	20331.24
257.009	17487.03
257.47	21201.52
257.931	17261.32
258.391	12912.04
258.852	13301.15
259.312	13927.46
259.773	17179.84
260.233	14529.42
260.694	12250.01
261.154	13840.09
261.614	11142.66
262.074	9962.8
262.534	10322.57
262.994	9734.95
263.455	12927.56
263.915	10876.4
264.374	10212.92
264.834	11117.62
265.294	12273.36
265.754	12701.42
266.214	11991.09
266.673	11193.84
267.133	14061.82
267.593	13939.39
268.052	17021.54
268.512	14767.78
268.971	17823.86
269.431	19511.13
269.89	17447.1
270.349	26126.97
270.809	29093.76
271.268	26129.95
271.727	58388.1
272.186	37778.77
272.645	28283.15
273.104	20331.51
273.563	29411.41
274.022	23042.05
274.481	19623.54
274.94	15126.97
275.399	11225.14
275.857	13042.14
276.316	17613.77
276.775	15694.75
277.233	15493.26
277.692	14557.25
278.15	16491.98
278.609	17018.23
279.067	15752.79
279.525	14655.46
279.984	18909.24
280.442	22724.86
280.9	22457.08
281.358	14776.21
281.816	13755.04
282.274	13456.93
282.732	13832.44
283.19	13883.82
283.648	11942.28
284.106	12693.66
284.564	12877.77
285.021	11957.06
285.479	8912.69
285.937	8087.31
286.394	7117.94
286.852	7309.44
287.309	7692.09
287.767	7474.5
288.224	7121.46
288.682	7823.07
289.139	8616.47
289.596	7886.73
290.053	8172.3
290.511	10302.65
290.968	12488.41
291.425	16912.83
291.882	14150.05
292.339	12283.84
292.796	12155.66
293.252	11455.36
293.709	9119.57
294.166	8163.82
294.623	9010.01
295.079	8629.09
295.536	8690.12
295.992	7907.81
296.449	7838.43
296.905	8116.98
297.362	7802.52
297.818	8199.93
298.274	8514.05
298.731	8674.72
299.187	8571.81
299.643	9213.4
300.099	11160.36
300.555	12237.72
301.011	10208.35
301.467	9886.64
301.923	11578.26
302.379	11332.2
302.835	11155.01
303.291	11199.45
303.746	12737.11
304.202	16117.36
304.658	16195.98
305.113	10926.48
305.569	10729.47
306.024	11448.99
306.479	10840.14
306.935	9178.63
307.39	10003.35
307.845	9237.06
308.301	9305.15
308.756	9068.23
309.211	8748.27
309.666	8965.22
310.121	11184.12
310.576	11351.3
311.031	11272.4
311.486	12907.36
311.94	12859.81
312.395	17191.65
312.85	32307.93
313.305	158222.81
313.759	825082.9
314.214	59950.54
314.668	47660.79
315.123	40128.38
315.577	14410.63
316.032	12842.24
316.486	16084.26
316.94	12763.28
317.394	8944.26
317.849	6955.92
318.303	6593.1
318.757	6217.9
319.211	6879.93
319.665	6013.1
320.119	6079.81
320.572	8703.53
321.026	8155.63
321.48	6812.16
321.934	7397.65
322.387	7374.98
322.841	8000.19
323.295	7226.71
323.748	8297.72
324.202	8414.65
324.655	10155.41
325.108	14259.69
325.562	10087.53
326.015	11972.39
326.468	9041.48
326.921	10111.45
327.374	9455.32
327.827	9862.76
328.28	11178.14
328.733	7500.49
329.186	6598.51
329.639	6293.2
330.092	5293.89
330.545	5053.16
330.997	5118.71
331.45	5634.83
331.903	6662.94
332.355	11467.47
332.808	11134.06
333.26	9158.32
333.713	9986.03
334.165	10097.81
334.617	13451.47
335.069	10818.85
335.522	19554.84
335.974	21621.94
336.426	19712.23
336.878	13543.57
337.33	6875.71
337.782	6714.81
338.234	8483.11
338.686	10133.42
339.137	11998.16
339.589	11304.33
340.041	8908.93
340.493	7647.48
340.944	7848.18
341.396	8442.04
341.847	7146.12
342.299	8483.6
342.75	10372.15
343.201	8978.82
343.653	10303.33
344.104	12628.07
344.555	9919.97
345.006	15312.24
345.457	11827.17
345.908	9356.74
346.359	8811.16
346.81	7165.41
347.261	7530.61
347.712	7385.41
348.163	7909.93
348.613	8046.55
349.064	7533.17
349.515	6625.87
349.965	6830.86
350.416	8193.62
350.866	9003.86
351.317	10134.69
351.767	16823.2
352.217	21246.49
352.668	17700.42
353.118	16268.53
353.568	15629.57
354.018	12413.98
354.468	13105.37
354.918	9420.25
355.368	8243.19
355.818	11621.45
356.268	33435.61
356.718	139790
357.168	34898.4
357.617	17475.98
358.067	19370.61
358.517	18166.07
358.966	21277.79
359.416	23894.34
359.865	25831.26
360.315	30750.47
360.764	14365.6
361.213	8055.49
361.663	7597.84
362.112	9330.29
362.561	15093.88
363.01	11419.78
363.459	9606.98
363.908	10367.29
364.357	8826.62
364.806	14847.99
365.255	10195.17
365.703	9431.19
366.152	9500.11
366.601	7723.94
367.05	6297.4
367.498	5737.84
367.947	5994.8
368.395	6229.61
368.844	5534.81
369.292	6605.21
369.74	4588.72
370.189	7003.29
370.637	8131.67
371.085	6980.1
371.533	8482.3
371.981	8128.82
372.429	7754.49
372.877	8042.23
373.325	6741.73
373.773	6839.19
374.221	6105.85
374.669	7538.9
375.116	6506.71
375.564	6557.55
376.012	7309.43
376.459	6002.96
376.907	7152.2
377.354	8595.97
377.801	8048
378.249	9239.05
378.696	11792.74
379.143	14250.08
379.591	15172
380.038	25731.76
380.485	18683.25
380.932	20220.57
381.379	18642.97
381.826	13809.52
382.273	9817.49
382.72	8561.36
383.166	8342.58
383.613	5419.55
384.06	4875.69
384.506	5640.4
384.953	4111.79
385.4	4100.05
385.846	3580.71
386.292	3465.05
386.739	3354.34
387.185	3299.37
387.631	3303.81
388.078	3211.4
388.524	3410.09
388.97	3151.56
389.416	2628.73
389.862	2803.21
390.308	2656.05
390.754	2698.88
391.2	2913.51
391.645	2979.89
392.091	2886.17
392.537	2777.94
392.983	2762.54
393.428	2747.82
393.874	2937.08
394.319	2959.91
394.765	2822.38
395.21	2895.34
395.655	2701.54
396.101	2538.69
396.546	2299.43
396.991	2302.85
397.436	2140.6
397.881	2082.5
398.326	1960.1
398.771	1864.83
399.216	1623.37
399.661	1460.4
400.106	1469.35
400.551	1521.97
400.995	1372.21
401.44	1366.31
401.885	1284.98
402.329	1306.57
402.774	1252.77
403.218	1226.6
403.663	1184.28
404.107	1225.13
404.551	1243.78
404.995	1139.11
405.44	1092.71
405.884	1111.09
406.328	1076.65
406.772	1077.43
407.216	983.14
407.66	950.05
408.104	897.61
408.547	840.84
408.991	815.72
409.435	786.06
409.879	780.03
410.322	777.55
410.766	754.35
411.209	720.12
411.653	693.31
412.096	685.26
412.54	690.96
412.983	690.26
413.426	700.29
413.869	699.65
414.312	691.93
414.756	668.93
415.199	638.93
415.642	625.55
416.085	629.51
416.527	628.94
416.97	638.95
417.413	609.05
417.856	602.48
418.298	594.59
418.741	591.81
419.184	587.88
419.626	612.3
420.069	614.29
420.511	619.61
420.953	607.83
421.396	603.15
421.838	587.83
422.28	602.07
422.722	609.3
423.164	619.47
423.606	612.87
424.048	615.47
424.49	589.55
424.932	586.47
425.374	578.91
425.816	587.82
426.258	599.72
426.699	606.97
427.141	599.68
427.582	605.21
428.024	600.64
428.465	594.79
428.907	577.39
429.348	567.72
429.789	570.45
430.231	562.55
430.672	573.46
431.113	560.18
431.554	553.58
431.995	539.93
432.436	527.39
432.877	520.52
433.318	515.11
433.759	515.79
434.2	518.19
434.64	513.49
435.081	514.91
435.522	488.15
435.962	471.49
436.403	464.65
436.843	470.27
437.284	458.64
437.724	445.13
438.164	445.49
438.604	436.4
439.045	421.25
439.485	406.32
439.925	397.18
440.365	387.28
440.805	382.69
441.245	380
441.685	369
442.125	366.58
442.564	369.8
443.004	364.3
443.444	364.94
443.883	366.84
444.323	362.13
444.762	361.48
445.202	368.02
445.641	378.23
446.081	376.42
446.52	380.47
446.959	380.71
447.398	374.52
447.837	370.71
448.276	365.06
448.716	369.27
449.154	375.26
449.593	369.76
450.032	370.8
450.471	362.93
450.91	363.22
451.349	364.45
451.787	360.75
452.226	366.32
452.664	366.76
453.103	367.87
453.541	368.4
453.98	371.25
454.418	373.97
454.856	369.26
455.295	369.89
455.733	373.27
456.171	375.09
456.609	377
457.047	377.14
457.485	384.76
457.923	387.04
458.361	381.19
458.798	380.66
459.236	379.18
459.674	381.1
460.111	382.06
460.549	379.2
460.987	376.24
461.424	375.02
461.862	371.54
462.299	364.99
462.736	365.22
463.173	366.34
463.611	364.91
464.048	364.61
464.485	367.69
464.922	363.99
465.359	360.6
465.796	363.58
466.233	361.76
466.67	361.64
467.106	362.11
467.543	355.75
467.98	351.11
468.416	339.9
468.853	336.46
469.29	326.98
469.726	324.89
470.162	317.02
470.599	307.56
471.035	303.57
471.471	295.17
471.907	292.12
472.344	291.42
472.78	293.16
473.216	297.05
473.652	294.66
474.088	293.11
474.523	292.65
474.959	295.49
475.395	292.28
475.831	292.31
476.266	294.7
476.702	294.03
477.138	292
477.573	291.3
478.008	290.08
478.444	292.18
478.879	296.57
479.314	298.93
479.75	299.89
480.185	302.28
480.62	304.42
481.055	305.93
481.49	309.24
481.925	313.91
482.36	321.94
482.795	330.85
483.229	338.93
483.664	345.87
484.099	346.06
484.534	351.22
484.968	355.32
485.403	356.22
485.837	355.76
486.271	355.65
486.706	356.46
487.14	351.17
487.574	347.4
488.009	345.62
488.443	342.8
488.877	348.41
489.311	350.37
489.745	355.96
490.179	361.89
490.613	371.93
491.046	376.22
491.48	380.68
491.914	383.6
492.348	388.48
492.781	393.64
493.215	397.36
493.648	400.09
494.082	406.52
494.515	409.55
494.948	417.77
495.382	422.46
495.815	428.72
496.248	435.79
496.681	447.38
497.114	458.06
497.547	468.86
497.98	481.72
498.413	490.94
498.846	501.64
499.279	511.78
499.711	518.65
500.144	525.75
500.577	538.43
501.009	550.78
501.442	563.03
501.874	569.61
502.306	576.33
502.739	589.37
503.171	604.91
503.603	612.62
504.036	624.94
504.468	634.82
504.9	648.95
505.332	659.98
505.764	670.12
506.196	681.6
506.627	698.2
507.059	714.29
507.491	724.74
507.923	730.35
508.354	748.61
508.786	763.78
509.217	784.06
509.649	801.89
510.08	822.68
510.512	841.23
510.943	859.17
511.374	874.39
511.805	896.6
512.237	919.11
512.668	950.51
513.099	977.29
513.53	1004.91
513.961	1027.58
514.391	1058.91
514.822	1092.88
515.253	1128.91
515.684	1155.08
516.114	1186.42
516.545	1209.07
516.975	1235.95
517.406	1256.83
517.836	1264.39
518.267	1274.55
518.697	1294.66
519.127	1302.76
519.558	1311.64
519.988	1317.56
520.418	1330.18
520.848	1348.06
521.278	1359.26
521.708	1390.71
522.138	1404.91
522.567	1434.82
522.997	1459.73
523.427	1476.26
523.857	1493.95
524.286	1505.36
524.716	1521.86
525.145	1540.51
525.575	1552.66
526.004	1567.23
526.433	1550.9
526.863	1552.18
527.292	1544.87
527.721	1551.74
528.15	1557.74
528.579	1559.6
529.008	1571.41
529.437	1593.79
529.866	1607.89
530.295	1624.55
530.724	1637.61
531.152	1663.29
531.581	1676.87
532.01	1694.2
532.438	1702.33
532.867	1717.63
533.295	1735.12
533.723	1740.93
534.152	1738.4
534.58	1738.06
535.008	1723.55
535.436	1725.94
535.865	1732.99
536.293	1746.76
536.721	1761.16
537.149	1785.64
537.576	1788.02
538.004	1799.61
538.432	1806.32
538.86	1805.44
539.287	1812.21
539.715	1824.46
540.143	1826.05
540.57	1823.04
540.998	1818.13
541.425	1796.89
541.852	1776.35
542.28	1773.1
542.707	1758.58
543.134	1745.28
543.561	1741.07
543.988	1734.26
544.415	1734.47
544.842	1729.04
545.269	1722.16
545.696	1725.2
546.123	1736.91
546.549	1727.34
546.976	1716.14
547.403	1715.64
547.829	1719.41
548.256	1721.95
548.682	1719.23
549.108	1712.9
549.535	1714.08
549.961	1717.15
550.387	1706.05
550.813	1702.83
551.24	1710.15
551.666	1712.04
552.092	1703.03
552.518	1696.77
552.943	1692.43
553.369	1700.23
553.795	1706.29
554.221	1708.21
554.646	1705.01
555.072	1716.2
555.498	1721.57
555.923	1731.02
556.349	1747
556.774	1756.81
557.199	1758.8
557.625	1764.3
558.05	1758.67
558.475	1768.85
558.9	1767.76
559.325	1762.12
559.75	1755.54
560.175	1749.19
560.6	1742.83
561.025	1740.49
561.449	1741.9
561.874	1748.39
562.299	1754.17
562.723	1761.48
563.148	1751.68
563.572	1755.83
563.997	1764.35
564.421	1769.87
564.846	1770.81
565.27	1774.97
565.694	1772.41
566.118	1783.73
566.542	1790.1
566.966	1782.4
567.39	1777.68
567.814	1767.72
568.238	1767.23
568.662	1771.9
569.086	1774.47
569.509	1780.85
569.933	1765.92
570.357	1758.98
570.78	1738.53
571.204	1725.36
571.627	1714.76
572.05	1714.14
572.474	1713.84
572.897	1700.63
573.32	1693.97
573.743	1683.61
574.166	1666.13
574.589	1665.84
575.012	1658.67
575.435	1655.76
575.858	1647.03
576.281	1636.67
576.704	1620.55
577.126	1608.42
577.549	1599.26
577.972	1589.25
578.394	1579.83
578.817	1574.44
579.239	1556.83
579.661	1543.81
580.084	1531.36
580.506	1520.21
580.928	1516.82
581.35	1506.13
581.772	1503.05
582.194	1489.72
582.616	1478.35
583.038	1464.82
583.46	1454.24
583.882	1451.16
584.303	1454.98
584.725	1449.83
585.147	1451.94
585.568	1461.92
585.99	1474.44
586.411	1480.49
586.833	1494.66
587.254	1495.69
587.675	1509.69
588.096	1520.18
588.518	1514.37
588.939	1498.67
589.36	1496.19
589.781	1483.9
590.202	1457.83
590.623	1447.51
591.043	1444.18
591.464	1431.01
591.885	1426.09
592.305	1419.53
592.726	1407.53
593.147	1409.08
593.567	1403.92
593.987	1396.14
594.408	1391
594.828	1387.66
595.248	1383.28
595.669	1365.3
596.089	1359.04
596.509	1353.13
596.929	1339.58
597.349	1339.77
597.769	1329.61
598.189	1321.78
598.608	1322.94
599.028	1325.17
599.448	1325.61
599.867	1312.42
600.287	1308.34
600.706	1304.7
601.126	1295.19
601.545	1294.49
601.965	1292.03
602.384	1286.67
602.803	1290.36
603.222	1286.91
603.641	1280.17
604.061	1275.88
604.48	1272.48
604.898	1279.87
605.317	1283.68
605.736	1284.95
606.155	1281.73
606.574	1273.15
606.992	1277.39
607.411	1272.75
607.829	1264.42
608.248	1260.15
608.666	1257.08
609.085	1255.39
609.503	1246.7
609.921	1239.65
610.339	1240.61
610.758	1239.55
611.176	1234.08
611.594	1225.42
612.012	1220.7
612.43	1221.99
612.847	1226.81
613.265	1227.15
613.683	1231.24
614.101	1230.83
614.518	1226.24
614.936	1216.53
615.353	1201.56
615.771	1198.3
616.188	1197.89
616.606	1193.69
617.023	1186.11
617.44	1173.19
617.857	1165.18
618.274	1156.38
618.691	1150.54
619.108	1141.71
619.525	1135.09
619.942	1141
620.359	1142.49
620.776	1137.1
621.192	1133.12
621.609	1130.34
622.026	1136.39
622.442	1141.92
622.859	1143.48
623.275	1136.5
623.691	1140.55
624.108	1150.13
624.524	1162.16
624.94	1161.02
625.356	1168.97
625.772	1179.59
626.188	1190.96
626.604	1191.15
627.02	1186.81
627.436	1184.83
627.852	1189.85
628.268	1201.01
628.683	1192.84
629.099	1184.63
629.514	1180.13
629.93	1183.68
630.345	1187.15
630.761	1182.52
631.176	1185.23
631.591	1179.44
632.007	1173.5
632.422	1171.46
632.837	1158.27
633.252	1155.26
633.667	1144.07
634.082	1134.38
634.497	1120.37
634.911	1101.66
635.326	1095.44
635.741	1078.8
636.155	1067.26
636.57	1066.15
636.984	1063.12
637.399	1062.96
637.813	1058.68
638.228	1055.02
638.642	1055.41
639.056	1042.98
639.47	1040.39
639.884	1030.2
640.298	1018.78
640.712	1013.9
641.126	999.18
641.54	986.8
641.954	977.89
642.368	963.69
642.781	954.58
643.195	935.84
643.609	933
644.022	922.82
644.436	914.45
644.849	900.84
645.262	887
645.676	882.86
646.089	875.39
646.502	860.68
646.915	852.72
647.328	834.38
647.741	829.37
648.154	815.49
648.567	812.96
648.98	800.84
649.393	799.43
649.805	795.2
650.218	787.47
650.631	773.6
651.043	766.63
651.456	761.13
651.868	759.13
652.28	770.18
652.693	778.59
653.105	779.09
653.517	783.6
653.929	782.15
654.341	783.2
654.753	772.84
655.165	774.28
655.577	769.42
655.989	763.02
656.401	753.36
656.813	726.14
657.224	707.9
657.636	683.3
658.047	668.01
658.459	649.97
658.87	638.61
659.282	625.82
659.693	608.68
660.104	595.04
660.515	580.72
660.926	574.88
661.338	566.39
661.749	557.25
662.159	546.04
662.57	536.78
662.981	528.16
663.392	519.15
663.803	516.03
664.213	508.78
664.624	500.4
665.035	496.66
665.445	484.18
665.855	476.43
666.266	467.78
666.676	462.58
667.086	453.23
667.497	449.7
667.907	442.58
668.317	434.97
668.727	432.68
669.137	429.36
669.547	425.21
669.956	424.07
670.366	422.16
670.776	422.21
671.186	422.02
671.595	422.77
672.005	422.59
672.414	421.75
672.824	418.85
673.233	417.02
673.642	417.84
674.052	420.15
674.461	421.86
674.87	424.68
675.279	422.6
675.688	422.92
676.097	425.02
676.506	423.66
676.915	431.16
677.323	433.75
677.732	434.75
678.141	435.31
678.549	430.82
678.958	431.68
679.366	432.14
679.775	436.93
680.183	447.56
680.592	452.33
681	459.94
681.408	461.08
681.816	470.73
682.224	481.03
682.632	494.49
683.04	518.54
683.448	541.54
683.856	568.77
684.264	600.84
684.671	631.01
685.079	669.35
685.487	711.54
685.894	766.36
686.302	815.74
686.709	861.03
687.116	912.88
687.524	959.77
687.931	1001.87
688.338	1042.18
688.745	1077.41
689.152	1116.33
689.559	1165.02
689.966	1211.55
690.373	1241.21
690.78	1285.17
691.187	1347.91
691.593	1397.93
692	1441.75
692.407	1502.39
692.813	1574.8
693.22	1633.88
693.626	1694.49
694.032	1742.97
694.439	1815.1
694.845	1870.36
695.251	1941.24
695.657	2001.89
696.063	2092.06
696.469	2161.13
696.875	2223.36
697.281	2259.52
697.687	2301.72
698.093	2335.9
698.498	2402.87
698.904	2453.57
699.31	2533.83
699.715	2587.69
700.12	2668.61
700.526	2684.66
700.931	2745.01
701.337	2791.13
701.742	2819.64
702.147	2895.41
702.552	2920.86
702.957	2972.14
703.362	2987.69
