Data from N_3_DEC_NC_4N_Splice17_13-06-39-731.txt Node
Date: Sat Mar 14 13:06:39 EDT 2020
User: sa697716
Spectrometer: FLMS03696
Trigger mode: 0
Integration Time (sec): 3.180400E-1
Scans to average: 20
Electric dark correction enabled: true
Nonlinearity correction enabled: true
Boxcar width: 5
XAxis mode: Wavelengths
Number of Pixels in Spectrum: 2048
>>>>>Begin Spectral Data<<<<<
187.83	-221203.28
188.298	1739.2
188.766	1012.84
189.233	917.38
189.701	1271.36
190.169	1874.08
190.636	698.42
191.104	567.23
191.571	56.56
192.039	-92.8
192.506	-11.12
192.974	531.76
193.441	-800.75
193.908	18.36
194.375	-5.03
194.842	65.68
195.31	187.45
195.777	187.11
196.244	338.29
196.711	313.78
197.177	353.12
197.644	477.77
198.111	787.85
198.578	1108.38
199.045	847.71
199.511	1380.14
199.978	1557.51
200.445	1336.73
200.911	1479.86
201.378	1621.08
201.844	1494.17
202.31	2535.92
202.777	2641.84
203.243	1476.12
203.709	1392.33
204.176	1661.87
204.642	1387.76
205.108	1292.49
205.574	1035.43
206.04	910.65
206.506	858.87
206.972	773.52
207.438	740.11
207.903	830.73
208.369	744.59
208.835	748.17
209.301	787.7
209.766	781.56
210.232	771.68
210.697	944.01
211.163	1137.09
211.628	1670.24
212.094	1429.16
212.559	1834.57
213.024	1143.65
213.49	1390.17
213.955	1346.82
214.42	1273.41
214.885	1198.85
215.35	1167.67
215.815	1174.58
216.28	1259.95
216.745	1033.65
217.21	1121.92
217.675	982.17
218.14	1099.89
218.604	1192.12
219.069	1341.18
219.534	1434.07
219.998	1612.44
220.463	1917.01
220.927	2270.95
221.392	2114.89
221.856	2120.67
222.32	2622.6
222.785	3227.64
223.249	4021.55
223.713	4461.56
224.177	4446.41
224.642	5582.46
225.106	6848.22
225.57	7446.14
226.034	5604.37
226.497	8517.13
226.961	7738.39
227.425	8987.58
227.889	9943.6
228.353	9919.57
228.816	20520.42
229.28	19643.42
229.744	16572.64
230.207	10183.3
230.671	10023.51
231.134	16372
231.597	18919.9
232.061	18851.02
232.524	18318.86
232.987	12624.93
233.45	11390.97
233.914	10214.47
234.377	10413.96
234.84	9539.03
235.303	11182.37
235.766	12470.49
236.229	12907.72
236.691	8116.94
237.154	9097.8
237.617	6878.96
238.08	7029.25
238.542	8226.54
239.005	5880.54
239.468	5856.42
239.93	5524.43
240.393	5023.06
240.855	4411.45
241.317	4515.86
241.78	5477.08
242.242	5669.48
242.704	6146.12
243.166	5364.9
243.629	4907.72
244.091	5663.75
244.553	6204.5
245.015	6680.67
245.477	8648.13
245.939	12679.86
246.4	13495.03
246.862	13141.96
247.324	12402.3
247.786	13854.18
248.247	18108
248.709	18595.1
249.17	13920.37
249.632	13222.27
250.093	15371.46
250.555	13253.07
251.016	8128.1
251.477	7714.48
251.939	8350.44
252.4	8761.89
252.861	10391.08
253.322	9716.77
253.783	11530.97
254.244	14948.48
254.705	11727.86
255.166	10409.4
255.627	10299.24
256.088	14508.97
256.549	15442.42
257.009	13273.87
257.47	16104.69
257.931	13162.96
258.391	9866.98
258.852	10198.13
259.312	10679.52
259.773	13191.37
260.233	11220.76
260.694	9488.39
261.154	10778.12
261.614	8711.45
262.074	7797.23
262.534	8118.65
262.994	7648.44
263.455	10206.52
263.915	8626.72
264.374	8129.45
264.834	8883.66
265.294	9800.85
265.754	10156.27
266.214	9589.04
266.673	8938.54
267.133	11275.03
267.593	11169.69
268.052	13671.41
268.512	11868.59
268.971	14350.01
269.431	15778.35
269.89	14144.18
270.349	21212.88
270.809	23658.15
271.268	21326.04
271.727	47861.18
272.186	31044.37
272.645	23299.63
273.104	16768.68
273.563	24293.31
274.022	19052.85
274.481	16240.71
274.94	12514.85
275.399	9306.43
275.857	10794.02
276.316	14568.78
276.775	12974.86
277.233	12783.62
277.692	11996.18
278.15	13625.68
278.609	14075.94
279.067	13018.01
279.525	12120.49
279.984	15641.8
280.442	18806.6
280.9	18650.14
281.358	12284.76
281.816	11432.28
282.274	11196.72
282.732	11542.65
283.19	11578.23
283.648	9949.17
284.106	10581.54
284.564	10717.74
285.021	9953.71
285.479	7397.58
285.937	6691.01
286.394	5905.91
286.852	6090.47
287.309	6405.66
287.767	6232.74
288.224	5950.61
288.682	6529.15
289.139	7186.93
289.596	6586.94
290.053	6851.84
290.511	8682.56
290.968	10593.04
291.425	14337.32
291.882	11985.78
292.339	10449.88
292.796	10347.63
293.252	9728.44
293.709	7785.67
294.166	6983.59
294.623	7718.33
295.079	7385.94
295.536	7425.93
295.992	6743.19
296.449	6661.62
296.905	6913.45
297.362	6645.23
297.818	6989.43
298.274	7302.3
298.731	7400.29
299.187	7331.99
299.643	7891.47
300.099	9582.69
300.555	10519.24
301.011	8793.4
301.467	8534.69
301.923	9961.36
302.379	9726.14
302.835	9530.98
303.291	9508.96
303.746	10845.34
304.202	13689.66
304.658	13740.95
305.113	9223.03
305.569	9026.85
306.024	9615.59
306.479	9101.32
306.935	7692.53
307.39	8373.73
307.845	7751.73
308.301	7819.97
308.756	7610.49
309.211	7326.87
309.666	7470.18
310.121	9342.46
310.576	9498.92
311.031	9408.43
311.486	10766.54
311.94	10734.25
312.395	14367.38
312.85	26922
313.305	131397.42
313.759	683948.87
314.214	49693.7
314.668	39499.85
315.123	33133.28
315.577	11908.29
316.032	10613.29
316.486	13289.35
316.94	10538.21
317.394	7373.62
317.849	5742.72
318.303	5438.2
318.757	5138.81
319.211	5681.56
319.665	4978.86
320.119	5034.02
320.572	7198.87
321.026	6734.29
321.48	5606.83
321.934	6093.84
322.387	6085.05
322.841	6587.36
323.295	5969.6
323.748	6850.65
324.202	6958.7
324.655	8367.33
325.108	11774.1
325.562	8334.75
326.015	9890.79
326.468	7499.61
326.921	8385.09
327.374	7855.41
327.827	8192.65
328.28	9262.6
328.733	6221.38
329.186	5477.87
329.639	5213.12
330.092	4374.53
330.545	4164.36
330.997	4210.61
331.45	4618.95
331.903	5430.39
332.355	9277.71
332.808	8988.83
333.26	7413.99
333.713	8052.03
334.165	8069.42
334.617	10773.79
335.069	8683.97
335.522	15629.94
335.974	17345.99
336.426	15765.29
336.878	10868.23
337.33	5553.79
337.782	5443.41
338.234	6847.91
338.686	8184.19
339.137	9744.28
339.589	9206.83
340.041	7216.6
340.493	6233.5
340.944	6351.02
341.396	6858.88
341.847	5808.01
342.299	6883
342.75	8447.05
343.201	7350.7
343.653	8435.75
344.104	10365.09
344.555	8168.93
345.006	12652.81
345.457	9784.89
345.908	7788.95
346.359	7357.04
346.81	5994.66
347.261	6274.74
347.712	6125.49
348.163	6547.01
348.613	6683.73
349.064	6262.12
349.515	5469.6
349.965	5643.87
350.416	6736.96
350.866	7396.29
351.317	8307.89
351.767	13810.89
352.217	17514.45
352.668	14589.14
353.118	13456.26
353.568	12932.53
354.018	10249.72
354.468	10898.35
354.918	7826.49
355.368	6883.84
355.818	9739.86
356.268	27991.09
356.718	117293.8
357.168	29287.58
357.617	14714.22
358.067	16289.19
358.517	15243.61
358.966	17862.61
359.416	20028.33
359.865	21608.1
360.315	25623.52
360.764	11975.51
361.213	6755.49
361.663	6363.25
362.112	7839.04
362.561	12664.09
363.01	9567.82
363.459	8038.66
363.908	8709.54
364.357	7408.48
364.806	12469.88
365.255	8604.28
365.703	7923.22
366.152	7985.93
366.601	6506.47
367.05	5306.27
367.498	4835.37
367.947	5062.87
368.395	5283.06
368.844	4687.19
369.292	5626.89
369.74	3922.5
370.189	5978.82
370.637	6995.74
371.085	6000.9
371.533	7310.74
371.981	6984.47
372.429	6736.21
372.877	7041
373.325	5900.45
373.773	6007.95
374.221	5343.12
374.669	6626.49
375.116	5747.52
375.564	5795.81
376.012	6465.65
376.459	5331.45
376.907	6406.11
377.354	7693.29
377.801	7192.16
378.249	8305.56
378.696	10617.16
379.143	12889.45
379.591	13720.73
380.038	23377.92
380.485	16969.17
380.932	18447.14
381.379	17006.22
381.826	12613.73
382.273	8973.02
382.72	7821.49
383.166	7648.27
383.613	4987.51
384.06	4516.4
384.506	5271.46
384.953	3874.11
385.4	3909.64
385.846	3446.7
386.292	3362.51
386.739	3299.8
387.185	3283
387.631	3323.16
388.078	3279.77
388.524	3543
388.97	3315.75
389.416	2795.7
389.862	2997.4
390.308	2871.7
390.754	2951.67
391.2	3244.58
391.645	3391.14
392.091	3335.28
392.537	3296.46
392.983	3341.21
393.428	3363.95
393.874	3658.75
394.319	3781.42
394.765	3736.4
395.21	4003.42
395.655	3933.92
396.101	3864.18
396.546	3644.58
396.991	3858.94
397.436	3777.9
397.881	3863.74
398.326	3880.72
398.771	3902.77
399.216	3615.62
399.661	3438.37
400.106	3602.82
400.551	3867.56
400.995	3636.54
401.44	3765.52
401.885	3671.23
402.329	3848.02
402.774	3820.79
403.218	3819.94
403.663	3811.71
404.107	4057.15
404.551	4240.92
404.995	4046.59
405.44	4067.22
405.884	4298.75
406.328	4312.03
406.772	4454.13
407.216	4197.84
407.66	4212.95
408.104	4180.69
408.547	4077.63
408.991	4095.64
409.435	4074.87
409.879	4129.65
410.322	4182.23
410.766	4144.18
411.209	4056.49
411.653	4017.05
412.096	4053.77
412.54	4173.26
412.983	4244.63
413.426	4343.26
413.869	4436.4
414.312	4441.7
414.756	4380.97
415.199	4269.13
415.642	4227.64
416.085	4305.52
416.527	4346.29
416.97	4482.64
417.413	4302.16
417.856	4313.89
418.298	4315.52
418.741	4317.47
419.184	4337.64
419.626	4546.94
420.069	4572.89
420.511	4623.75
420.953	4559.92
421.396	4558.57
421.838	4493.52
422.28	4640.44
422.722	4704.87
423.164	4843.4
423.606	4833.68
424.048	4905.07
424.49	4716.43
424.932	4759.41
425.374	4759.05
425.816	4877.4
426.258	4957.89
426.699	4953.06
427.141	4788.89
427.582	4787.58
428.024	4715.99
428.465	4704.33
428.907	4640.73
429.348	4673.58
429.789	4741.25
430.231	4689.52
430.672	4815.57
431.113	4793.61
431.554	4874.37
431.995	4962.59
432.436	4971.51
432.877	5033.15
433.318	5060.97
433.759	5141.18
434.2	5210.18
434.64	5224.74
435.081	5310.95
435.522	5110.35
435.962	5022.8
436.403	4984.44
436.843	5132.25
437.284	5102.47
437.724	5022.94
438.164	5104.04
438.604	5035.91
439.045	4887.48
439.485	4736.48
439.925	4711.41
440.365	4666.65
440.805	4661.49
441.245	4652.08
441.685	4509.59
442.125	4509.48
442.564	4559.07
443.004	4462.33
443.444	4466.38
443.883	4496.92
444.323	4512.22
444.762	4571.61
445.202	4666.01
445.641	4761.6
446.081	4773.63
446.52	4846.61
446.959	4828.31
447.398	4748.51
447.837	4746.87
448.276	4715.26
448.716	4787.54
449.154	4840.44
449.593	4705.26
450.032	4674.15
450.471	4596.19
450.91	4595.55
451.349	4560.41
451.787	4532.43
452.226	4583.94
452.664	4562.65
453.103	4545.32
453.541	4537.09
453.98	4506.7
454.418	4541.43
454.856	4459.29
455.295	4439.41
455.733	4453.97
456.171	4469.02
456.609	4446.85
457.047	4435.84
457.485	4473.04
457.923	4465.78
458.361	4399.38
458.798	4418.27
459.236	4411.18
459.674	4461.48
460.111	4497.88
460.549	4467.18
460.987	4473.51
461.424	4486.06
461.862	4476.98
462.299	4431.06
462.736	4439.53
463.173	4466.72
463.611	4406.78
464.048	4399.46
464.485	4450.26
464.922	4437.18
465.359	4451.32
465.796	4367.58
466.233	4366.07
466.67	4344.13
467.106	4357.4
467.543	4357.44
467.98	4348.54
468.416	4303.88
468.853	4334.77
469.29	4257.09
469.726	4253.97
470.162	4180.05
470.599	4218.19
471.035	4225.13
471.471	4176.91
471.907	4210
472.344	4219.44
472.78	4244.62
473.216	4320.07
473.652	4274.19
474.088	4276.91
474.523	4270.69
474.959	4325.38
475.395	4295.41
475.831	4267.43
476.266	4291.57
476.702	4279.8
477.138	4232.01
477.573	4221.84
478.008	4202.1
478.444	4210.95
478.879	4229.1
479.314	4230.4
479.75	4206.88
480.185	4209.92
480.62	4228.03
481.055	4221.35
481.49	4214.09
481.925	4228.76
482.36	4219.84
482.795	4257.28
483.229	4283.55
483.664	4286.76
484.099	4232.21
484.534	4232.76
484.968	4215.15
485.403	4182.54
485.837	4143.84
486.271	4106.27
486.706	4097.15
487.14	4068.25
487.574	4020.76
488.009	4004.93
488.443	3981.73
488.877	4009.31
489.311	4010.26
489.745	4040.96
490.179	4057.21
490.613	4099.41
491.046	4114.8
491.48	4121.61
491.914	4103.55
492.348	4111.9
492.781	4117.38
493.215	4116.93
493.648	4126.34
494.082	4150.47
494.515	4134.67
494.948	4153.81
495.382	4165.85
495.815	4163.5
496.248	4161.42
496.681	4201.33
497.114	4230.13
497.547	4240.38
497.98	4256.46
498.413	4227.85
498.846	4223.6
499.279	4227.65
499.711	4216.21
500.144	4190.37
500.577	4195.16
501.009	4207.55
501.442	4207.73
501.874	4174.72
502.306	4161.6
502.739	4168.48
503.171	4226.75
503.603	4221.1
504.036	4234.74
504.468	4221.15
504.9	4233.22
505.332	4229.13
505.764	4213.1
506.196	4212.03
506.627	4236.35
507.059	4248.95
507.491	4248.28
507.923	4185.81
508.354	4201.87
508.786	4200.86
509.217	4232.05
509.649	4245.58
510.08	4273.67
510.512	4280.68
510.943	4277.95
511.374	4259.7
511.805	4277.91
512.237	4294.25
512.668	4355.54
513.099	4382.89
513.53	4393.81
513.961	4369.57
514.391	4387.98
514.822	4408.39
515.253	4445.73
515.684	4455.42
516.114	4485.02
516.545	4489.55
516.975	4513.44
517.406	4517.11
517.836	4484.51
518.267	4480.89
518.697	4521.54
519.127	4521.9
519.558	4528.79
519.988	4521.45
520.418	4535.18
520.848	4568.16
521.278	4571.47
521.708	4513.38
522.138	4523.13
522.567	4583.68
522.997	4613.21
523.427	4606.01
523.857	4598.06
524.286	4579.01
524.716	4581.63
525.145	4595.92
525.575	4591.62
526.004	4601.92
526.433	4625
526.863	4596.54
527.292	4545.14
527.721	4551.06
528.15	4570.91
528.579	4578.25
529.008	4603.96
529.437	4650.75
529.866	4665.7
530.295	4684.95
530.724	4685.02
531.152	4728.64
531.581	4740.08
532.01	4764.92
532.438	4768.78
532.867	4785.89
533.295	4810.98
533.723	4808.63
534.152	4789.92
534.58	4780.92
535.008	4731.4
535.436	4727.14
535.865	4735.71
536.293	4758.96
536.721	4776.94
537.149	4809.34
537.576	4784.1
538.004	4794.93
538.432	4801.82
538.86	4787.59
539.287	4795.19
539.715	4820.13
540.143	4822.65
540.57	4811.58
540.998	4804.96
541.425	4754.65
541.852	4719.16
542.28	4736.1
542.707	4711.05
543.134	4688.97
543.561	4690.59
543.988	4681.24
544.415	4689.96
544.842	4684.2
545.269	4673.5
545.696	4686.07
546.123	4729.99
546.549	4712.88
546.976	4687.51
547.403	4695.25
547.829	4707.31
548.256	4722.31
548.682	4724.96
549.108	4714.26
549.535	4722.49
549.961	4735.66
550.387	4708.53
550.813	4697.76
551.24	4721.75
551.666	4731.9
552.092	4714.72
552.518	4706.05
552.943	4691.92
553.369	4709.74
553.795	4723.78
554.221	4726.08
554.646	4717.66
555.072	4737.94
555.498	4743.88
555.923	4753.33
556.349	4776.86
556.774	4784.5
557.199	4777.38
557.625	4789.46
558.05	4772.45
558.475	4798.92
558.9	4793.5
559.325	4770.39
559.75	4757.56
560.175	4748.03
560.6	4738.74
561.025	4741.47
561.449	4751.45
561.874	4767.58
562.299	4774.12
562.723	4788.02
563.148	4755.04
563.572	4761.61
563.997	4785.86
564.421	4800.62
564.846	4798.07
565.27	4802.31
565.694	4787.68
566.118	4809.25
566.542	4821.57
566.966	4799.33
567.39	4782.53
567.814	4751.86
568.238	4745.71
568.662	4758.3
569.086	4766.07
569.509	4796.03
569.933	4767.57
570.357	4769.21
570.78	4734.68
571.204	4719.14
571.627	4715.15
572.05	4734.6
572.474	4756.41
572.897	4748.56
573.32	4748.15
573.743	4744.46
574.166	4709.63
574.589	4729.35
575.012	4721.51
575.435	4732.55
575.858	4723.12
576.281	4709.09
576.704	4685.66
577.126	4677.67
577.549	4673.17
577.972	4670.1
578.394	4663.85
578.817	4664.69
579.239	4636.24
579.661	4623.31
580.084	4602.38
580.506	4590.74
580.928	4606.56
581.35	4597.11
581.772	4602.61
582.194	4575.07
582.616	4549.47
583.038	4514.46
583.46	4492.88
583.882	4487.52
584.303	4506.13
584.725	4492.6
585.147	4473.34
585.568	4476.92
585.99	4472.74
586.411	4446.83
586.833	4451.24
587.254	4424.67
587.675	4443.12
588.096	4457.74
588.518	4423.37
588.939	4353.47
589.36	4334.63
589.781	4319.2
590.202	4244.71
590.623	4243.49
591.043	4264.44
591.464	4248.35
591.885	4247.52
592.305	4237.02
592.726	4203.3
593.147	4211.62
593.567	4203.09
593.987	4185.62
594.408	4170.01
594.828	4171.05
595.248	4149.56
595.669	4093.93
596.089	4077.17
596.509	4063.59
596.929	4025.56
597.349	4023.89
597.769	3989.59
598.189	3964.39
598.608	3959.22
599.028	3955.95
599.448	3948.82
599.867	3912.4
600.287	3899.97
600.706	3884.9
601.126	3855.93
601.545	3851.62
601.965	3850.27
602.384	3837.57
602.803	3848.88
603.222	3837.35
603.641	3822.27
604.061	3811.83
604.48	3800.13
604.898	3820.9
605.317	3832.37
605.736	3835.56
606.155	3821.05
606.574	3790.11
606.992	3798.35
607.411	3777.21
607.829	3750.89
608.248	3739.62
608.666	3733.08
609.085	3728.12
609.503	3702.7
609.921	3682.72
610.339	3684.36
610.758	3683.56
611.176	3668.15
611.594	3645.11
612.012	3639.16
612.43	3647.2
612.847	3662.66
613.265	3656.44
613.683	3665.25
614.101	3664.85
614.518	3656.53
614.936	3634.69
615.353	3598.17
615.771	3594.96
616.188	3600.47
616.606	3596.59
617.023	3586.09
617.44	3556.6
617.857	3555.17
618.274	3543.58
618.691	3533.78
619.108	3512.34
619.525	3495.55
619.942	3511.83
620.359	3517.37
620.776	3498.11
621.192	3478.45
621.609	3461.27
622.026	3464.88
622.442	3465.19
622.859	3462.27
623.275	3434.4
623.691	3440.52
624.108	3461.29
624.524	3490.41
624.94	3478.63
625.356	3494.32
625.772	3520.28
626.188	3543.06
626.604	3538.22
627.02	3517.52
627.436	3503.29
627.852	3510.17
628.268	3531.01
628.683	3498.16
629.099	3468.55
629.514	3453.89
629.93	3462.9
630.345	3473.31
630.761	3464.28
631.176	3475.88
631.591	3462.68
632.007	3449.37
632.422	3452.36
632.837	3429.69
633.252	3429.13
633.667	3413.25
634.082	3397.94
634.497	3370.72
634.911	3326.26
635.326	3329.61
635.741	3296.94
636.155	3285.29
636.57	3298.85
636.984	3307.6
637.399	3322.44
637.813	3336.72
638.228	3345.5
638.642	3372.6
639.056	3359.39
639.47	3376.92
639.884	3368.66
640.298	3367.54
640.712	3381.16
641.126	3366.57
641.54	3364.69
641.954	3376.51
642.368	3362.05
642.781	3352.88
643.195	3317.81
643.609	3334.96
644.022	3331.42
644.436	3332.46
644.849	3308.95
645.262	3285.53
645.676	3300.8
646.089	3291.12
646.502	3244.93
646.915	3236.53
647.328	3201.91
647.741	3209.31
648.154	3183.86
648.567	3182.59
648.98	3151.89
649.393	3166.2
649.805	3168.63
650.218	3160.24
650.631	3127.2
651.043	3126.89
651.456	3120.11
651.868	3128.89
652.28	3181.36
652.693	3209.24
653.105	3207.82
653.517	3209.82
653.929	3185.66
654.341	3183.09
654.753	3134.13
655.165	3152.96
655.577	3146.05
655.989	3139.86
656.401	3131.6
656.813	3040.35
657.224	3019.16
657.636	2984.48
658.047	2980.37
658.459	2969.14
658.87	2989.61
659.282	2993.19
659.693	2953.9
660.104	2933.06
660.515	2912.25
660.926	2927.62
661.338	2943.68
661.749	2944.45
662.159	2928.34
662.57	2936.43
662.981	2939.48
663.392	2926.88
663.803	2956.42
664.213	2964.56
664.624	2964.93
665.035	2992.29
665.445	2958.91
665.855	2942.37
666.266	2918.84
666.676	2921.72
667.086	2896.27
667.497	2896.42
667.907	2877.31
668.317	2844.05
668.727	2819.77
669.137	2823.36
669.547	2810.62
669.956	2815.96
670.366	2819.08
670.776	2818.69
671.186	2826.14
671.595	2827.32
672.005	2834.1
672.414	2821.33
672.824	2805.08
673.233	2823.22
673.642	2820.35
674.052	2818.66
674.461	2811.44
674.87	2815.84
675.279	2791.44
675.688	2790.42
676.097	2781.31
676.506	2756.96
676.915	2796.02
677.323	2792.38
677.732	2771.53
678.141	2756.32
678.549	2705.94
678.958	2692.19
679.366	2675.44
679.775	2682.36
680.183	2687.37
680.592	2686.6
681	2682.19
681.408	2633.8
681.816	2633.78
682.224	2634.42
682.632	2629.49
683.04	2685.42
683.448	2706.82
683.856	2727.28
684.264	2742.18
684.671	2749.88
685.079	2771.97
685.487	2798.68
685.894	2866.87
686.302	2895.37
686.709	2893.48
687.116	2907.38
687.524	2899.61
687.931	2889.38
688.338	2884.72
688.745	2881.78
689.152	2883.75
689.559	2901.36
689.966	2908.45
690.373	2865.97
690.78	2858.54
691.187	2889.22
691.593	2882.67
692	2867.98
692.407	2885.5
692.813	2920.55
693.22	2934.22
693.626	2955.62
694.032	2959.18
694.439	3003.75
694.845	3027.49
695.251	3073.85
695.657	3106.68
696.063	3184.67
