Data from N_3_DIV_IL_4N_Splice17_13-20-51-547.txt Node
Date: Sat Mar 14 13:20:51 EDT 2020
User: sa697716
Spectrometer: FLMS03696
Trigger mode: 0
Integration Time (sec): 3.180400E-1
Scans to average: 20
Electric dark correction enabled: true
Nonlinearity correction enabled: true
Boxcar width: 5
XAxis mode: Wavelengths
Number of Pixels in Spectrum: 2048
>>>>>Begin Spectral Data<<<<<
187.83	-382969.14
188.298	2823.55
188.766	1421.44
189.233	1254.97
189.701	1823.29
190.169	2580.17
190.636	994.51
191.104	841.73
191.571	190.29
192.039	-40.97
192.506	-42.47
192.974	436.99
193.441	-454.57
193.908	-123.95
194.375	-45.57
194.842	37.12
195.31	220.68
195.777	221.32
196.244	470.17
196.711	489.31
197.177	569.55
197.644	774.18
198.111	1331.8
198.578	1818.11
199.045	1441.31
199.511	2347.41
199.978	2731.03
200.445	2275.19
200.911	2503.42
201.378	2759.23
201.844	2512.38
202.31	4275.09
202.777	4483.68
203.243	2484.39
203.709	2363.09
204.176	2829.99
204.642	2325.39
205.108	2159.3
205.574	1776.09
206.04	1609.75
206.506	1505.12
206.972	1413.69
207.438	1365.42
207.903	1539.96
208.369	1357.56
208.835	1367.52
209.301	1429.98
209.766	1464.54
210.232	1457.5
210.697	1780.5
211.163	2179.09
211.628	3279.23
212.094	2762.85
212.559	3422.15
213.024	2120
213.49	2569.66
213.955	2483.31
214.42	2398.31
214.885	2215.15
215.35	2113.97
215.815	2062.39
216.28	2172.08
216.745	1724.4
217.21	1821.2
217.675	1601.98
218.14	1753.72
218.604	1873.86
219.069	2054.74
219.534	2109.7
219.998	2368.18
220.463	2760.07
220.927	3239.96
221.392	2973.27
221.856	2965.72
222.32	3638.23
222.785	4449.53
223.249	5526.1
223.713	6121.89
224.177	6074.46
224.642	7688.27
225.106	9372.14
225.57	10180.79
226.034	7585.64
226.497	11528.84
226.961	10402.7
227.425	12137.08
227.889	13401.14
228.353	13348.55
228.816	27387.58
229.28	26154.27
229.744	21992.49
230.207	13407.19
230.671	13212.09
231.134	21736.85
231.597	25124.18
232.061	25054.32
232.524	24291.79
232.987	16731.65
233.45	15080.43
233.914	13546.58
234.377	13869.29
234.84	12717.36
235.303	14960.83
235.766	16677.23
236.229	17229.27
236.691	10808.16
237.154	12121.72
237.617	9161.58
238.08	9388.15
238.542	11007.16
239.005	7872.68
239.468	7825.3
239.93	7369.02
240.393	6715.03
240.855	5919.55
241.317	6056.52
241.78	7373.15
242.242	7655.52
242.704	8295.94
243.166	7229.85
243.629	6591.11
244.091	7614.49
244.553	8357.32
245.015	9010.2
245.477	11642.83
245.939	17020.1
246.4	18091.25
246.862	17573.07
247.324	16553.73
247.786	18516.17
248.247	24263.72
248.709	24925.85
249.17	18680.64
249.632	17673.32
250.093	20566.4
250.555	17792.88
251.016	10884.97
251.477	10332.32
251.939	11186.49
252.4	11751.61
252.861	13956.29
253.322	13025.75
253.783	15524.38
254.244	20077.5
254.705	15760.38
255.166	13965.63
255.627	13717.6
256.088	19390.85
256.549	20614.65
257.009	17709.44
257.47	21457.84
257.931	17422.46
258.391	13031.48
258.852	13395.7
259.312	14036.74
259.773	17322.91
260.233	14641.55
260.694	12363.88
261.154	13934.91
261.614	11200.93
262.074	9993.14
262.534	10364.68
262.994	9755.25
263.455	12945.99
263.915	10902.56
264.374	10229.73
264.834	11162.05
265.294	12317.88
265.754	12728.39
266.214	12035.56
266.673	11240.53
267.133	14141.51
267.593	13992.12
268.052	17134.4
268.512	14843.65
268.971	17912.25
269.431	19665.58
269.89	17583.6
270.349	26358.01
270.809	29377.88
271.268	26394.2
271.727	59009.36
272.186	38190.97
272.645	28617.51
273.104	20571.88
273.563	29814.97
274.022	23379.7
274.481	19861.81
274.94	15290.04
275.399	11335.61
275.857	13164.38
276.316	17794.18
276.775	15821.88
277.233	15562.18
277.692	14591
278.15	16526.53
278.609	17030.05
279.067	15744.19
279.525	14640.46
279.984	18870.85
280.442	22681.84
280.9	22441.08
281.358	14754.91
281.816	13780.05
282.274	13513.2
282.732	13948.3
283.19	13992.7
283.648	12073.25
284.106	12859.23
284.564	13065.58
285.021	12148.76
285.479	9040.94
285.937	8187.4
286.394	7195.48
286.852	7396.58
287.309	7783.91
287.767	7537.09
288.224	7181.93
288.682	7873.64
289.139	8663.05
289.596	7944.03
290.053	8238.92
290.511	10403
290.968	12648.58
291.425	17121.41
291.882	14283.67
292.339	12433.14
292.796	12334.38
293.252	11622.52
293.709	9247.17
294.166	8291.34
294.623	9145.18
295.079	8775.72
295.536	8843.29
295.992	8029.11
296.449	7954.55
296.905	8260.45
297.362	7946.34
297.818	8329.25
298.274	8666.52
298.731	8827.78
299.187	8726.62
299.643	9368.99
300.099	11339.13
300.555	12432.02
301.011	10387.42
301.467	10052.74
301.923	11727.29
302.379	11443.51
302.835	11260.14
303.291	11249.97
303.746	12784.05
304.202	16144.37
304.658	16235.95
305.113	10918.73
305.569	10707.53
306.024	11395.72
306.479	10816.66
306.935	9181.67
307.39	10002.42
307.845	9260.86
308.301	9365.49
308.756	9125.91
309.211	8806.07
309.666	9027.88
310.121	11277.32
310.576	11448.88
311.031	11391.66
311.486	13046.01
311.94	13008.54
312.395	17458.52
312.85	32769.36
313.305	160186.35
313.759	838152.72
314.214	60950.69
314.668	48371.09
315.123	40702.91
315.577	14631.09
316.032	13049.48
316.486	16367.24
316.94	12956.91
317.394	9048.77
317.849	7060.5
318.303	6682.24
318.757	6292.62
319.211	6958.36
319.665	6088.34
320.119	6148.26
320.572	8806.12
321.026	8230.17
321.48	6854.38
321.934	7467.41
322.387	7492.68
322.841	8098.6
323.295	7353.51
323.748	8428.69
324.202	8530.77
324.655	10286.56
325.108	14485.39
325.562	10246.77
326.015	12182.56
326.468	9237.49
326.921	10321.52
327.374	9615.43
327.827	10017.38
328.28	11285.83
328.733	7594.44
329.186	6715.89
329.639	6398.08
330.092	5371.58
330.545	5126.35
330.997	5179.77
331.45	5670.72
331.903	6679.56
332.355	11480.96
332.808	11172.32
333.26	9232.28
333.713	10022.84
334.165	10058.64
334.617	13421.83
335.069	10822.56
335.522	19550.78
335.974	21654.32
336.426	19761.05
336.878	13640.01
337.33	6947.04
337.782	6779.06
338.234	8529.85
338.686	10189.72
339.137	12113.54
339.589	11408.38
340.041	8958.23
340.493	7710.91
340.944	7893.98
341.396	8528.89
341.847	7202.35
342.299	8520.76
342.75	10439.28
343.201	9070.97
343.653	10433.95
344.104	12777.62
344.555	10048.88
345.006	15550.97
345.457	11938.13
345.908	9492.21
346.359	8928.79
346.81	7257.79
347.261	7612.36
347.712	7484.29
348.163	8006.39
348.613	8168.22
349.064	7660.52
349.515	6698.37
349.965	6899.9
350.416	8291.85
350.866	9082.73
351.317	10216.87
351.767	16907.73
352.217	21288.17
352.668	17641.24
353.118	16193.32
353.568	15505.34
354.018	12261.68
354.468	12979.69
354.918	9329.26
355.368	8166.98
355.818	11538.42
356.268	33220.1
356.718	139578.04
357.168	34969.46
357.617	17536.24
358.067	19514.35
358.517	18376.01
358.966	21550.81
359.416	24272.31
359.865	26231.18
360.315	31223.21
360.764	14629.14
361.213	8242.25
361.663	7789.78
362.112	9586.03
362.561	15505.27
363.01	11680.09
363.459	9806.85
363.908	10583.86
364.357	8978.38
364.806	15119.89
365.255	10398.65
365.703	9559.2
366.152	9563.94
366.601	7749.83
367.05	6317.7
367.498	5740.41
367.947	5995.51
368.395	6229.13
368.844	5556.1
369.292	6676.36
369.74	4625.68
370.189	7056.72
370.637	8252.78
371.085	7102.52
371.533	8639.46
371.981	8285.54
372.429	7912.02
372.877	8238.22
373.325	6879.5
373.773	6963.56
374.221	6189.64
374.669	7653.19
375.116	6600.69
375.564	6641.37
376.012	7421.3
376.459	6126.16
376.907	7303.74
377.354	8793.41
377.801	8237.98
378.249	9493.93
378.696	12106.84
379.143	14652.96
379.591	15588.94
380.038	26552.94
380.485	19252.64
380.932	20753.48
381.379	18994.33
381.826	14054.27
382.273	10005.32
382.72	8684.6
383.166	8453.08
383.613	5485.66
384.06	4933.72
384.506	5696.79
384.953	4150.34
385.4	4134.91
385.846	3610.68
386.292	3500.43
386.739	3406.8
387.185	3343.14
387.631	3339.4
388.078	3249.69
388.524	3466.82
388.97	3189.42
389.416	2665.17
389.862	2837.53
390.308	2693.88
390.754	2739.73
391.2	2961.28
391.645	3014.76
392.091	2920.6
392.537	2827.54
392.983	2814.03
393.428	2793.63
393.874	2994.65
394.319	3018.06
394.765	2876.9
395.21	2958.72
395.655	2764.89
396.101	2592.45
396.546	2347.62
396.991	2353.68
397.436	2188.27
397.881	2111.78
398.326	1980.68
398.771	1890.86
399.216	1649.8
399.661	1482.18
400.106	1482.02
400.551	1531.39
400.995	1383.08
401.44	1375.86
401.885	1292.14
402.329	1306.52
402.774	1264.43
403.218	1246.89
403.663	1201.57
404.107	1238.14
404.551	1255.46
404.995	1151.54
405.44	1107.44
405.884	1126.2
406.328	1086.85
406.772	1087.24
407.216	996.16
407.66	960.88
408.104	901.4
408.547	843.91
408.991	822.37
409.435	793.53
409.879	787.4
410.322	781.78
410.766	758.96
411.209	727.88
411.653	701.87
412.096	695.62
412.54	699.37
412.983	702.54
413.426	711.6
413.869	711.65
414.312	703.76
414.756	679.66
415.199	649.83
415.642	636.32
416.085	641.26
416.527	639.3
416.97	648.96
417.413	618.55
417.856	611
418.298	604.56
418.741	600.72
419.184	597.68
419.626	620.98
420.069	623.92
420.511	628.85
420.953	617.3
421.396	613.94
421.838	598.56
422.28	612.92
422.722	619.99
423.164	630.35
423.606	622.94
424.048	623.28
424.49	598.75
424.932	597.83
425.374	586.44
425.816	595.08
426.258	605.82
426.699	614.37
427.141	608.7
427.582	616.48
428.024	613.52
428.465	607.83
428.907	594.26
429.348	585.55
429.789	585.57
430.231	577.89
430.672	586.99
431.113	574.12
431.554	565.18
431.995	550.08
432.436	535.09
432.877	525.44
433.318	520.83
433.759	517.87
434.2	519.16
434.64	515.15
435.081	516.56
435.522	492.41
435.962	475.57
436.403	467.8
436.843	474.05
437.284	461.35
437.724	446.43
438.164	447.15
438.604	439.31
439.045	427.27
439.485	413.02
439.925	403.98
440.365	393.86
440.805	389.38
441.245	386.47
441.685	374.79
442.125	371.72
442.564	376.53
443.004	367.85
443.444	367.55
443.883	366.94
444.323	362.01
444.762	361.84
445.202	366.97
445.641	377.94
446.081	375.73
446.52	379.58
446.959	379.28
447.398	373.1
447.837	371.94
448.276	367.39
448.716	372.67
449.154	376.49
449.593	371.78
450.032	372.71
450.471	364.7
450.91	364.91
451.349	366.88
451.787	365.8
452.226	371.02
452.664	370.55
453.103	371.08
453.541	369.82
453.98	372.62
454.418	374.8
454.856	370.31
455.295	370.67
455.733	374.66
456.171	375.43
456.609	375.73
457.047	375.91
457.485	383.62
457.923	385.53
458.361	380.83
458.798	380.88
459.236	379.73
459.674	381.84
460.111	383.5
460.549	380.51
460.987	379.52
461.424	377.71
461.862	375.86
462.299	368.93
462.736	367.75
463.173	368.06
463.611	367.23
464.048	366.95
464.485	369.92
464.922	366.03
465.359	362.6
465.796	364.82
466.233	364.3
466.67	363.11
467.106	364.69
467.543	361.18
467.98	357.26
468.416	345.68
468.853	342.28
469.29	331.7
469.726	328.52
470.162	320.61
470.599	310.77
471.035	306.36
471.471	298.18
471.907	294.28
472.344	292.97
472.78	294.79
473.216	298.19
473.652	295.86
474.088	295.96
474.523	295.48
474.959	298.08
475.395	295.47
475.831	295.25
476.266	297.87
476.702	297.15
477.138	294.28
477.573	293.25
478.008	293.26
478.444	295.82
478.879	300.03
479.314	302.46
479.75	302.47
480.185	303.89
480.62	306.34
481.055	307.29
481.49	310.39
481.925	315.02
482.36	322.55
482.795	331.24
483.229	338.59
483.664	345.37
484.099	345.77
484.534	352.69
484.968	357.63
485.403	359.31
485.837	358.73
486.271	357.99
486.706	359.16
487.14	354.42
487.574	350.49
488.009	348.53
488.443	345.63
488.877	351.2
489.311	352.46
489.745	357.82
490.179	363.04
490.613	373.59
491.046	378.39
491.48	383.11
491.914	386.18
492.348	390.68
492.781	395.47
493.215	398.97
493.648	401.45
494.082	407.83
494.515	410.49
494.948	419.02
495.382	423.31
495.815	429.71
496.248	437.24
496.681	448.21
497.114	458.29
497.547	469.31
497.98	482.91
498.413	492.68
498.846	503.86
499.279	514.57
499.711	521.09
500.144	527.64
500.577	540.5
501.009	552.71
501.442	565.49
501.874	573.05
502.306	579.94
502.739	592.09
503.171	607.99
503.603	615.88
504.036	628.94
504.468	639.46
504.9	653.15
505.332	663.49
505.764	672.79
506.196	682.95
506.627	699.24
507.059	715.65
507.491	726.96
507.923	731.19
508.354	749.46
508.786	763.82
509.217	784.02
509.649	802.27
510.08	823.61
510.512	842.65
510.943	861.32
511.374	877.33
511.805	899.49
512.237	920.6
512.668	952.68
513.099	980.13
513.53	1008
513.961	1030.37
514.391	1063.03
514.822	1097.72
515.253	1134.54
515.684	1161.54
516.114	1191
516.545	1213.26
516.975	1240.58
517.406	1260.75
517.836	1267.23
518.267	1277.45
518.697	1297.49
519.127	1305.88
519.558	1314.7
519.988	1321.07
520.418	1333.08
520.848	1351.75
521.278	1362.86
521.708	1393.43
522.138	1408.47
522.567	1438.5
522.997	1463.35
523.427	1479.28
523.857	1496.11
524.286	1507.85
524.716	1523.79
525.145	1542.95
525.575	1555.56
526.004	1570.68
526.433	1555.82
526.863	1556.68
527.292	1550
527.721	1557.27
528.15	1564.78
528.579	1565.61
529.008	1576.78
529.437	1597.93
529.866	1611.06
530.295	1627.43
530.724	1639.5
531.152	1665.05
531.581	1679.18
532.01	1695.98
532.438	1703.75
532.867	1717.5
533.295	1735.66
533.723	1740.94
534.152	1739.79
534.58	1739.99
535.008	1725.04
535.436	1727.62
535.865	1735.71
536.293	1749.4
536.721	1763.89
537.149	1787.65
537.576	1789.87
538.004	1802.44
538.432	1809.19
538.86	1806.72
539.287	1814.46
539.715	1827.36
540.143	1829.88
540.57	1824.91
540.998	1821
541.425	1800.18
541.852	1780.72
542.28	1778.16
542.707	1762.42
543.134	1750.19
543.561	1747.2
543.988	1739.04
544.415	1738.8
544.842	1733.27
545.269	1726.88
545.696	1728.62
546.123	1740.48
546.549	1731.38
546.976	1720.54
547.403	1720.55
547.829	1722.72
548.256	1725
548.682	1723.6
549.108	1717.39
549.535	1718.57
549.961	1720.56
550.387	1708.92
550.813	1705.25
551.24	1712.05
551.666	1713.65
552.092	1705.76
552.518	1699.81
552.943	1694.95
553.369	1702.81
553.795	1709.06
554.221	1709.95
554.646	1708.66
555.072	1719.06
555.498	1723.81
555.923	1732.6
556.349	1747.49
556.774	1755.88
557.199	1759.69
557.625	1765.71
558.05	1760.44
558.475	1769.84
558.9	1770.26
559.325	1764.01
559.75	1760.18
560.175	1754.49
560.6	1748.43
561.025	1746.93
561.449	1747.99
561.874	1752.4
562.299	1758.11
562.723	1765.31
563.148	1757.07
563.572	1761.58
563.997	1770.46
564.421	1774.57
564.846	1774.32
565.27	1778.12
565.694	1775.94
566.118	1787.85
566.542	1796.22
566.966	1788.57
567.39	1782.62
567.814	1770.93
568.238	1768.6
568.662	1773.06
569.086	1775.15
569.509	1782.73
569.933	1768.6
570.357	1761.52
570.78	1739.79
571.204	1726.68
571.627	1716.98
572.05	1715.58
572.474	1716.24
572.897	1704.7
573.32	1697.26
573.743	1688.23
574.166	1670.33
574.589	1669.78
575.012	1662.22
575.435	1661.72
575.858	1653.13
576.281	1642.68
576.704	1627.03
577.126	1614.49
577.549	1604.58
577.972	1595.34
578.394	1585.31
578.817	1580.42
579.239	1561.76
579.661	1548.98
580.084	1535.23
580.506	1522.11
580.928	1518.27
581.35	1508.94
581.772	1505.62
582.194	1492.56
582.616	1480
583.038	1466.62
583.46	1455.21
583.882	1452.83
584.303	1457.16
584.725	1452.24
585.147	1454.81
585.568	1464.65
585.99	1475.82
586.411	1482.27
586.833	1495.86
587.254	1497.09
587.675	1510.34
588.096	1521.08
588.518	1515.71
588.939	1499.21
589.36	1497.13
589.781	1485.39
590.202	1458.38
590.623	1449.33
591.043	1445.24
591.464	1432.48
591.885	1428.14
592.305	1422.08
592.726	1409.32
593.147	1410.78
593.567	1405.83
593.987	1398.24
594.408	1393.08
594.828	1391.49
595.248	1386.63
595.669	1369.35
596.089	1361.96
596.509	1356.01
596.929	1343
597.349	1343.2
597.769	1332.88
598.189	1326.25
598.608	1327.54
599.028	1329.54
599.448	1327.9
599.867	1314.34
600.287	1309.62
600.706	1306.04
601.126	1296.69
601.545	1295.27
601.965	1294.38
602.384	1289.26
602.803	1292.36
603.222	1287.14
603.641	1280.05
604.061	1277.25
604.48	1273.84
604.898	1281.16
605.317	1285.69
605.736	1288.03
606.155	1284.99
606.574	1275
606.992	1279.87
607.411	1274.32
607.829	1266.25
608.248	1262.44
608.666	1258.76
609.085	1257.75
609.503	1249.51
609.921	1243.41
610.339	1243.59
610.758	1241.3
611.176	1236.97
611.594	1227.73
612.012	1224
612.43	1226.68
612.847	1232.82
613.265	1233.45
613.683	1236
614.101	1236.49
614.518	1231.95
614.936	1222.29
615.353	1208.52
615.771	1205.54
616.188	1204.89
616.606	1199.34
617.023	1191.08
617.44	1177.12
617.857	1169.48
618.274	1161.4
618.691	1155.73
619.108	1145.85
619.525	1138.46
619.942	1144.56
620.359	1145.24
620.776	1138.75
621.192	1135.38
621.609	1133.58
622.026	1138.73
622.442	1143.76
622.859	1145.77
623.275	1137.79
623.691	1142.56
624.108	1152.84
624.524	1164.63
624.94	1164.09
625.356	1172.88
625.772	1184.71
626.188	1195.09
626.604	1195.84
627.02	1191.21
627.436	1189.69
627.852	1195.9
628.268	1206.4
628.683	1198.38
629.099	1190.73
629.514	1185.67
629.93	1189.17
630.345	1191.51
630.761	1186.88
631.176	1189.72
631.591	1184.33
632.007	1176.67
632.422	1173.1
632.837	1160.81
633.252	1157.35
633.667	1145.76
634.082	1136.57
634.497	1122.75
634.911	1104.77
635.326	1098.63
635.741	1080.72
636.155	1069.6
636.57	1069.51
636.984	1066.89
637.399	1066.59
637.813	1063.25
638.228	1059.41
638.642	1059.46
639.056	1046.55
639.47	1043.07
639.884	1032.79
640.298	1023.67
640.712	1018.29
641.126	1002.73
641.54	990.93
641.954	980.75
642.368	964.73
642.781	955.66
643.195	936.65
643.609	933.59
644.022	922.83
644.436	914.69
644.849	900.39
645.262	885.64
645.676	882.36
646.089	875.14
646.502	860.72
646.915	853.47
647.328	834.63
647.741	830.46
648.154	816.61
648.567	813.11
648.98	800.68
649.393	798.36
649.805	793.86
650.218	787.28
650.631	773.14
651.043	766.41
651.456	760.69
651.868	760.59
652.28	771.58
652.693	780.78
653.105	783.35
653.517	787.37
653.929	786.31
654.341	789.41
654.753	777.54
655.165	780.17
655.577	776.28
655.989	770.67
656.401	760.84
656.813	731.07
657.224	712.52
657.636	688.22
658.047	673.62
658.459	656.31
658.87	643.59
659.282	630.44
659.693	612.02
660.104	597.3
660.515	582.19
660.926	575.44
661.338	568.12
661.749	558.62
662.159	547.86
662.57	538.87
662.981	530.53
663.392	522.17
663.803	520.66
664.213	513.63
664.624	505.74
665.035	503.25
665.445	490.21
665.855	481.78
666.266	473.41
666.676	467.13
667.086	457.28
667.497	452.7
667.907	445.62
668.317	436.47
668.727	433.39
669.137	430.11
669.547	425.62
669.956	425.43
670.366	423.86
670.776	422.61
671.186	423.15
671.595	424.61
672.005	424.3
672.414	423.85
672.824	421.7
673.233	419.79
673.642	420.34
674.052	422.26
674.461	423.32
674.87	425.39
675.279	425.44
675.688	425.62
676.097	426.58
676.506	426.45
676.915	433.73
677.323	436.88
677.732	437.72
678.141	438.73
678.549	434.29
678.958	434.93
679.366	436.87
679.775	441.28
680.183	452.5
680.592	458.67
681	464.39
681.408	465.4
681.816	474.61
682.224	485.39
682.632	498.81
683.04	523.95
683.448	547.15
683.856	575.36
684.264	607.46
684.671	637.13
685.079	674.2
685.487	718.19
685.894	772.37
686.302	821.34
686.709	867.35
687.116	918.88
687.524	966.16
687.931	1009.57
688.338	1048.93
688.745	1083.7
689.152	1123.51
689.559	1172.79
689.966	1220
690.373	1250.72
690.78	1295.68
691.187	1358.36
691.593	1407.83
692	1451.53
692.407	1512.94
692.813	1586.89
693.22	1646.17
693.626	1704.2
694.032	1754.2
694.439	1825.65
694.845	1881.36
695.251	1951.52
695.657	2013.48
696.063	2104.5
696.469	2173.62
696.875	2234.77
697.281	2269.86
697.687	2313.05
698.093	2350.76
698.498	2417
698.904	2467.25
699.31	2547.18
699.715	2603.36
700.12	2684.41
700.526	2698.7
700.931	2756.31
701.337	2801.96
701.742	2829.23
702.147	2902.57
702.552	2926.31
702.957	2977.88
