Data from N_3_DEC_NC_4N_Splice17_13-07-06-443.txt Node
Date: Sat Mar 14 13:07:06 EDT 2020
User: sa697716
Spectrometer: FLMS03696
Trigger mode: 0
Integration Time (sec): 3.180400E-1
Scans to average: 20
Electric dark correction enabled: true
Nonlinearity correction enabled: true
Boxcar width: 5
XAxis mode: Wavelengths
Number of Pixels in Spectrum: 2048
>>>>>Begin Spectral Data<<<<<
187.83	-304335.69
188.298	2254.2
188.766	1219.17
189.233	1050.09
189.701	1511.21
190.169	2026.29
190.636	749.46
191.104	615.5
191.571	110.45
192.039	-44.51
192.506	-109.31
192.974	520.98
193.441	-775.8
193.908	-89.62
194.375	-55.54
194.842	25.77
195.31	140.46
195.777	155.17
196.244	349.8
196.711	409.73
197.177	518.89
197.644	701.17
198.111	1243.93
198.578	1762.33
199.045	1392.54
199.511	2257.83
199.978	2609.59
200.445	2182.32
200.911	2429.05
201.378	2708.23
201.844	2432.49
202.31	4173.25
202.777	4351.64
203.243	2425.92
203.709	2287.86
204.176	2724.69
204.642	2254.51
205.108	2116.61
205.574	1737.5
206.04	1579.8
206.506	1482.44
206.972	1420.2
207.438	1370.51
207.903	1561.86
208.369	1370.37
208.835	1361.33
209.301	1420.14
209.766	1448.49
210.232	1445.48
210.697	1789.34
211.163	2186.5
211.628	3281.29
212.094	2733.43
212.559	3353.94
213.024	2077.93
213.49	2507.38
213.955	2436.71
214.42	2375.06
214.885	2195.6
215.35	2076.76
215.815	2003.59
216.28	2142.36
216.745	1732.2
217.21	1865.27
217.675	1689.75
218.14	1897.67
218.604	2106.72
219.069	2386.19
219.534	2488.98
219.998	2866.85
220.463	3439.68
220.927	4136.41
221.392	3832.7
221.856	3862.96
222.32	4827.33
222.785	5923.59
223.249	7403.91
223.713	8210.81
224.177	8171.67
224.642	10393.57
225.106	12705.4
225.57	13833.65
226.034	10339.39
226.497	15683.66
226.961	14183.99
227.425	16512.89
227.889	18321.29
228.353	18310.28
228.816	37792.42
229.28	36129.95
229.744	30483.87
230.207	18597.95
230.671	18316.77
231.134	30204.35
231.597	34888.28
232.061	34728.33
232.524	33780.54
232.987	23243.57
233.45	20869.42
233.914	18675.76
234.377	19053.15
234.84	17390.76
235.303	20431.69
235.766	22750.11
236.229	23452.57
236.691	14745.79
237.154	16550.83
237.617	12451.04
238.08	12725.85
238.542	14894.79
239.005	10661.08
239.468	10579.67
239.93	9977.32
240.393	9066.17
240.855	7954.51
241.317	8137.9
241.78	9890.84
242.242	10227.99
242.704	11060.6
243.166	9641.89
243.629	8756.72
244.091	10077.61
244.553	11063.56
245.015	11889.49
245.477	15366.03
245.939	22511.77
246.4	23921.23
246.862	23237.99
247.324	21908.01
247.786	24478.45
248.247	32031.06
248.709	33015.87
249.17	24725.93
249.632	23354.93
250.093	27141.38
250.555	23443.55
251.016	14321.28
251.477	13571.1
251.939	14657.83
252.4	15366.01
252.861	18227.37
253.322	16959.72
253.783	20185.78
254.244	26150.03
254.705	20588.66
255.166	18281.67
255.627	18017.73
256.088	25406.39
256.549	27001.95
257.009	23248.43
257.47	28249.81
257.931	23035.52
258.391	17265.21
258.852	17830.57
259.312	18696.64
259.773	23126.98
260.233	19590.82
260.694	16555.9
261.154	18770.38
261.614	15109.52
262.074	13511.17
262.534	14048.16
262.994	13268.68
263.455	17670.44
263.915	14886.2
264.374	14039.91
264.834	15306.34
265.294	16957.55
265.754	17553.26
266.214	16609.73
266.673	15554.76
267.133	19629.26
267.593	19464
268.052	23802.8
268.512	20711.27
268.971	25027.15
269.431	27444.08
269.89	24595.26
270.349	36871.13
270.809	41168.48
271.268	37019.3
271.727	83030.3
272.186	53811.98
272.645	40412.43
273.104	29158.49
273.563	42292.21
274.022	33195.14
274.481	28265.7
274.94	21802.49
275.399	16206.23
275.857	18861.41
276.316	25531.98
276.775	22729.93
277.233	22404.74
277.692	20978.44
278.15	23774.85
278.609	24462.65
279.067	22610.59
279.525	21003.54
279.984	27126.76
280.442	32575.82
280.9	32152.38
281.358	21181.16
281.816	19740.62
282.274	19347.11
282.732	19984.01
283.19	20061.15
283.648	17313.11
284.106	18466.26
284.564	18796.53
285.021	17437.2
285.479	12995.96
285.937	11801.52
286.394	10364.35
286.852	10687.01
287.309	11239.84
287.767	10868.97
288.224	10352.08
288.682	11366.04
289.139	12502.32
289.596	11453.58
290.053	11904.2
290.511	15030.51
290.968	18266.33
291.425	24784.67
291.882	20653.56
292.339	17966.04
292.796	17836.38
293.252	16791.54
293.709	13365.91
294.166	11998.53
294.623	13242.57
295.079	12685.83
295.536	12755.76
295.992	11560.3
296.449	11425.78
296.905	11849.34
297.362	11387.12
297.818	11970.73
298.274	12440.04
298.731	12667.89
299.187	12516.54
299.643	13442.24
300.099	16296.28
300.555	17833.14
301.011	14911.57
301.467	14394.86
301.923	16809.99
302.379	16393.82
302.835	16106.84
303.291	16105
303.746	18308.01
304.202	23155.31
304.658	23210.18
305.113	15605.52
305.569	15370.71
306.024	16397.93
306.479	15613.85
306.935	13205.52
307.39	14403.09
307.845	13327.52
308.301	13437.66
308.756	13089.24
309.211	12603.62
309.666	12945.16
310.121	16106.47
310.576	16276.53
311.031	16130.37
311.486	18425.13
311.94	18401.38
312.395	24674.25
312.85	46301.54
313.305	227410
313.759	1179768.57
314.214	85625.77
314.668	67982.87
315.123	57062.82
315.577	20533.31
316.032	18322.17
316.486	23026.37
316.94	18198.4
317.394	12652.93
317.849	9829.92
318.303	9290.13
318.757	8769.04
319.211	9673.25
319.665	8464.97
320.119	8592.2
320.572	12313.6
321.026	11485.35
321.48	9552.71
321.934	10406.66
322.387	10446.21
322.841	11299.47
323.295	10194.1
323.748	11728.03
324.202	11918.28
324.655	14332.52
325.108	20032.61
325.562	14140.58
326.015	16817.47
326.468	12723.16
326.921	14260.54
327.374	13306.54
327.827	13882.37
328.28	15729.43
328.733	10549.53
329.186	9281.46
329.639	8841.9
330.092	7446.5
330.545	7114.24
330.997	7185.15
331.45	7853.69
331.903	9196.26
332.355	15791.76
332.808	15322.85
333.26	12607.12
333.713	13719.95
334.165	13822.16
334.617	18425.99
335.069	14866.71
335.522	26867.64
335.974	29800.11
336.426	27265.49
336.878	18888.69
337.33	9605.62
337.782	9374.98
338.234	11795.96
338.686	14067.13
339.137	16654.69
339.589	15690.6
340.041	12309.32
340.493	10578.67
340.944	10819.43
341.396	11665.63
341.847	9828.18
342.299	11618.05
342.75	14219.35
343.201	12395.27
343.653	14266.81
344.104	17585.14
344.555	13845.35
345.006	21541.46
345.457	16533.16
345.908	13130.15
346.359	12382.87
346.81	10095.05
347.261	10610.74
347.712	10438.29
348.163	11179.95
348.613	11349.02
349.064	10584.23
349.515	9258.29
349.965	9504.2
350.416	11445.56
350.866	12570.1
351.317	14159.39
351.767	23407.9
352.217	29630.22
352.668	24620.82
353.118	22554.75
353.568	21688.54
354.018	17160.1
354.468	18105.14
354.918	12989.01
355.368	11380.3
355.818	16065.38
356.268	46301.23
356.718	194167.44
357.168	48368.37
357.617	24250.32
358.067	26985.14
358.517	25396.71
358.966	29873.97
359.416	33682.13
359.865	36450.31
360.315	43245.78
360.764	20292.27
361.213	11369.81
361.663	10758.7
362.112	13280.19
362.561	21505.94
363.01	16232.35
363.459	13622.65
363.908	14725.6
364.357	12493.31
364.806	21061.09
365.255	14494.01
365.703	13251.76
366.152	13283.43
366.601	10761.75
367.05	8738.65
367.498	7925.05
367.947	8268.24
368.395	8630.32
368.844	7643.15
369.292	9186.96
369.74	6364.59
370.189	9742.57
370.637	11470.98
371.085	9889.73
371.533	12061.31
371.981	11620.26
372.429	11114.43
372.877	11601.9
373.325	9691.86
373.773	9863.85
374.221	8801.08
374.669	10927.82
375.116	9454.79
375.564	9517.13
376.012	10652.51
376.459	8795.88
376.907	10529.05
377.354	12696.32
377.801	11865.15
378.249	13695.08
378.696	17524.14
379.143	21279.95
379.591	22715.26
380.038	38554.19
380.485	27898.84
380.932	30129.83
381.379	27632.01
381.826	20397.55
382.273	14520.34
382.72	12706.46
383.166	12379.72
383.613	8059.17
384.06	7257.01
384.506	8376.25
384.953	6133.7
385.4	6144.42
385.846	5390.2
386.292	5246.21
386.739	5134.35
387.185	5075.38
387.631	5080.05
388.078	4946.38
388.524	5279.42
388.97	4895.01
389.416	4102.74
389.862	4384.83
390.308	4182.55
390.754	4260.37
391.2	4630.48
391.645	4733.08
392.091	4550.02
392.537	4416.3
392.983	4432.15
393.428	4387.51
393.874	4711.06
394.319	4757.33
394.765	4523.53
395.21	4641.33
395.655	4355.56
396.101	4091.29
396.546	3709.34
396.991	3741.12
397.436	3482.03
397.881	3358.51
398.326	3181.67
398.771	3013.34
399.216	2630.19
399.661	2367.22
400.106	2372.34
400.551	2440.11
400.995	2191.36
401.44	2167.15
401.885	2044.54
402.329	2062.59
402.774	1984.46
403.218	1925.86
403.663	1851.21
404.107	1901.49
404.551	1919.66
404.995	1759.88
405.44	1692.64
405.884	1717.6
406.328	1662.57
406.772	1655.93
407.216	1507.89
407.66	1453.55
408.104	1374.15
408.547	1289.71
408.991	1249.44
409.435	1200.77
409.879	1183.83
410.322	1166.82
410.766	1124.76
411.209	1069.3
411.653	1025.72
412.096	1005.74
412.54	1005.13
412.983	1001.77
413.426	1005.86
413.869	1002.7
414.312	984.1
414.756	948.11
415.199	903.63
415.642	882.8
416.085	883.87
416.527	875.89
416.97	890.1
417.413	846.14
417.856	836.06
418.298	826.3
418.741	821.46
419.184	820.14
419.626	851.56
420.069	851.64
420.511	855.06
420.953	839.52
421.396	833.93
421.838	813.04
422.28	830.66
422.722	833.13
423.164	841.71
423.606	826.01
424.048	824.1
424.49	784.71
424.932	780.25
425.374	765.43
425.816	774.73
426.258	786.97
426.699	791.52
427.141	778.81
427.582	791.04
428.024	786.59
428.465	779.16
428.907	758.74
429.348	747.36
429.789	747.65
430.231	733
430.672	744.28
431.113	726.22
431.554	715.14
431.995	695.57
432.436	670.78
432.877	655.08
433.318	646.94
433.759	641.02
434.2	641.15
434.64	631.7
435.081	634.17
435.522	598.2
435.962	575.63
436.403	565.11
436.843	572.88
437.284	560.44
437.724	546.07
438.164	544.17
438.604	532.22
439.045	511.88
439.485	494.13
439.925	482.08
440.365	471.59
440.805	464.95
441.245	458.04
441.685	439.6
442.125	432.43
442.564	432.54
443.004	423.23
443.444	423.69
443.883	424.6
444.323	418.08
444.762	417.39
445.202	420.55
445.641	431.28
446.081	428.02
446.52	432.39
446.959	430.68
447.398	422.9
447.837	417.6
448.276	408.63
448.716	411.19
449.154	413.98
449.593	404.89
450.032	405.03
450.471	392.78
450.91	390.78
451.349	389.36
451.787	386.07
452.226	390.75
452.664	391.22
453.103	390.8
453.541	390.25
453.98	391.75
454.418	393.04
454.856	385.82
455.295	385.05
455.733	390
456.171	392.41
456.609	391.35
457.047	389.77
457.485	396
457.923	398.24
458.361	391.1
458.798	390.19
459.236	389.36
459.674	390.79
460.111	393.13
460.549	387.25
460.987	384.65
461.424	384.79
461.862	382.99
462.299	376.11
462.736	375.47
463.173	376.65
463.611	375.2
464.048	374.28
464.485	377.67
464.922	373.52
465.359	372
465.796	374.67
466.233	372.17
466.67	370.73
467.106	370.92
467.543	366.3
467.98	361.59
468.416	350.59
468.853	346.67
469.29	335.83
469.726	332.03
470.162	322.49
470.599	312.03
471.035	308.73
471.471	300.31
471.907	296.92
472.344	295.05
472.78	296.26
473.216	299.68
473.652	296.86
474.088	295.94
474.523	296.34
474.959	299.4
475.395	296.51
475.831	295.22
476.266	296.66
476.702	295.89
477.138	292.82
477.573	292.16
478.008	290.85
478.444	291.83
478.879	296.19
479.314	296.93
479.75	297.03
480.185	298.14
480.62	300.2
481.055	301.27
481.49	303.31
481.925	307.61
482.36	313.95
482.795	322.74
483.229	331.73
483.664	337.52
484.099	338.8
484.534	344.84
484.968	348.24
485.403	348.71
485.837	348.06
486.271	347.4
486.706	347.48
487.14	342.76
487.574	336.99
488.009	333.03
488.443	330.26
488.877	334.54
489.311	334.63
489.745	339.14
490.179	343.08
490.613	351.18
491.046	353.61
491.48	356.65
491.914	357.08
492.348	359.99
492.781	363.47
493.215	364.97
493.648	365.27
494.082	369.03
494.515	370.69
494.948	375.99
495.382	378.17
495.815	381.99
496.248	386.11
496.681	393.56
497.114	400.74
497.547	408.28
497.98	418
498.413	424.14
498.846	432.05
499.279	438.25
499.711	441.79
500.144	445.22
500.577	454.33
501.009	463.27
501.442	472.35
501.874	476.62
502.306	479.27
502.739	486.62
503.171	496.95
503.603	501.18
504.036	508.99
504.468	515.92
504.9	525.38
505.332	531.08
505.764	536.63
506.196	543.79
506.627	555.67
507.059	566.99
507.491	574.35
507.923	576.56
508.354	590.12
508.786	600.42
509.217	614.95
509.649	628.02
510.08	644.23
510.512	659.02
510.943	672.65
511.374	684.18
511.805	702.12
512.237	718.04
512.668	743.08
513.099	764.03
513.53	786.12
513.961	804.06
514.391	829.66
514.822	857.3
515.253	884.56
515.684	905.86
516.114	929.61
516.545	947.67
516.975	970.26
517.406	986.76
517.836	991.9
518.267	1001.38
518.697	1017.48
519.127	1024.32
519.558	1031.78
519.988	1038.05
520.418	1048.67
520.848	1064.95
521.278	1074.36
521.708	1107.13
522.138	1119.85
522.567	1145.69
522.997	1166.26
523.427	1180.94
523.857	1197.14
524.286	1208.61
524.716	1223.47
525.145	1240.63
525.575	1251.23
526.004	1264.92
526.433	1247.06
526.863	1249.25
527.292	1245.47
527.721	1252.46
528.15	1259.15
528.579	1260.54
529.008	1270.55
529.437	1289.19
529.866	1300.79
530.295	1315.43
530.724	1326.75
531.152	1348.5
531.581	1361.78
532.01	1375.63
532.438	1383.64
532.867	1396.27
533.295	1411.27
533.723	1416.57
534.152	1415.33
534.58	1416.52
535.008	1405.01
535.436	1406.73
535.865	1413.64
536.293	1425.14
536.721	1437.33
537.149	1456.44
537.576	1458.53
538.004	1469.5
538.432	1475.46
538.86	1474.59
539.287	1479.56
539.715	1491.11
540.143	1493.81
540.57	1489.86
540.998	1486.5
541.425	1469.69
541.852	1454.18
542.28	1452.71
542.707	1439.34
543.134	1429.51
543.561	1426.67
543.988	1421.38
544.415	1420.11
544.842	1415.69
545.269	1411.19
545.696	1413.38
546.123	1423.3
546.549	1415.17
546.976	1405.93
547.403	1406.58
547.829	1407.06
548.256	1408.47
548.682	1406.11
549.108	1400.81
549.535	1400.77
549.961	1403.38
550.387	1393.48
550.813	1390.96
551.24	1396.31
551.666	1396.99
552.092	1390.2
552.518	1386.18
552.943	1382
553.369	1388.14
553.795	1392.47
554.221	1393.18
554.646	1390.33
555.072	1398.27
555.498	1399.87
555.923	1406.39
556.349	1418.19
556.774	1424.25
557.199	1423.99
557.625	1427.92
558.05	1422.31
558.475	1430.34
558.9	1429.28
559.325	1421.63
559.75	1416.08
560.175	1410.14
560.6	1403.58
561.025	1400.43
561.449	1400.74
561.874	1404.23
562.299	1407.18
562.723	1410.72
563.148	1400.64
563.572	1401.71
563.997	1408.45
564.421	1409.96
564.846	1409.1
565.27	1410.75
565.694	1406.52
566.118	1411.81
566.542	1416.22
566.966	1407.62
567.39	1402.56
567.814	1391.83
568.238	1388.92
568.662	1390.27
569.086	1391.31
569.509	1394.65
569.933	1380.03
570.357	1371.91
570.78	1354.43
571.204	1342.09
571.627	1332.01
572.05	1328.51
572.474	1327.89
572.897	1316.81
573.32	1309.05
573.743	1298.19
574.166	1281.99
574.589	1280.58
575.012	1273.77
575.435	1271.05
575.858	1262.39
576.281	1252.66
576.704	1238.78
577.126	1226
577.549	1215.52
577.972	1206.66
578.394	1197
578.817	1191.05
579.239	1176.19
579.661	1164.03
580.084	1151.89
580.506	1139.91
580.928	1135.87
581.35	1126.67
581.772	1123.34
582.194	1113.6
582.616	1103.21
583.038	1092.15
583.46	1084.32
583.882	1081.04
584.303	1084.59
584.725	1079.11
585.147	1082.3
585.568	1089.62
585.99	1097.14
586.411	1100.84
586.833	1111.03
587.254	1110.41
587.675	1119.3
588.096	1126.16
588.518	1121.66
588.939	1107.65
589.36	1106.55
589.781	1095.64
590.202	1075.99
590.623	1069.3
591.043	1066.98
591.464	1056.86
591.885	1053.66
592.305	1049.8
592.726	1039.38
593.147	1039.4
593.567	1035.96
593.987	1029.15
594.408	1024.84
594.828	1022.21
595.248	1017.71
595.669	1004.21
596.089	998.72
596.509	993.06
596.929	983.62
597.349	983.86
597.769	976.18
598.189	971.7
598.608	971.95
599.028	973.51
599.448	972.41
599.867	963.01
600.287	958.88
600.706	954.78
601.126	948.28
601.545	946.17
601.965	943.51
602.384	938.65
602.803	938.81
603.222	935.29
603.641	930.04
604.061	926.38
604.48	922.2
604.898	927.21
605.317	929.57
605.736	930.4
606.155	928.59
606.574	922.18
606.992	925.19
607.411	921.52
607.829	914.76
608.248	910.52
608.666	908
609.085	907.16
609.503	899.76
609.921	895.01
610.339	894.48
610.758	891.64
611.176	887.7
611.594	880.53
612.012	876.49
612.43	877.35
612.847	880.46
613.265	880.83
613.683	883.13
614.101	883.26
614.518	878.74
614.936	871.22
615.353	860.78
615.771	857.87
616.188	857.32
616.606	854.39
617.023	849.46
617.44	839.7
617.857	833.39
618.274	825.66
618.691	820.75
619.108	814.49
619.525	810.15
619.942	813.31
620.359	813.39
620.776	808.61
621.192	804.86
621.609	801.91
622.026	805.44
622.442	808.74
622.859	810.44
623.275	805.59
623.691	809
624.108	815.95
624.524	824.88
624.94	824.66
625.356	830.42
625.772	838.97
626.188	846.29
626.604	847.49
627.02	844.15
627.436	843.3
627.852	847.7
628.268	854.6
628.683	847.62
629.099	842.19
629.514	838.38
629.93	840.03
630.345	841.81
630.761	838.44
631.176	839.7
631.591	835.63
632.007	830.18
632.422	826.69
632.837	818.46
633.252	816.48
633.667	808.05
634.082	800.74
634.497	792.29
634.911	779.12
635.326	774.87
635.741	762.87
636.155	754.14
636.57	754.08
636.984	752.34
637.399	752.19
637.813	749.08
638.228	745.99
638.642	746.97
639.056	737.63
639.47	734.94
639.884	728.12
640.298	720.72
640.712	718.11
641.126	707.73
641.54	699.18
641.954	691.03
642.368	681.66
642.781	676.48
643.195	663.33
643.609	661.92
644.022	656.47
644.436	650.7
644.849	641.63
645.262	632.01
645.676	629.7
646.089	625.14
646.502	616.22
646.915	610.34
647.328	597.32
647.741	594.58
648.154	585.39
648.567	583.76
648.98	575.63
649.393	574.4
649.805	571.78
650.218	567
650.631	558.15
651.043	554.46
651.456	551.56
651.868	550.93
652.28	560.16
652.693	566.84
653.105	567.87
653.517	572.67
653.929	573.11
654.341	574.67
654.753	567.37
655.165	568.96
655.577	566.36
655.989	562.46
656.401	556.93
656.813	536.6
657.224	523.56
657.636	506.09
658.047	496.28
658.459	484.23
658.87	477.69
659.282	470.34
659.693	459.36
660.104	450.36
660.515	441.15
660.926	438.07
661.338	434.73
661.749	431.29
662.159	427.1
662.57	422.63
662.981	419.85
663.392	415.37
663.803	415.61
664.213	413.49
664.624	409.22
665.035	410.43
665.445	403.41
665.855	399.66
666.266	395.5
666.676	393.32
667.086	388.96
667.497	387.63
667.907	385.04
668.317	381.09
668.727	381.73
669.137	382.34
669.547	380.86
669.956	381.99
670.366	382.84
670.776	383.74
671.186	386.04
671.595	388.34
672.005	389.64
672.414	390.41
672.824	390.41
673.233	390.78
673.642	392.9
674.052	397.05
674.461	400.9
674.87	403.9
675.279	404.44
675.688	405.61
676.097	407.73
676.506	408.53
676.915	417.07
677.323	420.75
677.732	421.2
678.141	423.14
678.549	417.83
678.958	417.66
679.366	418.32
679.775	421.84
680.183	431.4
680.592	436.05
681	440.38
681.408	438.28
681.816	442.89
682.224	448.3
682.632	456.19
683.04	474.57
683.448	488.57
683.856	507.87
684.264	529.94
684.671	547.66
685.079	571.94
685.487	599.14
685.894	636.23
686.302	667.83
686.709	696.3
687.116	726.32
687.524	753.32
687.931	780.42
688.338	802.97
688.745	821.35
689.152	844.5
689.559	875.34
689.966	907.96
690.373	925.53
690.78	956.66
691.187	1001.23
691.593	1037.64
692	1071.3
692.407	1116.19
692.813	1173.32
693.22	1219.45
693.626	1267.12
694.032	1308.14
694.439	1365.81
694.845	1415.02
695.251	1474.58
695.657	1529.24
696.063	1606.54
696.469	1666.91
696.875	1725.56
697.281	1760.76
697.687	1806.2
698.093	1845.21
698.498	1909.83
698.904	1962.57
699.31	2037.27
699.715	2094.44
700.12	2172.32
700.526	2198.06
700.931	2258.73
701.337	2309.76
701.742	2346.32
702.147	2421.09
702.552	2453.95
702.957	2510.08
703.362	2533.89
