Data from N_3_HIR_WI_4N_Splice17_13-11-39-506.txt Node
Date: Sat Mar 14 13:11:39 EDT 2020
User: sa697716
Spectrometer: FLMS03696
Trigger mode: 0
Integration Time (sec): 3.180400E-1
Scans to average: 20
Electric dark correction enabled: true
Nonlinearity correction enabled: true
Boxcar width: 5
XAxis mode: Wavelengths
Number of Pixels in Spectrum: 2048
>>>>>Begin Spectral Data<<<<<
187.83	-311726.01
188.298	2371.49
188.766	1277.09
189.233	1158.43
189.701	1591.93
190.169	2168.42
190.636	863.81
191.104	757.78
191.571	149.48
192.039	13
192.506	33.27
192.974	629.54
193.441	-931.54
193.908	-291.92
194.375	-52.36
194.842	31.38
195.31	105.48
195.777	199.91
196.244	391.38
196.711	363.72
197.177	438.4
197.644	564.53
198.111	942.31
198.578	1319.13
199.045	1047.76
199.511	1639.83
199.978	1877.51
200.445	1605.83
200.911	1764.63
201.378	1951.66
201.844	1792.18
202.31	3071.38
202.777	3211.3
203.243	1789.72
203.709	1698.38
204.176	2044.55
204.642	1720.62
205.108	1596.32
205.574	1285.84
206.04	1149.74
206.506	1069.31
206.972	995.07
207.438	946.55
207.903	1071.51
208.369	948.74
208.835	956.22
209.301	987.65
209.766	991.46
210.232	980.66
210.697	1209.05
211.163	1497.1
211.628	2255.92
212.094	1927.59
212.559	2428.85
213.024	1517.75
213.49	1860.13
213.955	1802.79
214.42	1744.41
214.885	1644.88
215.35	1599.55
215.815	1596.88
216.28	1704.15
216.745	1395.32
217.21	1529.43
217.675	1398.39
218.14	1600.65
218.604	1801.4
219.069	2083.3
219.534	2252.27
219.998	2646.02
220.463	3232.42
220.927	3963.89
221.392	3752.12
221.856	3831.07
222.32	4825.33
222.785	5990.21
223.249	7562.9
223.713	8455.96
224.177	8477.12
224.642	10835.6
225.106	13308.38
225.57	14515.16
226.034	10864.56
226.497	16616.75
226.961	15057.63
227.425	17616.94
227.889	19545.72
228.353	19536.68
228.816	40334.32
229.28	38708.83
229.744	32706.04
230.207	19950.88
230.671	19682.11
231.134	32483.15
231.597	37536.53
232.061	37499.37
232.524	36482.4
232.987	25108.1
233.45	22623.22
233.914	20337.92
234.377	20795.71
234.84	19004.78
235.303	22389.31
235.766	24975.53
236.229	25784.18
236.691	16215.4
237.154	18204.28
237.617	13730.59
238.08	14073.12
238.542	16480.73
239.005	11770.81
239.468	11698.21
239.93	11026.43
240.393	10013.32
240.855	8796.45
241.317	9003.18
241.78	10930.44
242.242	11301.05
242.704	12214.04
243.166	10641.62
243.629	9679.53
244.091	11169.26
244.553	12223.57
245.015	13148.89
245.477	17019.7
245.939	24906.1
246.4	26460.62
246.862	25728.03
247.324	24283.82
247.786	27139.18
248.247	35566.7
248.709	36626.17
249.17	27407.55
249.632	25899
250.093	30078.91
250.555	26009.72
251.016	15896.26
251.477	15087.6
251.939	16311.11
252.4	17117.6
252.861	20378.8
253.322	18984.97
253.783	22626.74
254.244	29392.74
254.705	23159.83
255.166	20587.1
255.627	20280.07
256.088	28637.16
256.549	30444.14
257.009	26214.93
257.47	31796.77
257.931	25895.44
258.391	19394.26
258.852	19981.25
259.312	20900.25
259.773	25845.84
260.233	21874.51
260.694	18461.36
261.154	20931.65
261.614	16815.97
262.074	15049.08
262.534	15671.3
262.994	14780.21
263.455	19721.82
263.915	16649.98
264.374	15711.53
264.834	17152.32
265.294	19012.52
265.754	19718.43
266.214	18689.67
266.673	17514.53
267.133	22094.44
267.593	21902.81
268.052	26793.21
268.512	23271.44
268.971	28066.22
269.431	30772.64
269.89	27548.3
270.349	41276.56
270.809	46017.61
271.268	41311.71
271.727	92657.54
272.186	60054.33
272.645	45056.83
273.104	32477.18
273.563	47043.92
274.022	36970.19
274.481	31433.29
274.94	24261.51
275.399	18029.79
275.857	20991.71
276.316	28393.21
276.775	25255.87
277.233	24834.29
277.692	23243.49
278.15	26301.47
278.609	27094.21
279.067	25075.08
279.525	23300.2
279.984	29958.74
280.442	35961.8
280.9	35372.15
281.358	23258.76
281.816	21671.79
282.274	21196.93
282.732	21866.13
283.19	21944.16
283.648	18861.31
284.106	20038.51
284.564	20325.76
285.021	18860.99
285.479	14026.58
285.937	12719.88
286.394	11155.62
286.852	11471.41
287.309	12059.91
287.767	11646.33
288.224	11058.33
288.682	12156.16
289.139	13363.71
289.596	12248.66
290.053	12758.95
290.511	16124.76
290.968	19646.23
291.425	26671.49
291.882	22216.23
292.339	19340.4
292.796	19195.81
293.252	18117.32
293.709	14400.82
294.166	12900.77
294.623	14244.87
295.079	13636.01
295.536	13714.76
295.992	12428.18
296.449	12289.21
296.905	12755.53
297.362	12227.78
297.818	12853.85
298.274	13346.29
298.731	13575.25
299.187	13410.88
299.643	14387.91
300.099	17406.16
300.555	19044.07
301.011	15901.38
301.467	15308.15
301.923	17885.82
302.379	17456.49
302.835	17162.55
303.291	17161
303.746	19509.66
304.202	24637.96
304.658	24718.34
305.113	16614.88
305.569	16269.61
306.024	17317.41
306.479	16480.91
306.935	13893.9
307.39	15150.46
307.845	13945.65
308.301	14006.56
308.756	13633.07
309.211	13133.47
309.666	13445.8
310.121	16668.69
310.576	16898.38
311.031	16728.57
311.486	19095.91
311.94	19073.31
312.395	25478.18
312.85	47812.55
313.305	234131.86
313.759	1213010.96
314.214	88008.9
314.668	69680.53
315.123	58603
315.577	21023.95
316.032	18723.38
316.486	23441.22
316.94	18506.71
317.394	12908.04
317.849	10035.74
318.303	9504.28
318.757	8970.73
319.211	9913.91
319.665	8683.64
320.119	8794.85
320.572	12609.1
321.026	11786.85
321.48	9829.11
321.934	10694.09
322.387	10721.86
322.841	11608.62
323.295	10472.11
323.748	12058.17
324.202	12204.81
324.655	14663.94
325.108	20493.81
325.562	14482.46
326.015	17234.96
326.468	13006.6
326.921	14558.96
327.374	13552.88
327.827	14097.75
328.28	15951.48
328.733	10695.23
329.186	9406.62
329.639	8956.62
330.092	7530.82
330.545	7155.12
330.997	7196.85
331.45	7881.42
331.903	9236.83
332.355	15879.25
332.808	15381.11
333.26	12654.96
333.713	13681.91
334.165	13765.81
334.617	18332.15
335.069	14777.03
335.522	26693.9
335.974	29550.86
336.426	26901.93
336.878	18556.42
337.33	9392.81
337.782	9160.74
338.234	11481.1
338.686	13749.25
339.137	16257.16
339.589	15302.81
340.041	12017.96
340.493	10315.44
340.944	10556.05
341.396	11399.94
341.847	9589.32
342.299	11361.99
342.75	13898.88
343.201	12141.25
343.653	13962.28
344.104	17182.39
344.555	13505.15
345.006	20974.66
345.457	16155.52
345.908	12825.05
346.359	12063.07
346.81	9834.62
347.261	10313.23
347.712	10146.26
348.163	10854.16
348.613	11037.77
349.064	10305.17
349.515	9034.67
349.965	9279.96
350.416	11147.89
350.866	12236.37
351.317	13790.88
351.767	22869.26
352.217	28938.93
352.668	24012.96
353.118	22026.06
353.568	21101.8
354.018	16657.04
354.468	17554.01
354.918	12586.24
355.368	10996.31
355.818	15496.76
356.268	44484.83
356.718	186319.88
357.168	46329.49
357.617	23176.28
358.067	25748.29
358.517	24152.83
358.966	28283.36
359.416	31763.73
359.865	34233.29
360.315	40595.89
360.764	18954.04
361.213	10644.7
361.663	10050.21
362.112	12374.93
362.561	20026.46
363.01	15101.13
363.459	12697.48
363.908	13764.07
364.357	11697.01
364.806	19742.9
365.255	13585.13
365.703	12498.72
366.152	12504.74
366.601	10129.92
367.05	8238.45
367.498	7518.21
367.947	7834.76
368.395	8131.85
368.844	7180.22
369.292	8636.6
369.74	5971.93
370.189	9127.87
370.637	10673.31
371.085	9211.52
371.533	11192.17
371.981	10778.92
372.429	10251.76
372.877	10711.94
373.325	8961.89
373.773	9159.04
374.221	8128.43
374.669	10074.03
375.116	8712.32
375.564	8790.49
376.012	9836.8
376.459	8138.75
376.907	9715.62
377.354	11709.51
377.801	10892.7
378.249	12559.84
378.696	16035.19
379.143	19496.68
379.591	20838.51
380.038	35348.43
380.485	25553.05
380.932	27538.26
381.379	25249.33
381.826	18640.4
382.273	13264.68
382.72	11574.75
383.166	11267.06
383.613	7297.82
384.06	6560.04
384.506	7597.3
384.953	5579.94
385.4	5600.25
385.846	4911.06
386.292	4774.33
386.739	4653.33
387.185	4595.75
387.631	4605.84
388.078	4480.92
388.524	4803.21
388.97	4446.99
389.416	3705.43
389.862	3935.66
390.308	3728.86
390.754	3790.62
391.2	4111.94
391.645	4214.68
392.091	4060.34
392.537	3937.36
392.983	3937.99
393.428	3903.36
393.874	4178.62
394.319	4206.19
394.765	4008.62
395.21	4134.06
395.655	3888.43
396.101	3660.94
396.546	3331.09
396.991	3358.31
397.436	3129.93
397.881	3048.09
398.326	2887.83
398.771	2756.22
399.216	2427.85
399.661	2201.65
400.106	2213.78
400.551	2287.49
400.995	2063.6
401.44	2054.19
401.885	1943.96
402.329	1975.46
402.774	1902.11
403.218	1858.79
403.663	1795.55
404.107	1852.54
404.551	1882.22
404.995	1734.8
405.44	1679.87
405.884	1716.53
406.328	1664.85
406.772	1667.94
407.216	1529.17
407.66	1484.4
408.104	1417.38
408.547	1337.91
408.991	1303.63
409.435	1258.86
409.879	1248.69
410.322	1238.73
410.766	1203.59
411.209	1152.75
411.653	1114.93
412.096	1101.28
412.54	1110.82
412.983	1108.26
413.426	1118.74
413.869	1122.29
414.312	1107.08
414.756	1069.78
415.199	1024.22
415.642	999.04
416.085	1005.62
416.527	1000.73
416.97	1018.24
417.413	968.31
417.856	959.73
418.298	951.61
418.741	946.38
419.184	943.46
419.626	981.23
420.069	984.02
420.511	989.14
420.953	970.02
421.396	964.83
421.838	941.34
422.28	965.96
422.722	975.6
423.164	991.44
423.606	979.79
424.048	982.07
424.49	941.43
424.932	938.06
425.374	928.48
425.816	945.66
426.258	960.93
426.699	965.91
427.141	943.62
427.582	946.96
428.024	937.37
428.465	928.81
428.907	908.35
429.348	900.9
429.789	906.49
430.231	891.75
430.672	905.36
431.113	887.61
431.554	884.82
431.995	873.88
432.436	859
432.877	854.54
433.318	851.06
433.759	853.71
434.2	858.66
434.64	853.52
435.081	858.75
435.522	818.5
435.962	795.12
436.403	784.49
436.843	801.61
437.284	786.46
437.724	765.73
438.164	769.42
438.604	757.27
439.045	733.39
439.485	708.48
439.925	699.21
440.365	687.64
440.805	683.9
441.245	680.09
441.685	658.58
442.125	656.63
442.564	663.2
443.004	648.89
443.444	649.1
443.883	649.82
444.323	647.15
444.762	651.79
445.202	662.64
445.641	677.74
446.081	673.03
446.52	681.01
446.959	678.16
447.398	667.64
447.837	666.2
448.276	658.2
448.716	668.53
449.154	675.93
449.593	660.73
450.032	659.36
450.471	646.34
450.91	648.03
451.349	646.78
451.787	643.29
452.226	648.92
452.664	646.43
453.103	646.08
453.541	644.38
453.98	642.84
454.418	646.54
454.856	636.6
455.295	634.74
455.733	638.31
456.171	640.6
456.609	639.85
457.047	640.65
457.485	648.71
457.923	650.03
458.361	641.41
458.798	644.72
459.236	643.13
459.674	648.14
460.111	653.15
460.549	649.19
460.987	647.87
461.424	648.05
461.862	645.44
462.299	638.12
462.736	637.61
463.173	640.17
463.611	634.27
464.048	634.16
464.485	641.4
464.922	637.11
465.359	635.89
465.796	631.12
466.233	629.76
466.67	626.65
467.106	626.9
467.543	623.15
467.98	617.9
468.416	604.85
468.853	604.42
469.29	589.98
469.726	586.04
470.162	572.97
470.599	568.46
471.035	565.79
471.471	556.92
471.907	557.73
472.344	556.72
472.78	560.73
473.216	569.79
473.652	563.41
474.088	562.2
474.523	562.54
474.959	569.93
475.395	566.14
475.831	563.37
476.266	565.98
476.702	564.1
477.138	559.21
477.573	558.14
478.008	555.41
478.444	558.52
478.879	564.89
479.314	566.99
479.75	565.34
480.185	566.82
480.62	570.2
481.055	570.9
481.49	572.97
481.925	577.49
482.36	582.46
482.795	592.06
483.229	600.3
483.664	603.51
484.099	599.4
484.534	604.73
484.968	606.37
485.403	604.86
485.837	601.58
486.271	598.27
486.706	598.36
487.14	592.5
487.574	586.05
488.009	583.5
488.443	581.34
488.877	588.01
489.311	589.64
489.745	596.25
490.179	601.83
490.613	613.22
491.046	618.54
491.48	623.09
491.914	623.92
492.348	627.54
492.781	631.4
493.215	633.09
493.648	636.25
494.082	642.25
494.515	643.8
494.948	650.42
495.382	654.47
495.815	658.78
496.248	663.81
496.681	675.24
497.114	685.51
497.547	694.73
497.98	706.51
498.413	710.37
498.846	718.26
499.279	724.85
499.711	729.27
500.144	731.48
500.577	740.99
501.009	750.95
501.442	760.18
501.874	763.73
502.306	767.25
502.739	777.42
503.171	794.35
503.603	800.21
504.036	812.17
504.468	818.87
504.9	832.48
505.332	841.11
505.764	847.36
506.196	856.17
506.627	871.02
507.059	884.64
507.491	893.42
507.923	892.46
508.354	907.77
508.786	919.42
509.217	938.85
509.649	953.05
510.08	971.33
510.512	988.46
510.943	1002.37
511.374	1012.62
511.805	1032.43
512.237	1050.9
512.668	1080.91
513.099	1104.45
513.53	1124.86
513.961	1138.81
514.391	1163.65
514.822	1191.32
515.253	1220.14
515.684	1242.09
516.114	1269.58
516.545	1288.77
516.975	1313.17
517.406	1331.23
517.836	1337.29
518.267	1349.74
518.697	1374.51
519.127	1386.61
519.558	1399.24
519.988	1407.9
520.418	1422.91
520.848	1445.04
521.278	1458.38
521.708	1470.22
522.138	1486.48
522.567	1518.9
522.997	1543.85
523.427	1555.76
523.857	1567.8
524.286	1575.39
524.716	1589.92
525.145	1608.85
525.575	1620
526.004	1635.36
526.433	1638.88
526.863	1638.96
527.292	1631.27
527.721	1640.98
528.15	1652.97
528.579	1661.44
529.008	1676.35
529.437	1700.35
529.866	1712.86
530.295	1727.29
530.724	1736.98
531.152	1761.79
531.581	1775.42
532.01	1791.03
532.438	1797.62
532.867	1810.84
533.295	1826.89
533.723	1831.51
534.152	1829.01
534.58	1829.34
535.008	1815.08
535.436	1816.8
535.865	1823.85
536.293	1835.43
536.721	1847.67
537.149	1867.58
537.576	1865.1
538.004	1872.59
538.432	1878.61
538.86	1875.78
539.287	1882.46
539.715	1894.66
540.143	1896.19
540.57	1892.5
540.998	1890.19
541.425	1870.16
541.852	1853.71
542.28	1857.03
542.707	1845.26
543.134	1834.33
543.561	1832.68
543.988	1827.16
544.415	1828.23
544.842	1825.34
545.269	1820.56
545.696	1825.65
546.123	1841.13
546.549	1833.42
546.976	1821.92
547.403	1824.1
547.829	1828.47
548.256	1833.93
548.682	1833.02
549.108	1827.67
549.535	1829.75
549.961	1834.04
550.387	1821.74
550.813	1818.36
551.24	1826.78
551.666	1830.88
552.092	1823.4
552.518	1818.5
552.943	1812.26
553.369	1819.43
553.795	1824.97
554.221	1824.59
554.646	1820.51
555.072	1829.53
555.498	1831.69
555.923	1836.84
556.349	1847.66
556.774	1852.99
557.199	1851.59
557.625	1855.76
558.05	1847.43
558.475	1857.36
558.9	1855.18
559.325	1846.03
559.75	1839.09
560.175	1832.02
560.6	1824.67
561.025	1822.33
561.449	1821.84
561.874	1825.36
562.299	1828.12
562.723	1833.34
563.148	1819.31
563.572	1820.33
563.997	1824.88
564.421	1827.23
564.846	1824.41
565.27	1824.18
565.694	1817.25
566.118	1823.98
566.542	1826.59
566.966	1814.21
567.39	1804.86
567.814	1790.54
568.238	1785.65
568.662	1788.65
569.086	1787.94
569.509	1792.84
569.933	1776.98
570.357	1769.64
570.78	1749.05
571.204	1736.97
571.627	1727.48
572.05	1725.48
572.474	1725.22
572.897	1713.91
573.32	1707.21
573.743	1698.07
574.166	1679.58
574.589	1679.21
575.012	1669.73
575.435	1667.54
575.858	1657.43
576.281	1645.85
576.704	1630.44
577.126	1619.88
577.549	1609.71
577.972	1599.63
578.394	1590.02
578.817	1584.75
579.239	1568.79
579.661	1557.79
580.084	1544.21
580.506	1533.17
580.928	1531.66
581.35	1523.19
581.772	1519.59
582.194	1506.26
582.616	1493.66
583.038	1478.44
583.46	1466.92
583.882	1462.33
584.303	1464.4
584.725	1457.94
585.147	1456.77
585.568	1459.06
585.99	1462.41
586.411	1459.45
586.833	1466.68
587.254	1460.85
587.675	1468.16
588.096	1474.11
588.518	1462.91
588.939	1443.13
589.36	1437.71
589.781	1424.95
590.202	1401.32
590.623	1394.89
591.043	1395.25
591.464	1384.95
591.885	1384.03
592.305	1378.36
592.726	1365.59
593.147	1367.06
593.567	1361.9
593.987	1354.35
594.408	1348.75
594.828	1345.24
595.248	1339.01
595.669	1321.19
596.089	1314.46
596.509	1308.08
596.929	1295.46
597.349	1295.6
597.769	1286.33
598.189	1279.07
598.608	1278.35
599.028	1277.68
599.448	1276.02
599.867	1264.27
600.287	1260.29
600.706	1256.23
601.126	1246.62
601.545	1245.43
601.965	1243.68
602.384	1238.57
602.803	1240.56
603.222	1235.81
603.641	1230.07
604.061	1226.12
604.48	1221.17
604.898	1226.53
605.317	1228.99
605.736	1228.11
606.155	1223.58
606.574	1212.63
606.992	1212.89
607.411	1206.02
607.829	1194.61
608.248	1189.04
608.666	1184.5
609.085	1181.72
609.503	1171.86
609.921	1163.77
610.339	1163.76
610.758	1159.93
611.176	1153.65
611.594	1144.37
612.012	1140.04
612.43	1142.73
612.847	1145.8
613.265	1144.32
613.683	1144.34
614.101	1143.51
614.518	1138.71
614.936	1128.56
615.353	1115.92
615.771	1112.83
616.188	1112.09
616.606	1107.77
617.023	1101.72
617.44	1088.99
617.857	1083.6
618.274	1076.47
618.691	1070.11
619.108	1061.18
619.525	1054.76
619.942	1059.27
620.359	1058.48
620.776	1050.99
621.192	1045.71
621.609	1040.06
622.026	1042.99
622.442	1044.17
622.859	1044.93
623.275	1036.95
623.691	1039.09
624.108	1046.61
624.524	1056.09
624.94	1053.92
625.356	1060.86
625.772	1068.95
626.188	1078.11
626.604	1078.26
627.02	1073.52
627.436	1070.67
627.852	1074.3
628.268	1082.1
628.683	1072.22
629.099	1063.19
629.514	1058.45
629.93	1061.46
630.345	1063.69
630.761	1058.92
631.176	1061.54
631.591	1058.39
632.007	1052.68
632.422	1050.84
632.837	1041.04
633.252	1039.51
633.667	1029.98
634.082	1022.6
634.497	1010.31
634.911	995.55
635.326	993.11
635.741	978.56
636.155	967.74
636.57	967.78
636.984	967.12
637.399	967.67
637.813	965.99
638.228	964.58
638.642	965.31
639.056	955.77
639.47	953.56
639.884	943.8
640.298	937.46
640.712	935.14
641.126	923.49
641.54	914.32
641.954	907.8
642.368	895.26
642.781	887.81
643.195	873.61
643.609	872.52
644.022	864.87
644.436	859.44
644.849	845.59
645.262	833.15
645.676	831.23
646.089	824.93
646.502	812.62
646.915	807.32
647.328	792.65
647.741	789.81
648.154	778.85
648.567	778.12
648.98	767.51
649.393	767.64
649.805	766.08
650.218	761.87
650.631	750.06
651.043	744.79
651.456	739.24
651.868	738.57
652.28	749.84
652.693	755.61
653.105	754.4
653.517	756.53
653.929	753.91
654.341	754.51
654.753	742.78
655.165	745.15
655.577	742.9
655.989	739.06
656.401	731.78
656.813	706.74
657.224	694.25
657.636	675.85
658.047	667.82
658.459	656.2
658.87	651.1
659.282	642.4
659.693	628.66
660.104	617.79
660.515	607.97
660.926	606.09
661.338	601.4
661.749	595.95
662.159	589.72
662.57	584.51
662.981	580.34
663.392	573.86
663.803	575.18
664.213	571.18
664.624	565.62
665.035	565.36
665.445	553.82
665.855	548.78
666.266	544.4
666.676	541.72
667.086	532.55
667.497	531.15
667.907	525.41
668.317	519.05
668.727	516.87
669.137	515.98
669.547	512.45
669.956	513.45
670.366	512.29
670.776	511.35
671.186	511.98
671.595	514.58
672.005	514.33
672.414	512.44
672.824	510.14
673.233	510.02
673.642	510.9
674.052	514.56
674.461	516.35
674.87	518.36
675.279	516.11
675.688	515.77
676.097	516.28
676.506	513.54
676.915	522.39
677.323	523.89
677.732	522.9
678.141	522.69
678.549	514.6
678.958	512.37
679.366	513.24
679.775	515.86
680.183	524.67
680.592	528.4
681	533.96
681.408	529.78
681.816	535.86
682.224	542.38
682.632	550.1
683.04	571.36
683.448	587.04
683.856	606.02
684.264	628.08
684.671	646.04
685.079	670.06
685.487	696.89
685.894	736.82
686.302	767.54
686.709	792.8
687.116	823.75
687.524	850.39
687.931	876.24
688.338	898.43
688.745	916.95
689.152	940.08
689.559	971.91
689.966	1003.11
690.373	1018.63
690.78	1047.39
691.187	1090.7
691.593	1123.19
692	1148.59
692.407	1190.58
692.813	1242.36
693.22	1282.57
693.626	1324.14
694.032	1358.65
694.439	1410.16
694.845	1451.39
695.251	1502.3
695.657	1547.25
696.063	1613.3
696.469	1663.51
696.875	1708.45
697.281	1730.62
697.687	1762.25
698.093	1787.31
698.498	1837.35
698.904	1873.19
699.31	1931.61
699.715	1974.18
700.12	2036.3
