Data from C_1_DIV_WI_4N_Splice17_12-54-38-683.txt Node
Date: Sat Mar 07 12:54:38 EST 2020
User: sa697716
Spectrometer: NQ5500242
Trigger mode: 0
Integration Time (sec): 1.450000E-1
Scans to average: 20
Nonlinearity correction enabled: false
Boxcar width: 5
Storing dark spectrum: false
XAxis mode: Wavelengths
Number of Pixels in Spectrum: 512
>>>>>Begin Spectral Data<<<<<
187.83	105.72
188.298	125.14
188.766	121.8
189.233	109.82
189.701	137.69
190.169	156.89
190.636	205.11
191.104	340.12
191.571	439.78
192.039	409.4
192.506	336.94
192.974	-38.36
193.441	15.54
193.908	36.66
194.375	72.07
194.842	123.32
195.31	203.5
195.777	706.63
196.244	62.69
196.711	34.55
197.177	32.84
197.644	29.74
198.111	28.59
198.578	27.97
199.045	28.46
199.511	28.28
199.978	28.29
200.445	28.1
200.911	27.78
201.378	27.92
201.844	27.86
202.31	27.53
202.777	28.08
203.243	28.17
203.709	28.12
204.176	27.73
204.642	27.47
205.108	27.51
205.574	27.48
206.04	27.13
206.506	27.02
206.972	27.37
207.438	27.13
207.903	26.79
208.369	26.49
208.835	26.28
209.301	25.91
209.766	25.66
210.232	25.34
210.697	24.89
211.163	24.83
211.628	24.58
212.094	24.15
212.559	24.16
213.024	23.62
213.49	23.42
213.955	23.3
214.42	23.16
214.885	22.73
215.35	22.25
215.815	21.86
216.28	21.03
216.745	20.28
217.21	19.34
217.675	18.64
218.14	18.13
218.604	17.6
219.069	17.17
219.534	16.8
219.998	16.49
220.463	16.24
220.927	15.89
221.392	15.64
221.856	15.43
222.32	15.28
222.785	15.12
223.249	14.94
223.713	14.78
224.177	14.6
224.642	14.43
225.106	14.25
225.57	14.04
226.034	13.91
226.497	13.77
226.961	13.62
227.425	13.45
227.889	13.28
228.353	13.11
228.816	12.95
229.28	12.8
229.744	12.66
230.207	12.52
230.671	12.38
231.134	12.23
231.597	12.1
232.061	11.95
232.524	11.81
232.987	11.68
233.45	11.58
233.914	11.45
234.377	11.31
234.84	11.18
235.303	11.07
235.766	10.96
236.229	10.84
236.691	10.73
237.154	10.63
237.617	10.54
238.08	10.41
238.542	10.29
239.005	10.19
239.468	10.09
239.93	9.97
240.393	9.86
240.855	9.74
241.317	9.64
241.78	9.53
242.242	9.42
242.704	9.32
243.166	9.21
243.629	9.13
244.091	9.03
244.553	8.94
245.015	8.86
245.477	8.78
245.939	8.69
246.4	8.61
246.862	8.52
247.324	8.45
247.786	8.36
248.247	8.28
248.709	8.19
249.17	8.11
249.632	8.04
250.093	7.97
250.555	7.91
251.016	7.83
251.477	7.76
251.939	7.7
252.4	7.63
252.861	7.57
253.322	7.52
253.783	7.47
254.244	7.41
254.705	7.34
255.166	7.28
255.627	7.22
256.088	7.17
256.549	7.12
257.009	7.07
257.47	7.02
257.931	6.95
258.391	6.9
258.852	6.84
259.312	6.8
259.773	6.74
260.233	6.71
260.694	6.66
261.154	6.61
261.614	6.57
262.074	6.51
262.534	6.46
262.994	6.43
263.455	6.4
263.915	6.36
264.374	6.34
264.834	6.31
265.294	6.27
265.754	6.23
266.214	6.21
266.673	6.18
267.133	6.16
267.593	6.14
268.052	6.12
268.512	6.1
268.971	6.07
269.431	6.04
269.89	6.02
270.349	6
270.809	5.97
271.268	5.94
271.727	5.92
272.186	5.9
272.645	5.88
273.104	5.85
273.563	5.82
274.022	5.8
274.481	5.77
274.94	5.75
275.399	5.72
275.857	5.7
276.316	5.68
276.775	5.66
277.233	5.63
277.692	5.6
278.15	5.58
278.609	5.56
279.067	5.54
279.525	5.51
279.984	5.49
280.442	5.46
280.9	5.45
281.358	5.43
281.816	5.4
282.274	5.38
282.732	5.35
283.19	5.33
283.648	5.3
284.106	5.28
284.564	5.26
285.021	5.25
285.479	5.23
285.937	5.2
286.394	5.18
286.852	5.15
287.309	5.13
287.767	5.11
288.224	5.09
288.682	5.06
289.139	5.04
289.596	5.01
290.053	4.97
290.511	4.94
290.968	4.92
291.425	4.89
291.882	4.87
292.339	4.83
292.796	4.81
293.252	4.79
293.709	4.77
294.166	4.76
294.623	4.73
295.079	4.71
295.536	4.7
295.992	4.68
296.449	4.67
296.905	4.65
297.362	4.63
297.818	4.61
298.274	4.6
298.731	4.58
299.187	4.56
299.643	4.54
300.099	4.53
300.555	4.51
301.011	4.49
301.467	4.47
301.923	4.45
302.379	4.43
302.835	4.42
303.291	4.4
303.746	4.38
304.202	4.37
304.658	4.36
305.113	4.34
305.569	4.32
306.024	4.3
306.479	4.28
306.935	4.26
307.39	4.25
307.845	4.24
308.301	4.24
308.756	4.22
309.211	4.2
309.666	4.2
310.121	4.18
310.576	4.18
311.031	4.18
311.486	4.18
311.94	4.18
312.395	4.17
312.85	4.16
313.305	4.15
313.759	4.14
314.214	4.14
314.668	4.13
315.123	4.12
315.577	4.1
316.032	4.09
316.486	4.07
316.94	4.06
317.394	4.04
317.849	4.02
318.303	4.01
318.757	3.99
319.211	3.97
319.665	3.94
320.119	3.92
320.572	3.91
321.026	3.89
321.48	3.88
321.934	3.86
322.387	3.85
322.841	3.83
323.295	3.82
323.748	3.81
324.202	3.8
324.655	3.79
325.108	3.78
325.562	3.77
326.015	3.76
326.468	3.76
326.921	3.75
327.374	3.74
327.827	3.73
328.28	3.72
328.733	3.71
329.186	3.7
329.639	3.7
330.092	3.7
330.545	3.68
330.997	3.67
331.45	3.66
331.903	3.66
332.355	3.66
332.808	3.65
333.26	3.65
333.713	3.64
334.165	3.62
334.617	3.62
335.069	3.61
335.522	3.61
335.974	3.62
336.426	3.61
336.878	3.59
337.33	3.58
337.782	3.58
338.234	3.58
338.686	3.57
339.137	3.57
339.589	3.56
340.041	3.55
340.493	3.54
340.944	3.52
341.396	3.52
341.847	3.51
342.299	3.49
342.75	3.47
343.201	3.46
343.653	3.45
344.104	3.42
344.555	3.41
345.006	3.4
345.457	3.39
345.908	3.37
346.359	3.36
346.81	3.35
347.261	3.34
347.712	3.34
348.163	3.32
348.613	3.32
349.064	3.32
349.515	3.32
349.965	3.31
350.416	3.3
350.866	3.3
351.317	3.29
351.767	3.29
352.217	3.28
352.668	3.27
353.118	3.27
353.568	3.26
354.018	3.26
354.468	3.26
354.918	3.25
355.368	3.25
355.818	3.24
356.268	3.24
356.718	3.24
357.168	3.23
357.617	3.22
358.067	3.22
358.517	3.22
358.966	3.21
359.416	3.21
359.865	3.2
360.315	3.2
360.764	3.2
361.213	3.19
361.663	3.19
362.112	3.19
362.561	3.19
363.01	3.18
363.459	3.17
363.908	3.16
364.357	3.16
364.806	3.14
365.255	3.13
365.703	3.14
366.152	3.14
366.601	3.14
367.05	3.13
367.498	3.12
367.947	3.12
368.395	3.12
368.844	3.12
369.292	3.11
369.74	3.12
370.189	3.12
370.637	3.11
371.085	3.09
371.533	3.08
371.981	3.08
372.429	3.07
372.877	3.07
373.325	3.06
373.773	3.06
374.221	3.05
374.669	3.04
375.116	3.03
375.564	3.02
376.012	3.01
376.459	3.02
376.907	3.02
377.354	3.01
377.801	3.01
378.249	3.01
378.696	3
379.143	3.01
379.591	3
380.038	3.01
380.485	3.01
380.932	3.02
381.379	3.02
381.826	3.01
382.273	3.02
382.72	3
383.166	3
383.613	3
384.06	2.98
384.506	2.99
384.953	2.98
385.4	2.98
385.846	2.99
386.292	2.99
386.739	2.98
387.185	2.98
387.631	3
388.078	3
388.524	3.01
388.97	3.01
389.416	3.02
389.862	3.02
390.308	3.04
390.754	3.04
391.2	3.05
391.645	3.06
392.091	3.08
392.537	3.08
392.983	3.1
393.428	3.1
393.874	3.11
394.319	3.12
394.765	3.13
395.21	3.13
395.655	3.14
396.101	3.15
396.546	3.15
396.991	3.16
397.436	3.17
397.881	3.19
398.326	3.21
398.771	3.23
399.216	3.23
399.661	3.25
400.106	3.26
400.551	3.27
400.995	3.27
401.44	3.28
401.885	3.29
402.329	3.3
402.774	3.29
403.218	3.31
403.663	3.32
404.107	3.34
404.551	3.33
404.995	3.35
405.44	3.35
405.884	3.36
406.328	3.37
406.772	3.37
407.216	3.37
407.66	3.38
408.104	3.37
408.547	3.37
408.991	3.38
409.435	3.39
409.879	3.4
410.322	3.41
410.766	3.43
411.209	3.44
411.653	3.47
412.096	3.48
412.54	3.5
412.983	3.51
413.426	3.54
413.869	3.56
414.312	3.57
414.756	3.57
415.199	3.58
415.642	3.59
416.085	3.59
416.527	3.58
416.97	3.58
417.413	3.58
417.856	3.58
418.298	3.57
418.741	3.56
419.184	3.56
419.626	3.56
420.069	3.55
420.511	3.55
420.953	3.55
421.396	3.56
421.838	3.57
422.28	3.57
422.722	3.58
423.164	3.58
423.606	3.59
424.048	3.59
424.49	3.6
424.932	3.6
425.374	3.58
425.816	3.58
426.258	3.56
426.699	3.56
427.141	3.56
427.582	3.56
428.024	3.57
428.465	3.56
428.907	3.55
429.348	3.55
429.789	3.55
430.231	3.57
430.672	3.59
431.113	3.6
431.554	3.62
431.995	3.63
432.436	3.63
432.877	3.64
433.318	3.66
433.759	3.69
434.2	3.71
434.64	3.72
435.081	3.74
435.522	3.75
435.962	3.78
436.403	3.79
436.843	3.79
437.284	3.78
437.724	3.78
438.164	3.77
438.604	3.78
439.045	3.77
439.485	3.77
439.925	3.77
440.365	3.76
440.805	3.75
441.245	3.75
441.685	3.77
442.125	3.8
442.564	3.81
443.004	3.81
443.444	3.8
443.883	3.82
444.323	3.82
444.762	3.82
445.202	3.82
445.641	3.85
446.081	3.85
446.52	3.83
446.959	3.84
447.398	3.86
447.837	3.87
448.276	3.89
448.716	3.89
449.154	3.91
449.593	3.92
450.032	3.92
450.471	3.91
450.91	3.92
451.349	3.93
451.787	3.93
452.226	3.92
452.664	3.91
453.103	3.9
453.541	3.9
453.98	3.9
454.418	3.89
454.856	3.89
455.295	3.88
455.733	3.85
456.171	3.85
456.609	3.84
457.047	3.83
457.485	3.83
457.923	3.82
458.361	3.83
458.798	3.82
459.236	3.82
459.674	3.83
460.111	3.83
460.549	3.85
460.987	3.85
461.424	3.86
461.862	3.86
462.299	3.87
462.736	3.87
463.173	3.86
463.611	3.86
464.048	3.85
464.485	3.84
464.922	3.84
465.359	3.85
465.796	3.85
466.233	3.85
466.67	3.85
467.106	3.85
467.543	3.84
467.98	3.84
468.416	3.83
468.853	3.83
469.29	3.83
469.726	3.83
470.162	3.81
470.599	3.79
471.035	3.78
471.471	3.78
471.907	3.77
472.344	3.77
472.78	3.77
473.216	3.78
473.652	3.78
474.088	3.77
474.523	3.77
474.959	3.77
475.395	3.75
475.831	3.75
476.266	3.75
476.702	3.75
477.138	3.74
477.573	3.73
478.008	3.73
478.444	3.72
478.879	3.72
479.314	3.71
479.75	3.72
480.185	3.71
480.62	3.7
481.055	3.69
481.49	3.68
481.925	3.69
482.36	3.69
482.795	3.68
483.229	3.67
483.664	3.67
484.099	3.67
484.534	3.66
484.968	3.67
485.403	3.68
485.837	3.69
486.271	3.7
486.706	3.7
487.14	3.7
487.574	3.71
488.009	3.73
488.443	3.74
488.877	3.75
489.311	3.77
489.745	3.78
490.179	3.8
490.613	3.82
491.046	3.83
491.48	3.86
491.914	3.89
492.348	3.91
492.781	3.93
493.215	3.96
493.648	3.98
494.082	4
494.515	4.03
494.948	4.06
495.382	4.08
495.815	4.13
496.248	4.17
496.681	4.21
497.114	4.25
497.547	4.3
497.98	4.34
498.413	4.39
498.846	4.45
499.279	4.5
499.711	4.56
500.144	4.63
500.577	4.69
501.009	4.75
501.442	4.82
501.874	4.9
502.306	4.97
502.739	5.06
503.171	5.15
503.603	5.25
504.036	5.35
504.468	5.45
504.9	5.54
505.332	5.65
505.764	5.77
506.196	5.89
506.627	6.02
507.059	6.15
507.491	6.28
507.923	6.41
508.354	6.56
508.786	6.71
509.217	6.87
509.649	7.03
510.08	7.19
510.512	7.37
510.943	7.55
511.374	7.73
511.805	7.92
512.237	8.11
512.668	8.31
513.099	8.5
513.53	8.7
513.961	8.91
514.391	9.13
514.822	9.35
515.253	9.57
515.684	9.78
516.114	10
516.545	10.23
516.975	10.46
517.406	10.69
517.836	10.93
518.267	11.17
518.697	11.4
519.127	11.63
519.558	11.87
519.988	12.11
520.418	12.33
520.848	12.56
521.278	12.8
521.708	13.16
522.138	13.39
522.567	13.6
522.997	13.81
523.427	14.03
523.857	14.24
524.286	14.44
524.716	14.63
525.145	14.82
525.575	15.02
526.004	15.21
526.433	15.24
526.863	15.41
527.292	15.59
527.721	15.74
528.15	15.88
528.579	16.02
529.008	16.16
529.437	16.29
529.866	16.4
530.295	16.52
530.724	16.63
531.152	16.75
531.581	16.85
532.01	16.93
532.438	17.03
532.867	17.13
533.295	17.21
533.723	17.29
534.152	17.37
534.58	17.45
535.008	17.5
535.436	17.58
535.865	17.63
536.293	17.68
536.721	17.73
537.149	17.79
537.576	17.82
538.004	17.88
538.432	17.91
538.86	17.97
539.287	18
539.715	18.05
540.143	18.07
540.57	18.1
540.998	18.13
541.425	18.15
541.852	18.18
542.28	18.21
542.707	18.23
543.134	18.26
543.561	18.28
543.988	18.31
544.415	18.32
544.842	18.33
545.269	18.37
545.696	18.38
546.123	18.41
546.549	18.43
546.976	18.46
547.403	18.48
547.829	18.5
548.256	18.49
548.682	18.51
549.108	18.54
549.535	18.57
549.961	18.56
550.387	18.57
550.813	18.57
551.24	18.55
551.666	18.54
552.092	18.54
552.518	18.53
552.943	18.5
553.369	18.47
553.795	18.44
554.221	18.4
554.646	18.37
555.072	18.33
555.498	18.28
555.923	18.23
556.349	18.16
556.774	18.1
557.199	18.03
557.625	17.96
558.05	17.9
558.475	17.84
558.9	17.74
559.325	17.67
559.75	17.6
560.175	17.52
560.6	17.43
561.025	17.33
561.449	17.24
561.874	17.13
562.299	17.04
562.723	16.92
563.148	16.8
563.572	16.68
563.997	16.57
564.421	16.43
564.846	16.29
565.27	16.17
565.694	16.06
566.118	15.92
566.542	15.81
566.966	15.68
567.39	15.54
567.814	15.41
568.238	15.28
568.662	15.14
569.086	15.02
569.509	14.91
569.933	14.79
570.357	14.66
570.78	14.53
571.204	14.4
571.627	14.27
572.05	14.14
572.474	14.04
572.897	13.93
573.32	13.82
573.743	13.71
574.166	13.6
574.589	13.5
575.012	13.39
575.435	13.29
575.858	13.2
576.281	13.1
576.704	13.02
577.126	12.93
577.549	12.83
577.972	12.74
578.394	12.65
578.817	12.56
579.239	12.48
579.661	12.41
580.084	12.33
580.506	12.26
580.928	12.18
581.35	12.11
581.772	12.04
582.194	11.98
582.616	11.92
583.038	11.85
583.46	11.78
583.882	11.72
584.303	11.65
584.725	11.59
585.147	11.53
585.568	11.48
585.99	11.42
586.411	11.37
586.833	11.3
587.254	11.24
587.675	11.2
588.096	11.15
588.518	11.1
588.939	11.05
589.36	11.01
589.781	10.97
590.202	10.94
590.623	10.89
591.043	10.85
591.464	10.82
591.885	10.78
592.305	10.75
592.726	10.73
593.147	10.7
593.567	10.67
593.987	10.63
594.408	10.6
594.828	10.56
595.248	10.54
595.669	10.5
596.089	10.48
596.509	10.46
596.929	10.43
597.349	10.39
597.769	10.35
598.189	10.31
598.608	10.3
599.028	10.27
599.448	10.23
599.867	10.2
600.287	10.17
600.706	10.14
601.126	10.1
601.545	10.07
601.965	10.04
602.384	10.01
602.803	9.97
603.222	9.92
603.641	9.88
604.061	9.84
604.48	9.8
604.898	9.74
605.317	9.7
605.736	9.64
606.155	9.59
606.574	9.54
606.992	9.49
607.411	9.43
607.829	9.35
608.248	9.28
608.666	9.23
609.085	9.17
609.503	9.11
609.921	9.05
610.339	9
610.758	8.94
611.176	8.87
611.594	8.82
612.012	8.76
612.43	8.73
612.847	8.68
613.265	8.62
613.683	8.56
614.101	8.51
614.518	8.44
614.936	8.39
615.353	8.33
615.771	8.28
616.188	8.23
616.606	8.18
617.023	8.15
617.44	8.1
617.857	8.07
618.274	8.03
618.691	7.98
619.108	7.94
619.525	7.9
619.942	7.87
620.359	7.84
620.776	7.82
621.192	7.79
621.609	7.76
622.026	7.73
622.442	7.71
622.859	7.69
623.275	7.67
623.691	7.65
624.108	7.64
624.524	7.63
624.94	7.62
625.356	7.6
625.772	7.59
626.188	7.57
626.604	7.56
627.02	7.54
627.436	7.54
627.852	7.53
628.268	7.52
628.683	7.51
629.099	7.5
629.514	7.48
629.93	7.48
630.345	7.46
630.761	7.43
631.176	7.4
631.591	7.37
632.007	7.33
632.422	7.3
632.837	7.25
633.252	7.2
633.667	7.15
634.082	7.09
634.497	7.03
634.911	6.97
635.326	6.92
635.741	6.86
636.155	6.79
636.57	6.72
636.984	6.65
637.399	6.58
637.813	6.5
638.228	6.42
638.642	6.34
639.056	6.26
639.47	6.18
639.884	6.09
640.298	6
640.712	5.92
641.126	5.84
641.54	5.75
641.954	5.66
642.368	5.6
642.781	5.52
643.195	5.44
643.609	5.38
644.022	5.3
644.436	5.25
644.849	5.18
645.262	5.11
645.676	5.05
646.089	5
646.502	4.96
646.915	4.91
647.328	4.87
647.741	4.83
648.154	4.8
648.567	4.77
648.98	4.73
649.393	4.7
649.805	4.69
650.218	4.67
650.631	4.64
651.043	4.62
651.456	4.59
651.868	4.56
652.28	4.54
652.693	4.52
653.105	4.5
653.517	4.47
653.929	4.44
654.341	4.4
654.753	4.37
655.165	4.33
655.577	4.3
655.989	4.27
656.401	4.23
656.813	4.2
657.224	4.15
657.636	4.1
658.047	4.06
658.459	4.02
658.87	3.97
659.282	3.92
659.693	3.87
660.104	3.82
660.515	3.77
660.926	3.72
661.338	3.66
661.749	3.62
662.159	3.58
662.57	3.54
662.981	3.51
663.392	3.48
663.803	3.44
664.213	3.4
664.624	3.37
665.035	3.35
665.445	3.34
665.855	3.32
666.266	3.3
666.676	3.29
667.086	3.26
667.497	3.24
667.907	3.23
668.317	3.23
668.727	3.22
669.137	3.22
669.547	3.21
669.956	3.21
670.366	3.21
670.776	3.21
671.186	3.21
671.595	3.22
672.005	3.22
672.414	3.22
672.824	3.23
673.233	3.24
673.642	3.26
674.052	3.26
674.461	3.27
674.87	3.29
675.279	3.31
675.688	3.33
676.097	3.36
676.506	3.39
676.915	3.42
677.323	3.44
677.732	3.47
678.141	3.49
678.549	3.52
678.958	3.56
679.366	3.59
679.775	3.61
680.183	3.66
680.592	3.69
681	3.74
681.408	3.78
681.816	3.83
682.224	3.89
682.632	3.96
683.04	4.03
683.448	4.11
683.856	4.19
684.264	4.29
684.671	4.39
685.079	4.51
685.487	4.63
685.894	4.78
686.302	4.96
686.709	5.13
687.116	5.34
687.524	5.55
687.931	5.79
688.338	6.04
688.745	6.31
689.152	6.6
689.559	6.91
689.966	7.24
690.373	7.58
690.78	7.93
691.187	8.31
691.593	8.71
692	9.11
692.407	9.51
692.813	9.96
693.22	10.38
693.626	10.85
694.032	11.3
694.439	11.78
694.845	12.27
695.251	12.76
695.657	13.24
696.063	13.72
696.469	14.24
696.875	14.75
697.281	15.25
697.687	15.78
698.093	16.27
698.498	16.78
698.904	17.27
699.31	17.76
699.715	18.25
700.12	18.74
700.526	19.24
700.931	19.72
701.337	20.21
701.742	20.67
702.147	21.14
702.552	21.62
702.957	22.06
703.362	22.52
703.767	22.95
704.172	23.41
704.577	23.85
704.981	24.28
705.386	24.72
705.791	25.14
706.195	25.56
706.6	25.98
707.004	26.39
707.408	26.81
707.813	27.22
708.217	27.63
708.621	28.04
709.025	28.44
709.43	28.81
709.834	29.2
710.237	29.56
710.641	29.94
711.045	30.3
711.449	30.68
711.853	31.08
712.256	31.42
712.66	31.77
713.064	32.09
713.467	32.41
713.87	32.74
714.274	33.05
714.677	33.38
715.08	33.67
715.484	33.99
715.887	34.29
716.29	34.57
716.693	34.89
717.096	35.17
717.499	35.47
717.901	35.77
718.304	36.06
718.707	36.35
719.109	36.61
719.512	36.89
719.915	37.15
720.317	37.37
720.719	37.59
721.122	37.82
721.524	38.06
721.926	38.29
722.328	38.51
722.731	38.75
723.133	38.97
723.535	39.2
723.937	39.42
724.338	39.62
724.74	39.84
725.142	40.11
725.544	40.29
725.945	40.47
726.347	40.63
726.748	40.8
727.15	40.93
727.551	41.08
727.952	41.22
728.354	41.35
728.755	41.47
729.156	41.59
729.557	41.64
729.958	41.77
730.359	41.88
730.76	42
731.161	42.09
731.562	42.23
731.962	42.32
732.363	42.46
732.763	42.56
733.164	42.69
733.564	42.81
733.965	42.92
734.365	43.03
734.766	43.1
735.166	43.19
735.566	43.28
735.966	43.34
736.366	43.41
736.766	43.47
737.166	43.54
737.566	43.59
737.966	43.63
738.365	43.67
738.765	43.72
739.165	43.81
739.564	43.86
739.964	43.91
740.363	43.95
740.763	43.99
741.162	44.05
741.561	44.08
741.96	44.12
742.36	44.15
742.759	44.2
743.158	44.23
743.557	44.25
743.955	44.28
744.354	44.31
744.753	44.37
745.152	44.43
745.55	44.43
745.949	44.46
746.348	44.49
746.746	44.51
747.144	44.56
747.543	44.58
747.941	44.61
748.339	44.6
748.737	44.63
749.136	44.64
749.534	44.64
749.932	44.68
750.33	44.7
750.727	44.72
751.125	44.75
751.523	44.75
751.921	44.75
752.318	44.74
752.716	44.77
753.113	44.79
753.511	44.8
753.908	44.85
754.305	44.85
754.703	44.84
755.1	44.86
755.497	44.86
755.894	44.88
756.291	44.89
756.688	44.92
757.085	44.94
757.482	44.96
757.878	44.97
758.275	44.95
758.672	44.93
759.068	44.95
759.465	44.94
759.861	44.94
760.258	44.95
760.654	44.96
761.05	44.97
761.447	44.97
761.843	44.95
762.239	44.93
762.635	44.93
763.031	44.95
763.427	44.92
763.822	44.94
764.218	44.94
764.614	44.93
765.01	44.92
765.405	44.92
765.801	44.9
766.196	44.92
766.592	44.93
766.987	44.92
767.382	44.92
767.778	44.94
768.173	44.92
768.568	44.92
768.963	44.9
769.358	44.91
769.753	44.89
770.148	44.88
770.542	44.86
770.937	44.87
771.332	44.88
771.726	44.87
772.121	44.85
772.515	44.84
772.91	44.82
773.304	44.84
773.699	44.83
774.093	44.8
774.487	44.82
774.881	44.85
775.275	44.83
775.669	44.8
776.063	44.8
776.457	44.8
776.851	44.79
777.245	44.77
777.638	44.75
778.032	44.76
778.425	44.82
778.819	44.81
779.212	44.81
779.606	44.82
779.999	44.84
780.392	44.86
780.786	44.86
781.179	44.88
781.572	44.95
781.965	44.97
782.358	44.98
782.751	44.96
783.143	44.95
783.536	44.94
783.929	44.92
784.322	44.94
784.714	44.93
785.107	44.94
