Data from C_1_DEC_OH_4N_Splice17_12-43-57-505.txt Node
Date: Sat Mar 07 12:43:57 EST 2020
User: sa697716
Spectrometer: NQ5500242
Trigger mode: 0
Integration Time (sec): 1.450000E-1
Scans to average: 20
Nonlinearity correction enabled: false
Boxcar width: 5
Storing dark spectrum: false
XAxis mode: Wavelengths
Number of Pixels in Spectrum: 512
>>>>>Begin Spectral Data<<<<<
187.83	154.15
188.298	164.81
188.766	159.89
189.233	133.58
189.701	132.78
190.169	140.54
190.636	166.72
191.104	172.24
191.571	42.44
192.039	-90.79
192.506	82.5
192.974	79.42
193.441	138.19
193.908	149.35
194.375	108.58
194.842	50.47
195.31	57.74
195.777	262.65
196.244	44.29
196.711	41.32
197.177	42.63
197.644	41.51
198.111	40.8
198.578	41.29
199.045	41.28
199.511	41.05
199.978	41.37
200.445	41.51
200.911	41.38
201.378	41.37
201.844	41.42
202.31	40.82
202.777	41.14
203.243	41.24
203.709	40.83
204.176	40.53
204.642	40.66
205.108	40.59
205.574	40.59
206.04	40.28
206.506	40.08
206.972	40.09
207.438	39.93
207.903	39.66
208.369	39.18
208.835	38.94
209.301	38.3
209.766	37.56
210.232	36.9
210.697	36.28
211.163	35.83
211.628	35.43
212.094	34.92
212.559	34.69
213.024	34.18
213.49	33.63
213.955	33.03
214.42	32.76
214.885	32.21
215.35	31.46
215.815	30.5
216.28	29.4
216.745	28.29
217.21	27.08
217.675	25.95
218.14	25.1
218.604	24.39
219.069	23.76
219.534	23.21
219.998	22.76
220.463	22.37
220.927	21.96
221.392	21.63
221.856	21.34
222.32	21.07
222.785	20.84
223.249	20.57
223.713	20.37
224.177	20.19
224.642	19.99
225.106	19.74
225.57	19.52
226.034	19.31
226.497	19.12
226.961	18.91
227.425	18.7
227.889	18.5
228.353	18.31
228.816	18.1
229.28	17.87
229.744	17.66
230.207	17.46
230.671	17.27
231.134	17.09
231.597	16.9
232.061	16.72
232.524	16.56
232.987	16.38
233.45	16.22
233.914	16.04
234.377	15.88
234.84	15.72
235.303	15.59
235.766	15.45
236.229	15.3
236.691	15.15
237.154	15.01
237.617	14.88
238.08	14.74
238.542	14.6
239.005	14.48
239.468	14.33
239.93	14.2
240.393	14.07
240.855	13.92
241.317	13.78
241.78	13.65
242.242	13.52
242.704	13.4
243.166	13.29
243.629	13.19
244.091	13.05
244.553	12.95
245.015	12.84
245.477	12.73
245.939	12.63
246.4	12.54
246.862	12.44
247.324	12.33
247.786	12.22
248.247	12.11
248.709	12
249.17	11.92
249.632	11.83
250.093	11.74
250.555	11.67
251.016	11.59
251.477	11.52
251.939	11.46
252.4	11.41
252.861	11.34
253.322	11.28
253.783	11.23
254.244	11.18
254.705	11.12
255.166	11.06
255.627	11
256.088	10.96
256.549	10.89
257.009	10.82
257.47	10.76
257.931	10.68
258.391	10.62
258.852	10.55
259.312	10.48
259.773	10.42
260.233	10.37
260.694	10.31
261.154	10.24
261.614	10.19
262.074	10.14
262.534	10.09
262.994	10.06
263.455	10.02
263.915	9.98
264.374	9.95
264.834	9.94
265.294	9.91
265.754	9.89
266.214	9.87
266.673	9.85
267.133	9.84
267.593	9.82
268.052	9.79
268.512	9.78
268.971	9.77
269.431	9.75
269.89	9.72
270.349	9.7
270.809	9.67
271.268	9.66
271.727	9.64
272.186	9.61
272.645	9.6
273.104	9.57
273.563	9.54
274.022	9.52
274.481	9.5
274.94	9.47
275.399	9.44
275.857	9.43
276.316	9.39
276.775	9.36
277.233	9.34
277.692	9.31
278.15	9.29
278.609	9.26
279.067	9.23
279.525	9.2
279.984	9.18
280.442	9.15
280.9	9.12
281.358	9.1
281.816	9.07
282.274	9.05
282.732	9.02
283.19	8.99
283.648	8.95
284.106	8.92
284.564	8.89
285.021	8.86
285.479	8.83
285.937	8.8
286.394	8.77
286.852	8.73
287.309	8.69
287.767	8.66
288.224	8.62
288.682	8.58
289.139	8.55
289.596	8.52
290.053	8.48
290.511	8.45
290.968	8.42
291.425	8.4
291.882	8.38
292.339	8.35
292.796	8.32
293.252	8.31
293.709	8.29
294.166	8.27
294.623	8.25
295.079	8.23
295.536	8.21
295.992	8.19
296.449	8.16
296.905	8.14
297.362	8.13
297.818	8.11
298.274	8.08
298.731	8.06
299.187	8.03
299.643	8.02
300.099	8.01
300.555	7.99
301.011	7.98
301.467	7.95
301.923	7.94
302.379	7.91
302.835	7.9
303.291	7.88
303.746	7.87
304.202	7.85
304.658	7.83
305.113	7.81
305.569	7.79
306.024	7.77
306.479	7.75
306.935	7.73
307.39	7.71
307.845	7.69
308.301	7.68
308.756	7.67
309.211	7.66
309.666	7.65
310.121	7.64
310.576	7.61
311.031	7.6
311.486	7.6
311.94	7.59
312.395	7.57
312.85	7.56
313.305	7.54
313.759	7.53
314.214	7.5
314.668	7.48
315.123	7.46
315.577	7.44
316.032	7.41
316.486	7.4
316.94	7.37
317.394	7.36
317.849	7.33
318.303	7.31
318.757	7.28
319.211	7.27
319.665	7.24
320.119	7.21
320.572	7.19
321.026	7.18
321.48	7.16
321.934	7.14
322.387	7.12
322.841	7.1
323.295	7.09
323.748	7.07
324.202	7.06
324.655	7.04
325.108	7.04
325.562	7.03
326.015	7.01
326.468	7
326.921	6.98
327.374	6.96
327.827	6.95
328.28	6.94
328.733	6.93
329.186	6.91
329.639	6.91
330.092	6.89
330.545	6.87
330.997	6.86
331.45	6.85
331.903	6.85
332.355	6.84
332.808	6.83
333.26	6.81
333.713	6.8
334.165	6.8
334.617	6.79
335.069	6.78
335.522	6.78
335.974	6.77
336.426	6.76
336.878	6.74
337.33	6.73
337.782	6.72
338.234	6.71
338.686	6.7
339.137	6.69
339.589	6.66
340.041	6.66
340.493	6.63
340.944	6.61
341.396	6.59
341.847	6.58
342.299	6.55
342.75	6.52
343.201	6.51
343.653	6.5
344.104	6.47
344.555	6.46
345.006	6.44
345.457	6.41
345.908	6.4
346.359	6.4
346.81	6.39
347.261	6.38
347.712	6.38
348.163	6.36
348.613	6.36
349.064	6.35
349.515	6.35
349.965	6.35
350.416	6.34
350.866	6.34
351.317	6.32
351.767	6.32
352.217	6.32
352.668	6.31
353.118	6.3
353.568	6.29
354.018	6.29
354.468	6.29
354.918	6.29
355.368	6.29
355.818	6.29
356.268	6.28
356.718	6.29
357.168	6.27
357.617	6.26
358.067	6.25
358.517	6.26
358.966	6.25
359.416	6.24
359.865	6.22
360.315	6.22
360.764	6.21
361.213	6.2
361.663	6.19
362.112	6.18
362.561	6.18
363.01	6.17
363.459	6.14
363.908	6.13
364.357	6.12
364.806	6.11
365.255	6.09
365.703	6.09
366.152	6.09
366.601	6.09
367.05	6.08
367.498	6.07
367.947	6.07
368.395	6.08
368.844	6.08
369.292	6.08
369.74	6.07
370.189	6.07
370.637	6.06
371.085	6.04
371.533	6.02
371.981	6.02
372.429	6.01
372.877	6
373.325	5.98
373.773	5.96
374.221	5.95
374.669	5.94
375.116	5.93
375.564	5.93
376.012	5.93
376.459	5.93
376.907	5.92
377.354	5.92
377.801	5.91
378.249	5.9
378.696	5.9
379.143	5.9
379.591	5.89
380.038	5.88
380.485	5.87
380.932	5.86
381.379	5.85
381.826	5.84
382.273	5.83
382.72	5.82
383.166	5.81
383.613	5.81
384.06	5.8
384.506	5.79
384.953	5.8
385.4	5.79
385.846	5.8
386.292	5.8
386.739	5.79
387.185	5.8
387.631	5.8
388.078	5.8
388.524	5.8
388.97	5.79
389.416	5.8
389.862	5.8
390.308	5.81
390.754	5.82
391.2	5.82
391.645	5.82
392.091	5.83
392.537	5.84
392.983	5.84
393.428	5.85
393.874	5.86
394.319	5.87
394.765	5.86
395.21	5.85
395.655	5.85
396.101	5.86
396.546	5.87
396.991	5.88
397.436	5.89
397.881	5.91
398.326	5.92
398.771	5.93
399.216	5.94
399.661	5.95
400.106	5.96
400.551	5.96
400.995	5.95
401.44	5.95
401.885	5.95
402.329	5.95
402.774	5.95
403.218	5.97
403.663	5.98
404.107	5.98
404.551	5.99
404.995	6.01
405.44	6.01
405.884	6.02
406.328	6.03
406.772	6.04
407.216	6.06
407.66	6.05
408.104	6.04
408.547	6.04
408.991	6.05
409.435	6.05
409.879	6.06
410.322	6.07
410.766	6.08
411.209	6.09
411.653	6.1
412.096	6.1
412.54	6.11
412.983	6.11
413.426	6.15
413.869	6.14
414.312	6.16
414.756	6.16
415.199	6.17
415.642	6.17
416.085	6.16
416.527	6.16
416.97	6.14
417.413	6.14
417.856	6.13
418.298	6.11
418.741	6.11
419.184	6.1
419.626	6.1
420.069	6.1
420.511	6.09
420.953	6.09
421.396	6.1
421.838	6.1
422.28	6.11
422.722	6.12
423.164	6.12
423.606	6.13
424.048	6.13
424.49	6.13
424.932	6.14
425.374	6.14
425.816	6.11
426.258	6.11
426.699	6.1
427.141	6.1
427.582	6.11
428.024	6.11
428.465	6.11
428.907	6.1
429.348	6.09
429.789	6.08
430.231	6.09
430.672	6.12
431.113	6.13
431.554	6.13
431.995	6.14
432.436	6.13
432.877	6.13
433.318	6.15
433.759	6.17
434.2	6.2
434.64	6.21
435.081	6.22
435.522	6.24
435.962	6.25
436.403	6.28
436.843	6.3
437.284	6.31
437.724	6.33
438.164	6.32
438.604	6.33
439.045	6.32
439.485	6.3
439.925	6.31
440.365	6.3
440.805	6.3
441.245	6.3
441.685	6.3
442.125	6.32
442.564	6.31
443.004	6.31
443.444	6.29
443.883	6.29
444.323	6.28
444.762	6.29
445.202	6.29
445.641	6.29
446.081	6.3
446.52	6.3
446.959	6.31
447.398	6.31
447.837	6.31
448.276	6.33
448.716	6.34
449.154	6.37
449.593	6.36
450.032	6.35
450.471	6.34
450.91	6.33
451.349	6.32
451.787	6.3
452.226	6.3
452.664	6.3
453.103	6.29
453.541	6.29
453.98	6.29
454.418	6.28
454.856	6.28
455.295	6.3
455.733	6.28
456.171	6.28
456.609	6.29
457.047	6.27
457.485	6.26
457.923	6.26
458.361	6.25
458.798	6.24
459.236	6.24
459.674	6.24
460.111	6.24
460.549	6.25
460.987	6.23
461.424	6.24
461.862	6.26
462.299	6.27
462.736	6.27
463.173	6.26
463.611	6.27
464.048	6.28
464.485	6.3
464.922	6.3
465.359	6.3
465.796	6.3
466.233	6.31
466.67	6.31
467.106	6.32
467.543	6.33
467.98	6.33
468.416	6.33
468.853	6.33
469.29	6.31
469.726	6.32
470.162	6.31
470.599	6.33
471.035	6.31
471.471	6.3
471.907	6.29
472.344	6.29
472.78	6.29
473.216	6.28
473.652	6.28
474.088	6.26
474.523	6.26
474.959	6.25
475.395	6.23
475.831	6.23
476.266	6.23
476.702	6.22
477.138	6.21
477.573	6.2
478.008	6.2
478.444	6.2
478.879	6.2
479.314	6.19
479.75	6.19
480.185	6.18
480.62	6.17
481.055	6.16
481.49	6.14
481.925	6.13
482.36	6.13
482.795	6.12
483.229	6.11
483.664	6.13
484.099	6.12
484.534	6.13
484.968	6.13
485.403	6.13
485.837	6.14
486.271	6.16
486.706	6.16
487.14	6.16
487.574	6.18
488.009	6.18
488.443	6.18
488.877	6.2
489.311	6.21
489.745	6.23
490.179	6.26
490.613	6.28
491.046	6.3
491.48	6.34
491.914	6.37
492.348	6.41
492.781	6.45
493.215	6.48
493.648	6.53
494.082	6.56
494.515	6.6
494.948	6.64
495.382	6.68
495.815	6.74
496.248	6.8
496.681	6.85
497.114	6.91
497.547	6.97
497.98	7.05
498.413	7.12
498.846	7.2
499.279	7.28
499.711	7.36
500.144	7.46
500.577	7.54
501.009	7.63
501.442	7.74
501.874	7.84
502.306	7.95
502.739	8.05
503.171	8.18
503.603	8.31
504.036	8.44
504.468	8.58
504.9	8.72
505.332	8.88
505.764	9.05
506.196	9.22
506.627	9.4
507.059	9.59
507.491	9.78
507.923	9.98
508.354	10.19
508.786	10.42
509.217	10.65
509.649	10.88
510.08	11.12
510.512	11.37
510.943	11.63
511.374	11.88
511.805	12.16
512.237	12.44
512.668	12.73
513.099	13.01
513.53	13.29
513.961	13.58
514.391	13.88
514.822	14.19
515.253	14.49
515.684	14.78
516.114	15.1
516.545	15.41
516.975	15.72
517.406	16.04
517.836	16.36
518.267	16.7
518.697	17.02
519.127	17.33
519.558	17.65
519.988	17.99
520.418	18.3
520.848	18.62
521.278	18.92
521.708	19.35
522.138	19.65
522.567	19.94
522.997	20.21
523.427	20.5
523.857	20.78
524.286	21.04
524.716	21.3
525.145	21.55
525.575	21.81
526.004	22.06
526.433	22.17
526.863	22.39
527.292	22.6
527.721	22.8
528.15	23
528.579	23.19
529.008	23.36
529.437	23.51
529.866	23.68
530.295	23.83
530.724	23.95
531.152	24.09
531.581	24.22
532.01	24.34
532.438	24.47
532.867	24.56
533.295	24.67
533.723	24.77
534.152	24.87
534.58	24.96
535.008	25.02
535.436	25.11
535.865	25.17
536.293	25.24
536.721	25.32
537.149	25.37
537.576	25.44
538.004	25.51
538.432	25.54
538.86	25.59
539.287	25.63
539.715	25.68
540.143	25.73
540.57	25.77
540.998	25.81
541.425	25.83
541.852	25.87
542.28	25.91
542.707	25.93
543.134	25.98
543.561	26.02
543.988	26.05
544.415	26.06
544.842	26.08
545.269	26.11
545.696	26.13
546.123	26.16
546.549	26.18
546.976	26.19
547.403	26.2
547.829	26.21
548.256	26.22
548.682	26.24
549.108	26.28
549.535	26.27
549.961	26.28
550.387	26.28
550.813	26.26
551.24	26.25
551.666	26.25
552.092	26.24
552.518	26.2
552.943	26.16
553.369	26.13
553.795	26.08
554.221	26.04
554.646	25.99
555.072	25.94
555.498	25.87
555.923	25.8
556.349	25.71
556.774	25.63
557.199	25.56
557.625	25.47
558.05	25.36
558.475	25.25
558.9	25.16
559.325	25.04
559.75	24.92
560.175	24.82
560.6	24.7
561.025	24.59
561.449	24.45
561.874	24.3
562.299	24.16
562.723	24.03
563.148	23.87
563.572	23.7
563.997	23.54
564.421	23.37
564.846	23.18
565.27	23
565.694	22.82
566.118	22.65
566.542	22.48
566.966	22.29
567.39	22.1
567.814	21.93
568.238	21.75
568.662	21.58
569.086	21.41
569.509	21.25
569.933	21.09
570.357	20.92
570.78	20.73
571.204	20.58
571.627	20.43
572.05	20.27
572.474	20.13
572.897	19.96
573.32	19.81
573.743	19.66
574.166	19.51
574.589	19.36
575.012	19.23
575.435	19.11
575.858	18.98
576.281	18.85
576.704	18.71
577.126	18.57
577.549	18.46
577.972	18.34
578.394	18.22
578.817	18.11
579.239	18
579.661	17.89
580.084	17.79
580.506	17.7
580.928	17.59
581.35	17.5
581.772	17.41
582.194	17.33
582.616	17.23
583.038	17.15
583.46	17.06
583.882	16.97
584.303	16.89
584.725	16.81
585.147	16.73
585.568	16.67
585.99	16.59
586.411	16.53
586.833	16.45
587.254	16.38
587.675	16.32
588.096	16.26
588.518	16.21
588.939	16.16
589.36	16.1
589.781	16.05
590.202	15.98
590.623	15.94
591.043	15.87
591.464	15.83
591.885	15.79
592.305	15.74
592.726	15.72
593.147	15.66
593.567	15.62
593.987	15.57
594.408	15.52
594.828	15.49
595.248	15.46
595.669	15.43
596.089	15.39
596.509	15.35
596.929	15.31
597.349	15.25
597.769	15.21
598.189	15.17
598.608	15.15
599.028	15.11
599.448	15.07
599.867	15.02
600.287	14.97
600.706	14.93
601.126	14.88
601.545	14.84
601.965	14.8
602.384	14.75
602.803	14.69
603.222	14.62
603.641	14.56
604.061	14.51
604.48	14.45
604.898	14.37
605.317	14.31
605.736	14.24
606.155	14.16
606.574	14.08
606.992	14.01
607.411	13.95
607.829	13.85
608.248	13.76
608.666	13.68
609.085	13.6
609.503	13.54
609.921	13.45
610.339	13.37
610.758	13.31
611.176	13.23
611.594	13.17
612.012	13.08
612.43	13.02
612.847	12.95
613.265	12.88
613.683	12.82
614.101	12.75
614.518	12.69
614.936	12.62
615.353	12.53
615.771	12.47
616.188	12.39
616.606	12.34
617.023	12.28
617.44	12.23
617.857	12.17
618.274	12.1
618.691	12.04
619.108	11.99
619.525	11.95
619.942	11.91
620.359	11.88
620.776	11.85
621.192	11.82
621.609	11.8
622.026	11.75
622.442	11.73
622.859	11.71
623.275	11.69
623.691	11.68
624.108	11.67
624.524	11.66
624.94	11.64
625.356	11.63
625.772	11.61
626.188	11.61
626.604	11.6
627.02	11.59
627.436	11.6
627.852	11.59
628.268	11.58
628.683	11.56
629.099	11.54
629.514	11.52
629.93	11.51
630.345	11.48
630.761	11.45
631.176	11.42
631.591	11.37
632.007	11.32
632.422	11.28
632.837	11.23
633.252	11.17
633.667	11.1
634.082	11.03
634.497	10.95
634.911	10.88
635.326	10.79
635.741	10.71
636.155	10.62
636.57	10.52
636.984	10.41
637.399	10.3
637.813	10.2
638.228	10.1
638.642	10
639.056	9.88
639.47	9.77
639.884	9.66
640.298	9.54
640.712	9.43
641.126	9.33
641.54	9.22
641.954	9.11
642.368	9.01
642.781	8.9
643.195	8.8
643.609	8.71
644.022	8.62
644.436	8.53
644.849	8.44
645.262	8.36
645.676	8.29
646.089	8.22
646.502	8.17
646.915	8.11
647.328	8.05
647.741	8
648.154	7.96
648.567	7.92
648.98	7.89
649.393	7.85
649.805	7.83
650.218	7.79
650.631	7.77
651.043	7.73
651.456	7.71
651.868	7.68
652.28	7.66
652.693	7.64
653.105	7.62
653.517	7.58
653.929	7.56
654.341	7.52
654.753	7.47
655.165	7.43
655.577	7.39
655.989	7.34
656.401	7.31
656.813	7.26
657.224	7.2
657.636	7.14
658.047	7.1
658.459	7.05
658.87	7
659.282	6.95
659.693	6.9
660.104	6.84
660.515	6.78
660.926	6.74
661.338	6.68
661.749	6.64
662.159	6.6
662.57	6.56
662.981	6.53
663.392	6.48
663.803	6.46
664.213	6.43
664.624	6.41
665.035	6.39
665.445	6.36
665.855	6.34
666.266	6.34
666.676	6.33
667.086	6.31
667.497	6.3
667.907	6.3
668.317	6.3
668.727	6.29
669.137	6.29
669.547	6.3
669.956	6.31
670.366	6.32
670.776	6.32
671.186	6.34
671.595	6.35
672.005	6.35
672.414	6.37
672.824	6.38
673.233	6.4
673.642	6.43
674.052	6.45
674.461	6.47
674.87	6.5
675.279	6.52
675.688	6.55
676.097	6.59
676.506	6.61
676.915	6.65
677.323	6.69
677.732	6.73
678.141	6.77
678.549	6.8
678.958	6.84
679.366	6.89
679.775	6.93
680.183	6.98
680.592	7.04
681	7.1
681.408	7.16
681.816	7.23
682.224	7.31
682.632	7.39
683.04	7.48
683.448	7.6
683.856	7.71
684.264	7.84
684.671	7.97
685.079	8.12
685.487	8.31
685.894	8.51
686.302	8.73
686.709	8.98
687.116	9.26
687.524	9.56
687.931	9.89
688.338	10.26
688.745	10.65
689.152	11.06
689.559	11.52
689.966	11.98
690.373	12.49
690.78	13.02
691.187	13.57
691.593	14.14
692	14.71
692.407	15.31
692.813	15.92
693.22	16.53
693.626	17.19
694.032	17.84
694.439	18.52
694.845	19.19
695.251	19.86
695.657	20.53
696.063	21.23
696.469	21.93
696.875	22.62
697.281	23.32
697.687	24.03
698.093	24.72
698.498	25.39
698.904	26.06
699.31	26.71
699.715	27.38
700.12	28.02
700.526	28.64
700.931	29.27
701.337	29.89
701.742	30.48
702.147	31.07
702.552	31.65
702.957	32.21
703.362	32.75
703.767	33.28
704.172	33.82
704.577	34.34
704.981	34.87
705.386	35.36
705.791	35.87
706.195	36.36
706.6	36.84
707.004	37.31
707.408	37.78
707.813	38.26
708.217	38.7
708.621	39.16
709.025	39.58
709.43	40.01
709.834	40.44
710.237	40.86
710.641	41.28
711.045	41.69
711.449	42.1
711.853	42.51
712.256	42.88
712.66	43.29
713.064	43.65
713.467	44.01
713.87	44.36
714.274	44.7
714.677	45.03
715.08	45.34
715.484	45.66
715.887	45.98
716.29	46.25
716.693	46.6
717.096	46.89
717.499	47.2
717.901	47.54
718.304	47.84
718.707	48.14
719.109	48.44
719.512	48.73
719.915	49
720.317	49.24
720.719	49.49
721.122	49.7
721.524	49.95
721.926	50.18
722.328	50.39
722.731	50.58
723.133	50.78
723.535	50.97
723.937	51.15
724.338	51.33
724.74	51.55
725.142	51.8
725.544	51.98
725.945	52.16
726.347	52.3
726.748	52.43
727.15	52.57
727.551	52.75
727.952	52.91
728.354	53.07
728.755	53.19
729.156	53.31
729.557	53.36
729.958	53.46
730.359	53.55
730.76	53.68
731.161	53.81
731.562	53.95
731.962	54.02
732.363	54.11
732.763	54.18
733.164	54.28
733.564	54.37
733.965	54.46
734.365	54.56
734.766	54.67
735.166	54.76
735.566	54.84
735.966	54.91
736.366	54.99
736.766	55.05
737.166	55.13
737.566	55.18
737.966	55.24
738.365	55.31
738.765	55.37
739.165	55.4
739.564	55.43
739.964	55.47
740.363	55.49
740.763	55.53
741.162	55.58
741.561	55.61
741.96	55.64
742.36	55.7
742.759	55.73
743.158	55.76
743.557	55.77
743.955	55.81
744.354	55.84
744.753	55.9
745.152	55.96
745.55	55.99
745.949	56.03
746.348	56.09
746.746	56.08
747.144	56.1
747.543	56.11
747.941	56.17
748.339	56.18
748.737	56.16
749.136	56.15
749.534	56.12
749.932	56.12
750.33	56.11
750.727	56.13
751.125	56.14
751.523	56.13
751.921	56.14
752.318	56.13
752.716	56.15
753.113	56.18
753.511	56.22
753.908	56.25
754.305	56.26
754.703	56.25
755.1	56.22
755.497	56.25
755.894	56.27
756.291	56.28
756.688	56.25
757.085	56.25
757.482	56.24
757.878	56.22
758.275	56.21
758.672	56.21
759.068	56.26
759.465	56.28
759.861	56.27
760.258	56.27
760.654	56.26
761.05	56.3
761.447	56.31
761.843	56.31
762.239	56.28
762.635	56.28
763.031	56.27
763.427	56.22
763.822	56.23
764.218	56.23
764.614	56.24
765.01	56.22
765.405	56.18
765.801	56.15
766.196	56.16
766.592	56.15
766.987	56.15
767.382	56.14
767.778	56.15
768.173	56.12
768.568	56.09
768.963	56.09
769.358	56.1
769.753	56.11
770.148	56.13
770.542	56.12
770.937	56.14
771.332	56.14
771.726	56.16
772.121	56.15
772.515	56.13
772.91	56.12
773.304	56.1
773.699	56.1
774.093	56.09
774.487	56.06
774.881	56.07
775.275	56.06
775.669	56.05
776.063	56.02
776.457	56.01
776.851	56.01
777.245	55.98
777.638	55.98
778.032	55.97
778.425	56.01
778.819	56.01
779.212	56
779.606	55.98
779.999	55.99
780.392	56.01
780.786	56
781.179	56.02
