Data from C_1_DEC_ON_6N_Splice17_12-45-14-669.txt Node
Date: Sat Mar 07 12:45:14 EST 2020
User: sa697716
Spectrometer: NQ5500242
Trigger mode: 0
Integration Time (sec): 1.450000E-1
Scans to average: 20
Nonlinearity correction enabled: false
Boxcar width: 5
Storing dark spectrum: false
XAxis mode: Wavelengths
Number of Pixels in Spectrum: 512
>>>>>Begin Spectral Data<<<<<
187.83	120.34
188.298	119.76
188.766	98.6
189.233	78.11
189.701	63.01
190.169	91.66
190.636	57.07
191.104	-69.33
191.571	-179.14
192.039	-244.83
192.506	-1051.58
192.974	280.64
193.441	307.37
193.908	106.58
194.375	16.62
194.842	-71.34
195.31	-22.68
195.777	-183.76
196.244	10.43
196.711	30.67
197.177	33.04
197.644	31.72
198.111	31.5
198.578	31.93
199.045	31.49
199.511	31.45
199.978	31.51
200.445	31.49
200.911	30.87
201.378	30.7
201.844	30.3
202.31	29.35
202.777	29.29
203.243	28.99
203.709	28.23
204.176	28.11
204.642	27.92
205.108	27.7
205.574	27.4
206.04	27.04
206.506	26.57
206.972	26.48
207.438	26.32
207.903	25.66
208.369	24.96
208.835	24.44
209.301	23.78
209.766	22.84
210.232	21.78
210.697	20.99
211.163	20.67
211.628	20.02
212.094	19.07
212.559	18.56
213.024	18.13
213.49	17.63
213.955	17.11
214.42	16.56
214.885	16.09
215.35	15.39
215.815	14.25
216.28	13
216.745	11.62
217.21	10.34
217.675	9.04
218.14	7.96
218.604	7.04
219.069	6.29
219.534	5.66
219.998	5.11
220.463	4.68
220.927	4.28
221.392	3.96
221.856	3.73
222.32	3.51
222.785	3.34
223.249	3.16
223.713	3.01
224.177	2.89
224.642	2.76
225.106	2.62
225.57	2.5
226.034	2.42
226.497	2.33
226.961	2.24
227.425	2.17
227.889	2.1
228.353	2.04
228.816	1.97
229.28	1.91
229.744	1.86
230.207	1.82
230.671	1.77
231.134	1.74
231.597	1.71
232.061	1.67
232.524	1.63
232.987	1.6
233.45	1.59
233.914	1.56
234.377	1.54
234.84	1.5
235.303	1.5
235.766	1.49
236.229	1.46
236.691	1.43
237.154	1.42
237.617	1.41
238.08	1.39
238.542	1.36
239.005	1.35
239.468	1.33
239.93	1.33
240.393	1.31
240.855	1.29
241.317	1.28
241.78	1.27
242.242	1.25
242.704	1.24
243.166	1.23
243.629	1.22
244.091	1.2
244.553	1.19
245.015	1.17
245.477	1.16
245.939	1.15
246.4	1.14
246.862	1.13
247.324	1.12
247.786	1.11
248.247	1.09
248.709	1.08
249.17	1.06
249.632	1.06
250.093	1.06
250.555	1.06
251.016	1.06
251.477	1.05
251.939	1.04
252.4	1.04
252.861	1.03
253.322	1.02
253.783	1.02
254.244	1.02
254.705	1.01
255.166	1
255.627	0.99
256.088	0.99
256.549	0.98
257.009	0.97
257.47	0.96
257.931	0.95
258.391	0.94
258.852	0.92
259.312	0.92
259.773	0.9
260.233	0.9
260.694	0.9
261.154	0.89
261.614	0.87
262.074	0.86
262.534	0.85
262.994	0.85
263.455	0.85
263.915	0.84
264.374	0.83
264.834	0.82
265.294	0.81
265.754	0.81
266.214	0.8
266.673	0.8
267.133	0.8
267.593	0.79
268.052	0.79
268.512	0.79
268.971	0.79
269.431	0.78
269.89	0.78
270.349	0.78
270.809	0.78
271.268	0.78
271.727	0.78
272.186	0.78
272.645	0.78
273.104	0.77
273.563	0.77
274.022	0.76
274.481	0.77
274.94	0.77
275.399	0.77
275.857	0.76
276.316	0.76
276.775	0.77
277.233	0.77
277.692	0.77
278.15	0.77
278.609	0.78
279.067	0.78
279.525	0.78
279.984	0.79
280.442	0.79
280.9	0.79
281.358	0.79
281.816	0.79
282.274	0.79
282.732	0.79
283.19	0.79
283.648	0.79
284.106	0.78
284.564	0.79
285.021	0.79
285.479	0.79
285.937	0.79
286.394	0.8
286.852	0.79
287.309	0.79
287.767	0.78
288.224	0.79
288.682	0.78
289.139	0.78
289.596	0.77
290.053	0.76
290.511	0.76
290.968	0.75
291.425	0.74
291.882	0.74
292.339	0.74
292.796	0.74
293.252	0.74
293.709	0.74
294.166	0.74
294.623	0.74
295.079	0.74
295.536	0.75
295.992	0.74
296.449	0.74
296.905	0.75
297.362	0.74
297.818	0.73
298.274	0.73
298.731	0.73
299.187	0.73
299.643	0.72
300.099	0.72
300.555	0.72
301.011	0.72
301.467	0.71
301.923	0.71
302.379	0.71
302.835	0.72
303.291	0.72
303.746	0.72
304.202	0.72
304.658	0.72
305.113	0.72
305.569	0.72
306.024	0.73
306.479	0.73
306.935	0.73
307.39	0.74
307.845	0.74
308.301	0.75
308.756	0.75
309.211	0.75
309.666	0.75
310.121	0.76
310.576	0.76
311.031	0.77
311.486	0.77
311.94	0.78
312.395	0.77
312.85	0.77
313.305	0.77
313.759	0.77
314.214	0.77
314.668	0.77
315.123	0.77
315.577	0.77
316.032	0.77
316.486	0.76
316.94	0.77
317.394	0.77
317.849	0.77
318.303	0.76
318.757	0.76
319.211	0.76
319.665	0.75
320.119	0.75
320.572	0.75
321.026	0.75
321.48	0.75
321.934	0.74
322.387	0.74
322.841	0.74
323.295	0.74
323.748	0.74
324.202	0.75
324.655	0.75
325.108	0.75
325.562	0.75
326.015	0.75
326.468	0.75
326.921	0.75
327.374	0.75
327.827	0.76
328.28	0.76
328.733	0.76
329.186	0.76
329.639	0.76
330.092	0.77
330.545	0.77
330.997	0.76
331.45	0.77
331.903	0.78
332.355	0.79
332.808	0.78
333.26	0.78
333.713	0.78
334.165	0.78
334.617	0.78
335.069	0.77
335.522	0.78
335.974	0.78
336.426	0.78
336.878	0.77
337.33	0.77
337.782	0.77
338.234	0.78
338.686	0.79
339.137	0.8
339.589	0.8
340.041	0.8
340.493	0.8
340.944	0.79
341.396	0.79
341.847	0.8
342.299	0.79
342.75	0.78
343.201	0.78
343.653	0.77
344.104	0.76
344.555	0.76
345.006	0.76
345.457	0.75
345.908	0.75
346.359	0.75
346.81	0.75
347.261	0.75
347.712	0.75
348.163	0.75
348.613	0.75
349.064	0.76
349.515	0.77
349.965	0.76
350.416	0.76
350.866	0.76
351.317	0.75
351.767	0.76
352.217	0.76
352.668	0.76
353.118	0.76
353.568	0.76
354.018	0.76
354.468	0.76
354.918	0.76
355.368	0.78
355.818	0.79
356.268	0.78
356.718	0.78
357.168	0.78
357.617	0.78
358.067	0.78
358.517	0.8
358.966	0.81
359.416	0.81
359.865	0.81
360.315	0.81
360.764	0.82
361.213	0.82
361.663	0.82
362.112	0.83
362.561	0.83
363.01	0.83
363.459	0.81
363.908	0.81
364.357	0.81
364.806	0.8
365.255	0.8
365.703	0.8
366.152	0.81
366.601	0.82
367.05	0.81
367.498	0.81
367.947	0.82
368.395	0.83
368.844	0.83
369.292	0.83
369.74	0.84
370.189	0.85
370.637	0.84
371.085	0.84
371.533	0.84
371.981	0.84
372.429	0.84
372.877	0.84
373.325	0.84
373.773	0.84
374.221	0.84
374.669	0.84
375.116	0.83
375.564	0.83
376.012	0.83
376.459	0.83
376.907	0.84
377.354	0.84
377.801	0.85
378.249	0.86
378.696	0.86
379.143	0.87
379.591	0.88
380.038	0.9
380.485	0.92
380.932	0.93
381.379	0.96
381.826	0.98
382.273	1.01
382.72	1.03
383.166	1.06
383.613	1.1
384.06	1.14
384.506	1.19
384.953	1.26
385.4	1.35
385.846	1.46
386.292	1.57
386.739	1.7
387.185	1.84
387.631	1.98
388.078	2.11
388.524	2.21
388.97	2.31
389.416	2.44
389.862	2.63
390.308	2.86
390.754	3.11
391.2	3.37
391.645	3.58
392.091	3.78
392.537	4
392.983	4.31
393.428	4.78
393.874	5.35
394.319	5.97
394.765	6.59
395.21	7.22
395.655	7.88
396.101	8.59
396.546	9.39
396.991	10.29
397.436	11.26
397.881	12.21
398.326	13.1
398.771	13.94
399.216	14.7
399.661	15.39
400.106	16
400.551	16.53
400.995	17
401.44	17.43
401.885	17.85
402.329	18.26
402.774	18.71
403.218	19.23
403.663	19.78
404.107	20.39
404.551	21.02
404.995	21.61
405.44	22.18
405.884	22.8
406.328	23.49
406.772	24.27
407.216	25.09
407.66	25.83
408.104	26.49
408.547	27.06
408.991	27.61
409.435	28.19
409.879	28.88
410.322	29.67
410.766	30.48
411.209	31.25
411.653	31.92
412.096	32.5
412.54	33.06
412.983	33.62
413.426	34.27
413.869	34.92
414.312	35.52
414.756	36.06
415.199	36.51
415.642	36.89
416.085	37.2
416.527	37.41
416.97	37.52
417.413	37.54
417.856	37.52
418.298	37.49
418.741	37.48
419.184	37.56
419.626	37.74
420.069	37.95
420.511	38.18
420.953	38.44
421.396	38.83
421.838	39.33
422.28	39.88
422.722	40.47
423.164	41.02
423.606	41.48
424.048	41.84
424.49	41.91
424.932	41.66
425.374	41
425.816	40.12
426.258	39.2
426.699	38.63
427.141	38.63
427.582	39.05
428.024	39.71
428.465	40.4
428.907	40.97
429.348	41.56
429.789	42.47
430.231	43.96
430.672	45.93
431.113	48.07
431.554	50.04
431.995	51.55
432.436	52.63
432.877	53.45
433.318	54.15
433.759	54.97
434.2	55.99
434.64	57.16
435.081	58.24
435.522	59.15
435.962	59.9
436.403	60.48
436.843	60.97
437.284	61.55
437.724	62.26
438.164	63.12
438.604	64.1
439.045	65.1
439.485	65.97
439.925	66.72
440.365	67.33
440.805	67.78
441.245	68.22
441.685	68.61
442.125	69.04
442.564	69.54
443.004	70.15
443.444	70.8
443.883	71.48
444.323	72.2
444.762	72.87
445.202	73.66
445.641	74.61
446.081	75.77
446.52	76.97
446.959	78.04
447.398	78.8
447.837	79.17
448.276	79.29
448.716	79.33
449.154	79.35
449.593	79.42
450.032	79.3
450.471	79.03
450.91	78.62
451.349	78.21
451.787	77.87
452.226	77.69
452.664	77.61
453.103	77.61
453.541	77.57
453.98	77.39
454.418	77.1
454.856	76.8
455.295	76.55
455.733	76.29
456.171	76.11
456.609	75.99
457.047	75.88
457.485	75.91
457.923	76.05
458.361	76.29
458.798	76.62
459.236	76.96
459.674	77.32
460.111	77.69
460.549	78.11
460.987	78.53
461.424	78.94
461.862	79.35
462.299	79.7
462.736	80.06
463.173	80.51
463.611	81.09
464.048	81.83
464.485	82.72
464.922	83.61
465.359	84.49
465.796	85.25
466.233	86.03
466.67	86.89
467.106	88
467.543	89.18
467.98	90.35
468.416	91.32
468.853	92.22
469.29	93.05
469.726	93.94
470.162	94.87
470.599	95.8
471.035	96.6
471.471	97.21
471.907	97.53
472.344	97.76
472.78	97.94
473.216	98.22
473.652	98.46
474.088	98.59
474.523	98.7
474.959	98.66
475.395	98.64
475.831	98.59
476.266	98.56
476.702	98.56
477.138	98.45
477.573	98.24
478.008	97.89
478.444	97.44
478.879	96.91
479.314	96.23
479.75	95.5
480.185	94.63
480.62	93.55
481.055	92.05
481.49	90.16
481.925	88.13
482.36	86.26
482.795	84.72
483.229	83.49
483.664	82.47
484.099	81.54
484.534	80.77
484.968	80.22
485.403	79.96
485.837	80.16
486.271	80.67
486.706	81.24
487.14	81.63
487.574	81.75
488.009	81.7
488.443	81.64
488.877	81.61
489.311	81.56
489.745	81.54
490.179	81.53
490.613	81.5
491.046	81.51
491.48	81.59
491.914	81.81
492.348	82.14
492.781	82.48
493.215	82.74
493.648	82.88
494.082	82.97
494.515	83
494.948	83.02
495.382	83.01
495.815	82.95
496.248	82.9
496.681	82.73
497.114	82.51
497.547	82.28
497.98	82.23
498.413	82.34
498.846	82.52
499.279	82.67
499.711	82.74
500.144	82.91
500.577	83.22
501.009	83.67
501.442	84.32
501.874	84.97
502.306	85.62
502.739	86.1
503.171	86.48
503.603	86.8
504.036	87.19
504.468	87.68
504.9	88.15
505.332	88.55
505.764	88.85
506.196	89.09
506.627	89.38
507.059	89.75
507.491	90.19
507.923	90.59
508.354	91.02
508.786	91.35
509.217	91.57
509.649	91.73
510.08	91.92
510.512	92.14
510.943	92.42
511.374	92.59
511.805	92.5
512.237	92.14
512.668	91.73
513.099	91.34
513.53	91.07
513.961	90.89
514.391	90.85
514.822	90.95
515.253	91.1
515.684	91.29
516.114	91.63
516.545	92.14
516.975	93.01
517.406	93.99
517.836	94.95
518.267	95.76
518.697	96.49
519.127	97.17
519.558	97.82
519.988	98.39
520.418	98.87
520.848	99.25
521.278	99.53
521.708	99.59
522.138	99.44
522.567	99.24
522.997	99.11
523.427	99.13
523.857	99.21
524.286	99.27
524.716	99.39
525.145	99.45
525.575	99.53
526.004	99.75
526.433	100.14
526.863	100.78
527.292	101.39
527.721	101.81
528.15	101.97
528.579	101.91
529.008	101.79
529.437	101.57
529.866	101.38
530.295	101.24
530.724	101.15
531.152	101.07
531.581	100.95
532.01	100.8
532.438	100.7
532.867	100.71
533.295	100.79
533.723	100.88
534.152	100.92
534.58	100.91
535.008	100.71
535.436	100.38
535.865	99.92
536.293	99.43
536.721	99.12
537.149	98.98
537.576	98.92
538.004	98.9
538.432	98.8
538.86	98.76
539.287	98.8
539.715	99.08
540.143	99.39
540.57	99.84
540.998	100.34
541.425	100.78
541.852	101.21
542.28	101.6
542.707	101.91
543.134	102.23
543.561	102.51
543.988	102.8
544.415	103.03
544.842	103.33
545.269	103.64
545.696	103.93
546.123	104.23
546.549	104.48
546.976	104.72
547.403	105.01
547.829	105.33
548.256	105.67
548.682	105.91
549.108	106.2
549.535	106.47
549.961	106.66
550.387	106.88
550.813	107.11
551.24	107.33
551.666	107.45
552.092	107.5
552.518	107.47
552.943	107.41
553.369	107.36
553.795	107.21
554.221	106.92
554.646	106.55
555.072	106.11
555.498	105.66
555.923	105.28
556.349	105
556.774	104.75
557.199	104.5
557.625	104.26
558.05	104.05
558.475	103.85
558.9	103.72
559.325	103.63
559.75	103.49
560.175	103.31
560.6	103.03
561.025	102.59
561.449	102.05
561.874	101.53
562.299	101.04
562.723	100.54
563.148	100
563.572	99.41
563.997	98.8
564.421	98.13
564.846	97.52
565.27	96.91
565.694	96.32
566.118	95.7
566.542	95.1
566.966	94.46
567.39	93.87
567.814	93.36
568.238	92.97
568.662	92.66
569.086	92.45
569.509	92.24
569.933	92.03
570.357	91.87
570.78	91.76
571.204	91.69
571.627	91.65
572.05	91.58
572.474	91.51
572.897	91.44
573.32	91.27
573.743	91.09
574.166	90.91
574.589	90.8
575.012	90.75
575.435	90.82
575.858	90.91
576.281	91.05
576.704	91.22
577.126	91.37
577.549	91.55
577.972	91.85
578.394	92.21
578.817	92.6
579.239	93.02
579.661	93.41
580.084	93.75
580.506	94.07
580.928	94.29
581.35	94.46
581.772	94.6
582.194	94.76
582.616	94.93
583.038	95.08
583.46	95.19
583.882	95.15
584.303	94.92
584.725	94.53
585.147	94.09
585.568	93.81
585.99	93.69
586.411	93.69
586.833	93.7
587.254	93.69
587.675	93.73
588.096	93.79
588.518	93.99
588.939	94.41
589.36	94.97
589.781	95.58
590.202	96.06
590.623	96.39
591.043	96.57
591.464	96.73
591.885	96.85
592.305	96.95
592.726	97
593.147	96.96
593.567	96.87
593.987	96.73
594.408	96.57
594.828	96.45
595.248	96.31
595.669	96.09
596.089	95.79
596.509	95.48
596.929	95.09
597.349	94.68
597.769	94.27
598.189	93.89
598.608	93.63
599.028	93.38
599.448	93.14
599.867	92.91
600.287	92.79
600.706	92.62
601.126	92.44
601.545	92.33
601.965	92.26
602.384	92.22
602.803	92.17
603.222	92.04
603.641	91.91
604.061	91.79
604.48	91.62
604.898	91.44
605.317	91.31
605.736	91.18
606.155	91.04
606.574	90.88
606.992	90.77
607.411	90.64
607.829	90.54
608.248	90.44
608.666	90.31
609.085	90.2
609.503	90.04
609.921	89.94
610.339	89.84
610.758	89.75
611.176	89.63
611.594	89.47
612.012	89.28
612.43	89.04
612.847	88.88
613.265	88.75
613.683	88.69
614.101	88.69
614.518	88.65
614.936	88.62
615.353	88.55
615.771	88.59
616.188	88.65
616.606	88.74
617.023	88.86
617.44	88.92
617.857	88.9
618.274	88.83
618.691	88.7
619.108	88.56
619.525	88.36
619.942	88.18
620.359	87.9
620.776	87.58
621.192	87.27
621.609	86.97
622.026	86.68
622.442	86.49
622.859	86.28
623.275	86.05
623.691	85.82
624.108	85.61
624.524	85.43
624.94	85.29
625.356	85.14
625.772	85.01
626.188	84.91
626.604	84.77
627.02	84.61
627.436	84.46
627.852	84.4
628.268	84.37
628.683	84.39
629.099	84.41
629.514	84.43
629.93	84.48
630.345	84.57
630.761	84.63
631.176	84.7
631.591	84.72
632.007	84.78
632.422	84.84
632.837	84.9
633.252	84.95
633.667	84.99
634.082	85.05
634.497	85.13
634.911	85.13
635.326	85.09
635.741	85.07
636.155	85.04
636.57	84.96
636.984	84.87
637.399	84.73
637.813	84.59
638.228	84.42
638.642	84.26
639.056	84.09
639.47	84
639.884	83.87
640.298	83.75
640.712	83.68
641.126	83.56
641.54	83.43
641.954	83.29
642.368	83.12
642.781	82.96
643.195	82.79
643.609	82.58
644.022	82.37
644.436	82.15
644.849	81.89
645.262	81.56
645.676	81.3
646.089	81.14
646.502	81.04
646.915	80.97
647.328	80.85
647.741	80.75
648.154	80.68
648.567	80.58
648.98	80.53
649.393	80.55
649.805	80.61
650.218	80.61
650.631	80.42
651.043	80.07
651.456	79.39
651.868	78.47
652.28	77.5
652.693	76.69
653.105	76.05
653.517	75.58
653.929	75.21
654.341	74.92
654.753	74.71
655.165	74.62
655.577	74.71
655.989	75.13
656.401	75.83
656.813	76.59
657.224	77.2
657.636	77.64
658.047	77.94
658.459	78.08
658.87	78.11
659.282	78.1
659.693	78.04
660.104	77.91
660.515	77.78
660.926	77.67
661.338	77.52
661.749	77.32
662.159	77.12
662.57	76.91
662.981	76.72
663.392	76.53
663.803	76.36
664.213	76.18
664.624	76.05
665.035	75.89
665.445	75.68
665.855	75.47
666.266	75.29
666.676	75.08
667.086	74.79
667.497	74.54
667.907	74.31
668.317	74.06
668.727	73.83
669.137	73.55
669.547	73.33
669.956	73.08
670.366	72.86
670.776	72.64
671.186	72.45
671.595	72.31
672.005	72.15
672.414	72.03
672.824	71.87
673.233	71.74
673.642	71.64
674.052	71.51
674.461	71.38
674.87	71.27
675.279	71.18
675.688	71.1
676.097	71.02
676.506	70.94
676.915	70.86
677.323	70.82
677.732	70.8
678.141	70.74
678.549	70.7
678.958	70.69
679.366	70.64
679.775	70.54
680.183	70.45
680.592	70.41
681	70.37
681.408	70.3
681.816	70.09
682.224	69.57
682.632	68.68
683.04	67.52
683.448	66.39
683.856	65.38
684.264	64.48
684.671	63.62
685.079	62.76
685.487	61.97
685.894	61.32
686.302	60.87
686.709	60.8
687.116	61.19
687.524	61.94
687.931	62.76
688.338	63.52
688.745	64.25
689.152	64.94
689.559	65.63
689.966	66.26
690.373	66.81
690.78	67.3
691.187	67.72
691.593	68.14
692	68.49
692.407	68.81
692.813	69.16
693.22	69.43
693.626	69.7
694.032	69.93
694.439	70.12
694.845	70.33
695.251	70.53
695.657	70.7
696.063	70.8
696.469	70.85
696.875	70.83
697.281	70.75
697.687	70.69
698.093	70.63
698.498	70.63
698.904	70.67
699.31	70.72
699.715	70.8
700.12	70.93
700.526	71.12
700.931	71.31
701.337	71.51
701.742	71.7
702.147	71.94
702.552	72.17
702.957	72.36
703.362	72.57
703.767	72.7
704.172	72.82
704.577	72.88
704.981	72.92
705.386	72.97
705.791	73.06
706.195	73.18
706.6	73.25
707.004	73.3
707.408	73.33
707.813	73.33
708.217	73.35
708.621	73.38
709.025	73.4
709.43	73.4
709.834	73.44
710.237	73.37
710.641	73.28
711.045	73.22
711.449	73.14
711.853	73.01
712.256	72.78
712.66	72.41
713.064	71.89
713.467	71.27
713.87	70.55
714.274	69.64
714.677	68.75
715.08	67.81
715.484	66.88
715.887	66.03
716.29	65.3
716.693	64.79
717.096	64.63
717.499	64.69
717.901	64.95
718.304	65.32
718.707	65.81
719.109	66.26
719.512	66.62
719.915	66.98
720.317	67.24
720.719	67.39
721.122	67.46
721.524	67.33
721.926	67.17
722.328	66.93
722.731	66.67
723.133	66.45
723.535	66.29
723.937	66.24
724.338	66.15
724.74	66.12
725.142	66.16
725.544	66.15
725.945	66.18
726.347	66.13
726.748	66.07
727.15	66.02
727.551	66.1
727.952	66.21
728.354	66.38
728.755	66.65
729.156	66.96
729.557	67.23
729.958	67.54
730.359	67.84
730.76	68.14
731.161	68.38
731.562	68.65
731.962	68.77
732.363	68.88
732.763	68.95
733.164	68.97
733.564	68.92
733.965	68.82
734.365	68.67
734.766	68.46
735.166	68.24
735.566	68.11
735.966	67.97
736.366	67.86
736.766	67.67
737.166	67.47
737.566	67.26
737.966	67.07
738.365	66.93
738.765	66.87
739.165	66.84
739.564	66.83
739.964	66.78
740.363	66.67
740.763	66.6
741.162	66.57
741.561	66.55
741.96	66.53
742.36	66.52
742.759	66.47
743.158	66.4
743.557	66.28
743.955	66.18
744.354	66.07
744.753	66.02
745.152	65.92
745.55	65.79
745.949	65.65
746.348	65.51
746.746	65.32
747.144	65.13
747.543	64.92
747.941	64.73
748.339	64.51
748.737	64.32
749.136	64.13
749.534	63.95
749.932	63.82
750.33	63.69
750.727	63.56
751.125	63.43
751.523	63.3
751.921	63.16
752.318	63.01
752.716	62.88
753.113	62.73
753.511	62.56
753.908	62.41
754.305	62.13
754.703	61.52
755.1	60.33
755.497	58.37
755.894	55.59
756.291	52.3
756.688	48.79
757.085	45.48
757.482	42.44
757.878	39.6
758.275	36.77
758.672	33.95
759.068	31.46
759.465	29.57
759.861	28.67
760.258	28.79
760.654	29.69
761.05	31.02
761.447	32.37
761.843	33.64
762.239	34.94
762.635	36.47
763.031	38.27
763.427	40.27
763.822	42.39
764.218	44.48
764.614	46.43
765.01	48.2
765.405	49.8
765.801	51.25
766.196	52.56
766.592	53.61
766.987	54.44
767.382	55.09
767.778	55.57
768.173	55.91
768.568	56.12
768.963	56.29
769.358	56.43
769.753	56.52
770.148	56.52
770.542	56.46
770.937	56.41
