Data from C_1_HIR_IL_4N_Splice17_12-49-55-569.txt Node
Date: Sat Mar 07 12:49:55 EST 2020
User: sa697716
Spectrometer: NQ5500242
Trigger mode: 0
Integration Time (sec): 1.450000E-1
Scans to average: 20
Nonlinearity correction enabled: false
Boxcar width: 5
Storing dark spectrum: false
XAxis mode: Wavelengths
Number of Pixels in Spectrum: 512
>>>>>Begin Spectral Data<<<<<
187.83	118.88
188.298	129.01
188.766	110.92
189.233	89.6
189.701	94.56
190.169	107.94
190.636	115.22
191.104	156.03
191.571	48.07
192.039	-51.9
192.506	-373.21
192.974	186.88
193.441	257.08
193.908	103.01
194.375	46.96
194.842	16.95
195.31	1.64
195.777	-281.08
196.244	15.71
196.711	27.15
197.177	30.3
197.644	29.48
198.111	29.15
198.578	29.4
199.045	30.07
199.511	30.4
199.978	30.7
200.445	30.74
200.911	31.09
201.378	31.06
201.844	30.98
202.31	30.49
202.777	30.71
203.243	30.88
203.709	31.01
204.176	30.51
204.642	30.54
205.108	30.7
205.574	30.91
206.04	30.82
206.506	30.73
206.972	31
207.438	30.89
207.903	30.86
208.369	30.38
208.835	29.89
209.301	29.58
209.766	28.82
210.232	28.23
210.697	27.73
211.163	27.37
211.628	27.01
212.094	26.41
212.559	26.43
213.024	25.94
213.49	25.68
213.955	25.35
214.42	25.14
214.885	24.89
215.35	24.27
215.815	23.62
216.28	22.7
216.745	21.72
217.21	20.9
217.675	20.14
218.14	19.61
218.604	19.16
219.069	18.75
219.534	18.41
219.998	18.11
220.463	17.88
220.927	17.62
221.392	17.45
221.856	17.25
222.32	17.07
222.785	16.9
223.249	16.7
223.713	16.51
224.177	16.36
224.642	16.21
225.106	16.05
225.57	15.88
226.034	15.74
226.497	15.6
226.961	15.46
227.425	15.32
227.889	15.19
228.353	15.05
228.816	14.9
229.28	14.74
229.744	14.59
230.207	14.45
230.671	14.3
231.134	14.16
231.597	14.03
232.061	13.91
232.524	13.79
232.987	13.63
233.45	13.53
233.914	13.42
234.377	13.3
234.84	13.17
235.303	13.05
235.766	12.95
236.229	12.84
236.691	12.72
237.154	12.62
237.617	12.51
238.08	12.43
238.542	12.32
239.005	12.21
239.468	12.1
239.93	12.02
240.393	11.93
240.855	11.81
241.317	11.7
241.78	11.6
242.242	11.5
242.704	11.41
243.166	11.32
243.629	11.24
244.091	11.15
244.553	11.08
245.015	10.99
245.477	10.9
245.939	10.84
246.4	10.77
246.862	10.7
247.324	10.62
247.786	10.54
248.247	10.45
248.709	10.37
249.17	10.3
249.632	10.24
250.093	10.17
250.555	10.11
251.016	10.06
251.477	10
251.939	9.95
252.4	9.91
252.861	9.86
253.322	9.81
253.783	9.76
254.244	9.71
254.705	9.65
255.166	9.6
255.627	9.56
256.088	9.51
256.549	9.47
257.009	9.42
257.47	9.37
257.931	9.3
258.391	9.25
258.852	9.2
259.312	9.16
259.773	9.11
260.233	9.08
260.694	9.05
261.154	9.01
261.614	8.96
262.074	8.93
262.534	8.89
262.994	8.87
263.455	8.85
263.915	8.82
264.374	8.8
264.834	8.79
265.294	8.77
265.754	8.75
266.214	8.73
266.673	8.72
267.133	8.72
267.593	8.71
268.052	8.69
268.512	8.69
268.971	8.67
269.431	8.65
269.89	8.63
270.349	8.63
270.809	8.61
271.268	8.59
271.727	8.57
272.186	8.55
272.645	8.53
273.104	8.51
273.563	8.49
274.022	8.48
274.481	8.46
274.94	8.44
275.399	8.42
275.857	8.4
276.316	8.38
276.775	8.36
277.233	8.34
277.692	8.32
278.15	8.29
278.609	8.27
279.067	8.24
279.525	8.21
279.984	8.18
280.442	8.15
280.9	8.13
281.358	8.1
281.816	8.06
282.274	8.04
282.732	8.01
283.19	7.98
283.648	7.95
284.106	7.92
284.564	7.89
285.021	7.87
285.479	7.85
285.937	7.82
286.394	7.79
286.852	7.77
287.309	7.74
287.767	7.71
288.224	7.68
288.682	7.66
289.139	7.64
289.596	7.61
290.053	7.59
290.511	7.56
290.968	7.54
291.425	7.51
291.882	7.5
292.339	7.48
292.796	7.47
293.252	7.45
293.709	7.43
294.166	7.42
294.623	7.39
295.079	7.37
295.536	7.35
295.992	7.34
296.449	7.32
296.905	7.31
297.362	7.29
297.818	7.26
298.274	7.25
298.731	7.23
299.187	7.21
299.643	7.19
300.099	7.18
300.555	7.15
301.011	7.13
301.467	7.11
301.923	7.08
302.379	7.06
302.835	7.04
303.291	7.02
303.746	7
304.202	6.99
304.658	6.97
305.113	6.95
305.569	6.94
306.024	6.92
306.479	6.91
306.935	6.89
307.39	6.87
307.845	6.85
308.301	6.83
308.756	6.83
309.211	6.81
309.666	6.8
310.121	6.78
310.576	6.76
311.031	6.75
311.486	6.73
311.94	6.72
312.395	6.71
312.85	6.7
313.305	6.68
313.759	6.67
314.214	6.66
314.668	6.63
315.123	6.62
315.577	6.61
316.032	6.6
316.486	6.59
316.94	6.58
317.394	6.56
317.849	6.55
318.303	6.53
318.757	6.5
319.211	6.47
319.665	6.45
320.119	6.44
320.572	6.41
321.026	6.41
321.48	6.38
321.934	6.37
322.387	6.35
322.841	6.33
323.295	6.33
323.748	6.33
324.202	6.32
324.655	6.31
325.108	6.3
325.562	6.29
326.015	6.27
326.468	6.26
326.921	6.25
327.374	6.24
327.827	6.24
328.28	6.23
328.733	6.22
329.186	6.21
329.639	6.2
330.092	6.18
330.545	6.19
330.997	6.18
331.45	6.18
331.903	6.17
332.355	6.16
332.808	6.15
333.26	6.13
333.713	6.13
334.165	6.11
334.617	6.11
335.069	6.1
335.522	6.09
335.974	6.09
336.426	6.07
336.878	6.07
337.33	6.05
337.782	6.05
338.234	6.04
338.686	6.03
339.137	6.04
339.589	6.02
340.041	6.01
340.493	6
340.944	5.98
341.396	5.98
341.847	5.97
342.299	5.96
342.75	5.94
343.201	5.92
343.653	5.9
344.104	5.88
344.555	5.86
345.006	5.85
345.457	5.84
345.908	5.84
346.359	5.82
346.81	5.8
347.261	5.8
347.712	5.8
348.163	5.78
348.613	5.78
349.064	5.79
349.515	5.78
349.965	5.77
350.416	5.76
350.866	5.75
351.317	5.74
351.767	5.73
352.217	5.72
352.668	5.72
353.118	5.72
353.568	5.71
354.018	5.7
354.468	5.7
354.918	5.7
355.368	5.69
355.818	5.69
356.268	5.69
356.718	5.69
357.168	5.69
357.617	5.68
358.067	5.67
358.517	5.68
358.966	5.67
359.416	5.66
359.865	5.66
360.315	5.65
360.764	5.65
361.213	5.64
361.663	5.63
362.112	5.63
362.561	5.64
363.01	5.64
363.459	5.62
363.908	5.62
364.357	5.62
364.806	5.62
365.255	5.61
365.703	5.62
366.152	5.63
366.601	5.65
367.05	5.65
367.498	5.63
367.947	5.63
368.395	5.64
368.844	5.64
369.292	5.65
369.74	5.65
370.189	5.65
370.637	5.64
371.085	5.62
371.533	5.61
371.981	5.61
372.429	5.61
372.877	5.61
373.325	5.6
373.773	5.6
374.221	5.6
374.669	5.6
375.116	5.59
375.564	5.6
376.012	5.6
376.459	5.61
376.907	5.61
377.354	5.61
377.801	5.61
378.249	5.62
378.696	5.63
379.143	5.63
379.591	5.63
380.038	5.65
380.485	5.64
380.932	5.65
381.379	5.65
381.826	5.66
382.273	5.67
382.72	5.66
383.166	5.67
383.613	5.67
384.06	5.68
384.506	5.69
384.953	5.7
385.4	5.71
385.846	5.73
386.292	5.73
386.739	5.73
387.185	5.74
387.631	5.76
388.078	5.77
388.524	5.79
388.97	5.8
389.416	5.82
389.862	5.82
390.308	5.83
390.754	5.84
391.2	5.86
391.645	5.88
392.091	5.9
392.537	5.9
392.983	5.91
393.428	5.92
393.874	5.92
394.319	5.93
394.765	5.94
395.21	5.94
395.655	5.94
396.101	5.96
396.546	5.96
396.991	5.98
397.436	6
397.881	6.01
398.326	6.03
398.771	6.04
399.216	6.05
399.661	6.07
400.106	6.09
400.551	6.12
400.995	6.12
401.44	6.13
401.885	6.15
402.329	6.15
402.774	6.17
403.218	6.18
403.663	6.19
404.107	6.21
404.551	6.23
404.995	6.23
405.44	6.23
405.884	6.25
406.328	6.26
406.772	6.25
407.216	6.26
407.66	6.26
408.104	6.27
408.547	6.28
408.991	6.29
409.435	6.29
409.879	6.29
410.322	6.3
410.766	6.32
411.209	6.33
411.653	6.36
412.096	6.36
412.54	6.38
412.983	6.38
413.426	6.41
413.869	6.41
414.312	6.43
414.756	6.44
415.199	6.45
415.642	6.45
416.085	6.45
416.527	6.44
416.97	6.44
417.413	6.43
417.856	6.44
418.298	6.44
418.741	6.45
419.184	6.46
419.626	6.45
420.069	6.46
420.511	6.46
420.953	6.46
421.396	6.47
421.838	6.5
422.28	6.52
422.722	6.53
423.164	6.52
423.606	6.52
424.048	6.51
424.49	6.52
424.932	6.52
425.374	6.51
425.816	6.5
426.258	6.5
426.699	6.48
427.141	6.47
427.582	6.46
428.024	6.45
428.465	6.46
428.907	6.45
429.348	6.44
429.789	6.44
430.231	6.46
430.672	6.48
431.113	6.48
431.554	6.49
431.995	6.49
432.436	6.49
432.877	6.5
433.318	6.5
433.759	6.53
434.2	6.56
434.64	6.59
435.081	6.58
435.522	6.59
435.962	6.61
436.403	6.63
436.843	6.64
437.284	6.64
437.724	6.66
438.164	6.66
438.604	6.66
439.045	6.64
439.485	6.63
439.925	6.63
440.365	6.62
440.805	6.61
441.245	6.63
441.685	6.64
442.125	6.65
442.564	6.65
443.004	6.65
443.444	6.65
443.883	6.66
444.323	6.66
444.762	6.67
445.202	6.68
445.641	6.7
446.081	6.71
446.52	6.71
446.959	6.72
447.398	6.73
447.837	6.74
448.276	6.74
448.716	6.77
449.154	6.79
449.593	6.8
450.032	6.8
450.471	6.79
450.91	6.77
451.349	6.79
451.787	6.79
452.226	6.79
452.664	6.79
453.103	6.79
453.541	6.78
453.98	6.79
454.418	6.78
454.856	6.78
455.295	6.77
455.733	6.76
456.171	6.76
456.609	6.75
457.047	6.75
457.485	6.73
457.923	6.74
458.361	6.73
458.798	6.72
459.236	6.73
459.674	6.72
460.111	6.72
460.549	6.73
460.987	6.73
461.424	6.74
461.862	6.74
462.299	6.76
462.736	6.76
463.173	6.77
463.611	6.78
464.048	6.77
464.485	6.77
464.922	6.77
465.359	6.77
465.796	6.78
466.233	6.79
466.67	6.79
467.106	6.8
467.543	6.78
467.98	6.78
468.416	6.78
468.853	6.79
469.29	6.78
469.726	6.79
470.162	6.79
470.599	6.8
471.035	6.79
471.471	6.77
471.907	6.77
472.344	6.78
472.78	6.78
473.216	6.77
473.652	6.79
474.088	6.78
474.523	6.78
474.959	6.78
475.395	6.75
475.831	6.76
476.266	6.76
476.702	6.75
477.138	6.74
477.573	6.74
478.008	6.74
478.444	6.72
478.879	6.73
479.314	6.72
479.75	6.71
480.185	6.7
480.62	6.7
481.055	6.68
481.49	6.67
481.925	6.68
482.36	6.68
482.795	6.67
483.229	6.67
483.664	6.66
484.099	6.66
484.534	6.66
484.968	6.66
485.403	6.67
485.837	6.69
486.271	6.7
486.706	6.71
487.14	6.72
487.574	6.72
488.009	6.74
488.443	6.75
488.877	6.77
489.311	6.79
489.745	6.82
490.179	6.84
490.613	6.87
491.046	6.9
491.48	6.93
491.914	6.95
492.348	6.98
492.781	7.02
493.215	7.06
493.648	7.09
494.082	7.13
494.515	7.16
494.948	7.21
495.382	7.24
495.815	7.28
496.248	7.33
496.681	7.37
497.114	7.41
497.547	7.47
497.98	7.52
498.413	7.57
498.846	7.63
499.279	7.69
499.711	7.75
500.144	7.82
500.577	7.9
501.009	7.97
501.442	8.05
501.874	8.15
502.306	8.23
502.739	8.34
503.171	8.44
503.603	8.53
504.036	8.64
504.468	8.75
504.9	8.85
505.332	8.96
505.764	9.09
506.196	9.21
506.627	9.34
507.059	9.48
507.491	9.6
507.923	9.75
508.354	9.9
508.786	10.07
509.217	10.23
509.649	10.4
510.08	10.58
510.512	10.75
510.943	10.93
511.374	11.12
511.805	11.3
512.237	11.49
512.668	11.68
513.099	11.88
513.53	12.07
513.961	12.28
514.391	12.49
514.822	12.7
515.253	12.91
515.684	13.13
516.114	13.36
516.545	13.58
516.975	13.81
517.406	14.04
517.836	14.26
518.267	14.5
518.697	14.71
519.127	14.93
519.558	15.15
519.988	15.36
520.418	15.58
520.848	15.79
521.278	16
521.708	16.34
522.138	16.55
522.567	16.75
522.997	16.94
523.427	17.14
523.857	17.32
524.286	17.51
524.716	17.69
525.145	17.87
525.575	18.05
526.004	18.21
526.433	18.24
526.863	18.39
527.292	18.55
527.721	18.69
528.15	18.82
528.579	18.97
529.008	19.11
529.437	19.23
529.866	19.33
530.295	19.45
530.724	19.55
531.152	19.64
531.581	19.74
532.01	19.84
532.438	19.92
532.867	20.01
533.295	20.08
533.723	20.15
534.152	20.21
534.58	20.3
535.008	20.35
535.436	20.41
535.865	20.46
536.293	20.51
536.721	20.55
537.149	20.6
537.576	20.63
538.004	20.69
538.432	20.73
538.86	20.77
539.287	20.79
539.715	20.84
540.143	20.87
540.57	20.91
540.998	20.95
541.425	20.98
541.852	21.02
542.28	21.06
542.707	21.06
543.134	21.09
543.561	21.12
543.988	21.16
544.415	21.18
544.842	21.2
545.269	21.23
545.696	21.25
546.123	21.27
546.549	21.29
546.976	21.3
547.403	21.33
547.829	21.34
548.256	21.36
548.682	21.36
549.108	21.37
549.535	21.38
549.961	21.37
550.387	21.36
550.813	21.38
551.24	21.37
551.666	21.37
552.092	21.36
552.518	21.34
552.943	21.32
553.369	21.31
553.795	21.27
554.221	21.26
554.646	21.23
555.072	21.2
555.498	21.15
555.923	21.12
556.349	21.06
556.774	21.01
557.199	20.95
557.625	20.9
558.05	20.85
558.475	20.79
558.9	20.72
559.325	20.67
559.75	20.6
560.175	20.52
560.6	20.43
561.025	20.37
561.449	20.29
561.874	20.21
562.299	20.12
562.723	20.02
563.148	19.93
563.572	19.82
563.997	19.71
564.421	19.6
564.846	19.51
565.27	19.4
565.694	19.3
566.118	19.17
566.542	19.06
566.966	18.93
567.39	18.81
567.814	18.7
568.238	18.6
568.662	18.49
569.086	18.37
569.509	18.25
569.933	18.15
570.357	18.03
570.78	17.93
571.204	17.83
571.627	17.72
572.05	17.61
572.474	17.51
572.897	17.39
573.32	17.29
573.743	17.19
574.166	17.08
574.589	16.98
575.012	16.88
575.435	16.77
575.858	16.68
576.281	16.6
576.704	16.51
577.126	16.41
577.549	16.32
577.972	16.25
578.394	16.17
578.817	16.1
579.239	16.03
579.661	15.95
580.084	15.89
580.506	15.82
580.928	15.75
581.35	15.69
581.772	15.63
582.194	15.56
582.616	15.49
583.038	15.44
583.46	15.38
583.882	15.31
584.303	15.25
584.725	15.19
585.147	15.13
585.568	15.08
585.99	15.01
586.411	14.96
586.833	14.9
587.254	14.85
587.675	14.79
588.096	14.74
588.518	14.7
588.939	14.68
589.36	14.65
589.781	14.61
590.202	14.58
590.623	14.56
591.043	14.52
591.464	14.49
591.885	14.47
592.305	14.45
592.726	14.43
593.147	14.4
593.567	14.36
593.987	14.33
594.408	14.31
594.828	14.26
595.248	14.24
595.669	14.22
596.089	14.19
596.509	14.16
596.929	14.16
597.349	14.12
597.769	14.1
598.189	14.08
598.608	14.06
599.028	14.03
599.448	14.01
599.867	13.97
600.287	13.94
600.706	13.91
601.126	13.88
601.545	13.83
601.965	13.81
602.384	13.77
602.803	13.72
603.222	13.68
603.641	13.64
604.061	13.61
604.48	13.56
604.898	13.52
605.317	13.48
605.736	13.43
606.155	13.38
606.574	13.32
606.992	13.27
607.411	13.22
607.829	13.13
608.248	13.06
608.666	13
609.085	12.94
609.503	12.88
609.921	12.82
610.339	12.75
610.758	12.69
611.176	12.61
611.594	12.55
612.012	12.48
612.43	12.45
612.847	12.39
613.265	12.33
613.683	12.28
614.101	12.22
614.518	12.16
614.936	12.1
615.353	12.04
615.771	11.99
616.188	11.94
616.606	11.89
617.023	11.83
617.44	11.8
617.857	11.76
618.274	11.71
618.691	11.66
619.108	11.62
619.525	11.58
619.942	11.56
620.359	11.54
620.776	11.52
621.192	11.49
621.609	11.46
622.026	11.43
622.442	11.42
622.859	11.4
623.275	11.38
623.691	11.37
624.108	11.36
624.524	11.34
624.94	11.32
625.356	11.31
625.772	11.32
626.188	11.3
626.604	11.29
627.02	11.27
627.436	11.25
627.852	11.24
628.268	11.23
628.683	11.23
629.099	11.22
629.514	11.21
629.93	11.2
630.345	11.18
630.761	11.17
631.176	11.16
631.591	11.13
632.007	11.11
632.422	11.08
632.837	11.04
633.252	11
633.667	10.95
634.082	10.89
634.497	10.84
634.911	10.79
635.326	10.72
635.741	10.67
636.155	10.6
636.57	10.54
636.984	10.48
637.399	10.4
637.813	10.32
638.228	10.25
638.642	10.17
639.056	10.08
639.47	10
639.884	9.93
640.298	9.84
640.712	9.77
641.126	9.69
641.54	9.61
641.954	9.52
642.368	9.44
642.781	9.37
643.195	9.29
643.609	9.21
644.022	9.14
644.436	9.07
644.849	8.99
645.262	8.93
645.676	8.85
646.089	8.79
646.502	8.74
646.915	8.69
647.328	8.63
647.741	8.59
648.154	8.55
648.567	8.5
648.98	8.46
649.393	8.42
649.805	8.39
650.218	8.37
650.631	8.34
651.043	8.31
651.456	8.28
651.868	8.26
652.28	8.22
652.693	8.19
653.105	8.15
653.517	8.12
653.929	8.08
654.341	8.04
654.753	8
655.165	7.95
655.577	7.91
655.989	7.86
656.401	7.8
656.813	7.77
657.224	7.72
657.636	7.66
658.047	7.62
658.459	7.56
658.87	7.49
659.282	7.43
659.693	7.38
660.104	7.31
660.515	7.26
660.926	7.2
661.338	7.14
661.749	7.09
662.159	7.04
662.57	7.01
662.981	6.96
663.392	6.93
663.803	6.89
664.213	6.85
664.624	6.81
665.035	6.77
665.445	6.76
665.855	6.73
666.266	6.7
666.676	6.67
667.086	6.64
667.497	6.62
667.907	6.61
668.317	6.59
668.727	6.57
669.137	6.56
669.547	6.55
669.956	6.53
670.366	6.53
670.776	6.53
671.186	6.53
671.595	6.54
672.005	6.52
672.414	6.53
672.824	6.53
673.233	6.54
673.642	6.55
674.052	6.56
674.461	6.56
674.87	6.57
675.279	6.59
675.688	6.6
676.097	6.61
676.506	6.63
676.915	6.65
677.323	6.67
677.732	6.68
678.141	6.7
678.549	6.72
678.958	6.75
679.366	6.78
679.775	6.8
680.183	6.84
680.592	6.91
681	6.96
681.408	7
681.816	7.07
682.224	7.14
682.632	7.22
683.04	7.31
683.448	7.38
683.856	7.47
684.264	7.58
684.671	7.71
685.079	7.82
685.487	7.97
685.894	8.14
686.302	8.32
686.709	8.51
687.116	8.73
687.524	8.96
687.931	9.23
688.338	9.5
688.745	9.79
689.152	10.09
689.559	10.42
689.966	10.76
690.373	11.11
690.78	11.49
691.187	11.88
691.593	12.27
692	12.67
692.407	13.07
692.813	13.51
693.22	13.94
693.626	14.37
694.032	14.81
694.439	15.24
694.845	15.7
695.251	16.13
695.657	16.57
696.063	17.02
696.469	17.49
696.875	17.94
697.281	18.38
697.687	18.82
698.093	19.28
698.498	19.72
698.904	20.14
699.31	20.56
699.715	21
700.12	21.43
700.526	21.84
700.931	22.24
701.337	22.63
701.742	23.01
702.147	23.39
702.552	23.76
702.957	24.11
703.362	24.49
703.767	24.84
704.172	25.18
704.577	25.51
704.981	25.83
705.386	26.16
705.791	26.48
706.195	26.81
706.6	27.15
707.004	27.43
707.408	27.75
707.813	28.04
708.217	28.33
708.621	28.63
709.025	28.91
709.43	29.18
709.834	29.46
710.237	29.73
710.641	29.98
711.045	30.23
711.449	30.52
711.853	30.78
712.256	31.03
712.66	31.26
713.064	31.49
713.467	31.73
713.87	31.97
714.274	32.17
714.677	32.39
715.08	32.61
715.484	32.81
715.887	33.03
716.29	33.22
716.693	33.43
717.096	33.62
717.499	33.83
717.901	34.02
718.304	34.2
718.707	34.4
719.109	34.58
719.512	34.77
719.915	34.95
720.317	35.11
720.719	35.25
721.122	35.4
721.524	35.57
721.926	35.71
722.328	35.88
722.731	36
723.133	36.16
723.535	36.3
723.937	36.42
724.338	36.54
724.74	36.64
725.142	36.83
725.544	36.94
725.945	37.07
726.347	37.15
726.748	37.24
727.15	37.35
727.551	37.44
727.952	37.51
728.354	37.62
728.755	37.71
729.156	37.81
729.557	37.82
729.958	37.89
730.359	37.95
730.76	38.06
731.161	38.13
731.562	38.2
731.962	38.25
732.363	38.33
732.763	38.39
733.164	38.43
733.564	38.49
733.965	38.56
734.365	38.62
734.766	38.67
735.166	38.72
735.566	38.77
735.966	38.84
736.366	38.9
736.766	38.92
737.166	38.95
737.566	39.01
737.966	39.05
738.365	39.09
738.765	39.13
739.165	39.14
739.564	39.17
739.964	39.21
740.363	39.23
740.763	39.26
741.162	39.3
741.561	39.32
741.96	39.32
742.36	39.36
742.759	39.39
743.158	39.42
743.557	39.45
743.955	39.47
744.354	39.49
744.753	39.5
745.152	39.53
745.55	39.56
745.949	39.6
746.348	39.65
746.746	39.65
747.144	39.68
747.543	39.68
747.941	39.72
748.339	39.72
748.737	39.72
749.136	39.72
749.534	39.71
749.932	39.71
750.33	39.73
750.727	39.74
751.125	39.74
751.523	39.75
751.921	39.78
752.318	39.8
752.716	39.82
753.113	39.83
753.511	39.84
753.908	39.87
754.305	39.89
754.703	39.88
755.1	39.87
755.497	39.86
755.894	39.83
756.291	39.8
756.688	39.75
757.085	39.71
757.482	39.69
757.878	39.67
758.275	39.63
758.672	39.59
759.068	39.58
759.465	39.55
759.861	39.53
760.258	39.55
760.654	39.56
761.05	39.58
761.447	39.6
761.843	39.62
762.239	39.62
762.635	39.61
763.031	39.64
763.427	39.64
763.822	39.66
764.218	39.7
764.614	39.71
765.01	39.7
765.405	39.7
765.801	39.7
766.196	39.73
766.592	39.74
766.987	39.77
767.382	39.76
767.778	39.79
768.173	39.79
768.568	39.77
768.963	39.76
769.358	39.8
769.753	39.81
770.148	39.79
770.542	39.77
770.937	39.78
771.332	39.77
771.726	39.76
772.121	39.75
772.515	39.75
772.91	39.75
773.304	39.75
773.699	39.71
774.093	39.71
774.487	39.73
774.881	39.75
775.275	39.72
775.669	39.69
776.063	39.66
776.457	39.67
776.851	39.65
777.245	39.65
777.638	39.61
778.032	39.62
778.425	39.63
778.819	39.62
779.212	39.63
779.606	39.66
779.999	39.68
780.392	39.72
780.786	39.72
781.179	39.75
