Data from C_1_DEC_NC_4N_Splice17_12-58-09-416.txt Node
Date: Sat Mar 07 12:58:09 EST 2020
User: sa697716
Spectrometer: NQ5500242
Trigger mode: 0
Integration Time (sec): 1.450000E-1
Scans to average: 20
Nonlinearity correction enabled: false
Boxcar width: 5
Storing dark spectrum: false
XAxis mode: Wavelengths
Number of Pixels in Spectrum: 512
>>>>>Begin Spectral Data<<<<<
187.83	124.58
188.298	136.94
188.766	102.06
189.233	90.53
189.701	70.25
190.169	81.6
190.636	46.65
191.104	10.83
191.571	-319.16
192.039	-267.65
192.506	-844.17
192.974	178.36
193.441	243.07
193.908	40.84
194.375	10.79
194.842	-73.78
195.31	-136.03
195.777	-485.33
196.244	17.42
196.711	39.16
197.177	44.13
197.644	45.36
198.111	46.6
198.578	47.08
199.045	47.71
199.511	47.92
199.978	47.82
200.445	48.16
200.911	48.15
201.378	48.13
201.844	48.43
202.31	48.03
202.777	47.99
203.243	47.77
203.709	47.51
204.176	47.12
204.642	46.87
205.108	46.97
205.574	46.75
206.04	46.62
206.506	46.47
206.972	46.15
207.438	46.01
207.903	45.6
208.369	45.03
208.835	44.33
209.301	43.6
209.766	42.79
210.232	41.69
210.697	40.93
211.163	39.99
211.628	39.14
212.094	38.04
212.559	37.58
213.024	36.72
213.49	36.17
213.955	35.5
214.42	34.67
214.885	33.97
215.35	32.96
215.815	31.65
216.28	30.07
216.745	28.37
217.21	26.61
217.675	24.88
218.14	23.5
218.604	22.28
219.069	21.31
219.534	20.56
219.998	19.86
220.463	19.31
220.927	18.77
221.392	18.34
221.856	18
222.32	17.71
222.785	17.42
223.249	17.19
223.713	16.91
224.177	16.67
224.642	16.43
225.106	16.14
225.57	15.87
226.034	15.68
226.497	15.45
226.961	15.23
227.425	15.04
227.889	14.84
228.353	14.63
228.816	14.45
229.28	14.25
229.744	14.07
230.207	13.91
230.671	13.74
231.134	13.55
231.597	13.42
232.061	13.26
232.524	13.09
232.987	12.93
233.45	12.8
233.914	12.63
234.377	12.49
234.84	12.33
235.303	12.21
235.766	12.09
236.229	11.97
236.691	11.83
237.154	11.7
237.617	11.59
238.08	11.47
238.542	11.33
239.005	11.24
239.468	11.13
239.93	11.04
240.393	10.94
240.855	10.81
241.317	10.69
241.78	10.59
242.242	10.48
242.704	10.38
243.166	10.28
243.629	10.2
244.091	10.11
244.553	10.01
245.015	9.91
245.477	9.81
245.939	9.72
246.4	9.64
246.862	9.55
247.324	9.47
247.786	9.38
248.247	9.3
248.709	9.21
249.17	9.12
249.632	9.05
250.093	8.98
250.555	8.91
251.016	8.85
251.477	8.78
251.939	8.72
252.4	8.67
252.861	8.62
253.322	8.57
253.783	8.51
254.244	8.47
254.705	8.41
255.166	8.35
255.627	8.29
256.088	8.24
256.549	8.19
257.009	8.13
257.47	8.07
257.931	8
258.391	7.94
258.852	7.89
259.312	7.83
259.773	7.78
260.233	7.74
260.694	7.69
261.154	7.64
261.614	7.59
262.074	7.55
262.534	7.52
262.994	7.49
263.455	7.45
263.915	7.41
264.374	7.39
264.834	7.36
265.294	7.33
265.754	7.3
266.214	7.28
266.673	7.26
267.133	7.25
267.593	7.23
268.052	7.21
268.512	7.19
268.971	7.18
269.431	7.16
269.89	7.13
270.349	7.12
270.809	7.1
271.268	7.09
271.727	7.07
272.186	7.04
272.645	7.03
273.104	7.01
273.563	6.99
274.022	6.97
274.481	6.96
274.94	6.94
275.399	6.92
275.857	6.9
276.316	6.88
276.775	6.87
277.233	6.86
277.692	6.84
278.15	6.82
278.609	6.81
279.067	6.79
279.525	6.77
279.984	6.75
280.442	6.74
280.9	6.73
281.358	6.71
281.816	6.69
282.274	6.67
282.732	6.64
283.19	6.62
283.648	6.59
284.106	6.57
284.564	6.55
285.021	6.54
285.479	6.51
285.937	6.47
286.394	6.46
286.852	6.42
287.309	6.4
287.767	6.38
288.224	6.35
288.682	6.32
289.139	6.29
289.596	6.26
290.053	6.22
290.511	6.19
290.968	6.17
291.425	6.14
291.882	6.13
292.339	6.11
292.796	6.1
293.252	6.08
293.709	6.07
294.166	6.05
294.623	6.04
295.079	6.02
295.536	6.01
295.992	5.99
296.449	5.98
296.905	5.96
297.362	5.94
297.818	5.93
298.274	5.92
298.731	5.9
299.187	5.88
299.643	5.86
300.099	5.85
300.555	5.83
301.011	5.81
301.467	5.8
301.923	5.79
302.379	5.77
302.835	5.76
303.291	5.75
303.746	5.74
304.202	5.74
304.658	5.73
305.113	5.72
305.569	5.71
306.024	5.7
306.479	5.69
306.935	5.68
307.39	5.67
307.845	5.66
308.301	5.65
308.756	5.64
309.211	5.63
309.666	5.63
310.121	5.62
310.576	5.61
311.031	5.6
311.486	5.6
311.94	5.59
312.395	5.58
312.85	5.58
313.305	5.56
313.759	5.55
314.214	5.54
314.668	5.53
315.123	5.52
315.577	5.5
316.032	5.49
316.486	5.47
316.94	5.46
317.394	5.44
317.849	5.42
318.303	5.41
318.757	5.38
319.211	5.37
319.665	5.35
320.119	5.34
320.572	5.32
321.026	5.31
321.48	5.3
321.934	5.28
322.387	5.27
322.841	5.25
323.295	5.25
323.748	5.24
324.202	5.23
324.655	5.22
325.108	5.21
325.562	5.21
326.015	5.2
326.468	5.2
326.921	5.19
327.374	5.18
327.827	5.18
328.28	5.18
328.733	5.17
329.186	5.16
329.639	5.16
330.092	5.15
330.545	5.15
330.997	5.14
331.45	5.14
331.903	5.14
332.355	5.15
332.808	5.14
333.26	5.13
333.713	5.13
334.165	5.12
334.617	5.12
335.069	5.12
335.522	5.11
335.974	5.11
336.426	5.11
336.878	5.1
337.33	5.08
337.782	5.09
338.234	5.09
338.686	5.08
339.137	5.08
339.589	5.06
340.041	5.05
340.493	5.03
340.944	5.01
341.396	5
341.847	4.99
342.299	4.96
342.75	4.95
343.201	4.93
343.653	4.91
344.104	4.89
344.555	4.88
345.006	4.87
345.457	4.86
345.908	4.85
346.359	4.86
346.81	4.85
347.261	4.84
347.712	4.83
348.163	4.82
348.613	4.82
349.064	4.82
349.515	4.82
349.965	4.82
350.416	4.81
350.866	4.81
351.317	4.79
351.767	4.8
352.217	4.79
352.668	4.79
353.118	4.79
353.568	4.79
354.018	4.8
354.468	4.8
354.918	4.79
355.368	4.8
355.818	4.81
356.268	4.8
356.718	4.8
357.168	4.8
357.617	4.8
358.067	4.79
358.517	4.79
358.966	4.8
359.416	4.8
359.865	4.79
360.315	4.79
360.764	4.79
361.213	4.78
361.663	4.77
362.112	4.78
362.561	4.79
363.01	4.79
363.459	4.78
363.908	4.77
364.357	4.76
364.806	4.77
365.255	4.77
365.703	4.77
366.152	4.78
366.601	4.79
367.05	4.79
367.498	4.78
367.947	4.78
368.395	4.78
368.844	4.79
369.292	4.78
369.74	4.79
370.189	4.78
370.637	4.77
371.085	4.76
371.533	4.76
371.981	4.76
372.429	4.76
372.877	4.76
373.325	4.75
373.773	4.75
374.221	4.75
374.669	4.75
375.116	4.75
375.564	4.74
376.012	4.76
376.459	4.76
376.907	4.76
377.354	4.77
377.801	4.79
378.249	4.8
378.696	4.8
379.143	4.81
379.591	4.82
380.038	4.83
380.485	4.85
380.932	4.86
381.379	4.87
381.826	4.88
382.273	4.89
382.72	4.89
383.166	4.9
383.613	4.93
384.06	4.92
384.506	4.94
384.953	4.96
385.4	4.99
385.846	5.01
386.292	5.03
386.739	5.05
387.185	5.07
387.631	5.09
388.078	5.12
388.524	5.13
388.97	5.17
389.416	5.2
389.862	5.23
390.308	5.26
390.754	5.31
391.2	5.34
391.645	5.38
392.091	5.43
392.537	5.47
392.983	5.5
393.428	5.55
393.874	5.59
394.319	5.62
394.765	5.66
395.21	5.7
395.655	5.72
396.101	5.76
396.546	5.79
396.991	5.83
397.436	5.87
397.881	5.93
398.326	5.96
398.771	6.01
399.216	6.04
399.661	6.08
400.106	6.1
400.551	6.12
400.995	6.15
401.44	6.18
401.885	6.2
402.329	6.22
402.774	6.24
403.218	6.27
403.663	6.29
404.107	6.32
404.551	6.34
404.995	6.36
405.44	6.39
405.884	6.4
406.328	6.42
406.772	6.43
407.216	6.44
407.66	6.45
408.104	6.45
408.547	6.46
408.991	6.46
409.435	6.47
409.879	6.48
410.322	6.5
410.766	6.53
411.209	6.55
411.653	6.57
412.096	6.58
412.54	6.6
412.983	6.62
413.426	6.65
413.869	6.67
414.312	6.71
414.756	6.72
415.199	6.72
415.642	6.72
416.085	6.72
416.527	6.71
416.97	6.71
417.413	6.71
417.856	6.7
418.298	6.69
418.741	6.69
419.184	6.68
419.626	6.69
420.069	6.69
420.511	6.69
420.953	6.69
421.396	6.71
421.838	6.7
422.28	6.7
422.722	6.73
423.164	6.71
423.606	6.71
424.048	6.7
424.49	6.69
424.932	6.68
425.374	6.65
425.816	6.62
426.258	6.59
426.699	6.58
427.141	6.57
427.582	6.56
428.024	6.56
428.465	6.56
428.907	6.55
429.348	6.52
429.789	6.52
430.231	6.55
430.672	6.58
431.113	6.6
431.554	6.61
431.995	6.62
432.436	6.63
432.877	6.65
433.318	6.69
433.759	6.71
434.2	6.74
434.64	6.76
435.081	6.76
435.522	6.78
435.962	6.79
436.403	6.82
436.843	6.83
437.284	6.83
437.724	6.84
438.164	6.82
438.604	6.84
439.045	6.86
439.485	6.88
439.925	6.9
440.365	6.92
440.805	6.94
441.245	6.97
441.685	7.02
442.125	7.06
442.564	7.1
443.004	7.13
443.444	7.16
443.883	7.21
444.323	7.21
444.762	7.24
445.202	7.27
445.641	7.32
446.081	7.36
446.52	7.37
446.959	7.43
447.398	7.46
447.837	7.49
448.276	7.53
448.716	7.57
449.154	7.63
449.593	7.68
450.032	7.73
450.471	7.75
450.91	7.76
451.349	7.8
451.787	7.8
452.226	7.81
452.664	7.83
453.103	7.84
453.541	7.84
453.98	7.86
454.418	7.85
454.856	7.86
455.295	7.86
455.733	7.84
456.171	7.83
456.609	7.83
457.047	7.82
457.485	7.82
457.923	7.83
458.361	7.84
458.798	7.83
459.236	7.83
459.674	7.82
460.111	7.82
460.549	7.85
460.987	7.85
461.424	7.86
461.862	7.87
462.299	7.89
462.736	7.89
463.173	7.88
463.611	7.9
464.048	7.92
464.485	7.92
464.922	7.93
465.359	7.92
465.796	7.95
466.233	7.96
466.67	7.97
467.106	7.97
467.543	7.97
467.98	7.96
468.416	7.94
468.853	7.95
469.29	7.96
469.726	7.97
470.162	7.97
470.599	7.96
471.035	7.96
471.471	7.96
471.907	7.97
472.344	7.98
472.78	7.99
473.216	8
473.652	7.99
474.088	7.99
474.523	7.99
474.959	8
475.395	7.99
475.831	8
476.266	8.01
476.702	8
477.138	8
477.573	8.02
478.008	8.04
478.444	8.04
478.879	8.05
479.314	8.05
479.75	8.06
480.185	8.06
480.62	8.05
481.055	8.06
481.49	8.06
481.925	8.07
482.36	8.07
482.795	8.08
483.229	8.08
483.664	8.11
484.099	8.12
484.534	8.14
484.968	8.17
485.403	8.2
485.837	8.24
486.271	8.28
486.706	8.31
487.14	8.35
487.574	8.4
488.009	8.45
488.443	8.49
488.877	8.55
489.311	8.61
489.745	8.67
490.179	8.74
490.613	8.81
491.046	8.87
491.48	8.94
491.914	9.02
492.348	9.1
492.781	9.19
493.215	9.28
493.648	9.38
494.082	9.46
494.515	9.56
494.948	9.67
495.382	9.77
495.815	9.89
496.248	10.02
496.681	10.15
497.114	10.28
497.547	10.4
497.98	10.54
498.413	10.7
498.846	10.86
499.279	11.01
499.711	11.17
500.144	11.34
500.577	11.52
501.009	11.69
501.442	11.88
501.874	12.08
502.306	12.28
502.739	12.49
503.171	12.69
503.603	12.92
504.036	13.16
504.468	13.4
504.9	13.63
505.332	13.87
505.764	14.14
506.196	14.4
506.627	14.67
507.059	14.96
507.491	15.25
507.923	15.55
508.354	15.85
508.786	16.16
509.217	16.47
509.649	16.81
510.08	17.13
510.512	17.47
510.943	17.82
511.374	18.17
511.805	18.53
512.237	18.88
512.668	19.25
513.099	19.62
513.53	19.99
513.961	20.36
514.391	20.72
514.822	21.11
515.253	21.48
515.684	21.84
516.114	22.22
516.545	22.59
516.975	22.96
517.406	23.32
517.836	23.69
518.267	24.07
518.697	24.44
519.127	24.79
519.558	25.14
519.988	25.48
520.418	25.82
520.848	26.15
521.278	26.48
521.708	27.01
522.138	27.32
522.567	27.64
522.997	27.92
523.427	28.2
523.857	28.5
524.286	28.77
524.716	29.05
525.145	29.31
525.575	29.57
526.004	29.81
526.433	29.84
526.863	30.08
527.292	30.29
527.721	30.5
528.15	30.7
528.579	30.89
529.008	31.08
529.437	31.25
529.866	31.41
530.295	31.58
530.724	31.73
531.152	31.89
531.581	32.04
532.01	32.18
532.438	32.32
532.867	32.45
533.295	32.57
533.723	32.68
534.152	32.8
534.58	32.92
535.008	32.98
535.436	33.09
535.865	33.16
536.293	33.23
536.721	33.31
537.149	33.39
537.576	33.46
538.004	33.56
538.432	33.62
538.86	33.68
539.287	33.73
539.715	33.82
540.143	33.89
540.57	33.95
540.998	33.99
541.425	34.04
541.852	34.08
542.28	34.13
542.707	34.15
543.134	34.21
543.561	34.25
543.988	34.3
544.415	34.31
544.842	34.33
545.269	34.37
545.696	34.42
546.123	34.45
546.549	34.48
546.976	34.5
547.403	34.54
547.829	34.54
548.256	34.58
548.682	34.57
549.108	34.6
549.535	34.62
549.961	34.62
550.387	34.65
550.813	34.64
551.24	34.65
551.666	34.64
552.092	34.62
552.518	34.61
552.943	34.58
553.369	34.57
553.795	34.55
554.221	34.52
554.646	34.49
555.072	34.45
555.498	34.41
555.923	34.37
556.349	34.34
556.774	34.29
557.199	34.25
557.625	34.19
558.05	34.14
558.475	34.08
558.9	34.01
559.325	33.95
559.75	33.86
560.175	33.77
560.6	33.67
561.025	33.57
561.449	33.46
561.874	33.33
562.299	33.23
562.723	33.11
563.148	32.97
563.572	32.83
563.997	32.69
564.421	32.54
564.846	32.4
565.27	32.27
565.694	32.14
566.118	31.99
566.542	31.87
566.966	31.73
567.39	31.6
567.814	31.48
568.238	31.34
568.662	31.21
569.086	31.08
569.509	30.95
569.933	30.81
570.357	30.68
570.78	30.55
571.204	30.41
571.627	30.28
572.05	30.14
572.474	30.01
572.897	29.88
573.32	29.75
573.743	29.61
574.166	29.48
574.589	29.36
575.012	29.22
575.435	29.1
575.858	28.96
576.281	28.84
576.704	28.71
577.126	28.58
577.549	28.46
577.972	28.33
578.394	28.23
578.817	28.14
579.239	28.02
579.661	27.93
580.084	27.83
580.506	27.75
580.928	27.65
581.35	27.56
581.772	27.47
582.194	27.39
582.616	27.31
583.038	27.21
583.46	27.11
583.882	27.02
584.303	26.93
584.725	26.85
585.147	26.77
585.568	26.69
585.99	26.61
586.411	26.52
586.833	26.44
587.254	26.37
587.675	26.31
588.096	26.24
588.518	26.18
588.939	26.12
589.36	26.06
589.781	25.99
590.202	25.94
590.623	25.87
591.043	25.83
591.464	25.79
591.885	25.73
592.305	25.68
592.726	25.65
593.147	25.59
593.567	25.55
593.987	25.51
594.408	25.46
594.828	25.4
595.248	25.37
595.669	25.35
596.089	25.3
596.509	25.27
596.929	25.23
597.349	25.19
597.769	25.15
598.189	25.11
598.608	25.07
599.028	25.05
599.448	25
599.867	24.96
600.287	24.91
600.706	24.86
601.126	24.81
601.545	24.76
601.965	24.71
602.384	24.65
602.803	24.57
603.222	24.51
603.641	24.43
604.061	24.38
604.48	24.29
604.898	24.21
605.317	24.14
605.736	24.07
606.155	23.99
606.574	23.89
606.992	23.8
607.411	23.72
607.829	23.6
608.248	23.51
608.666	23.41
609.085	23.34
609.503	23.24
609.921	23.16
610.339	23.06
610.758	22.96
611.176	22.85
611.594	22.78
612.012	22.67
612.43	22.6
612.847	22.5
613.265	22.4
613.683	22.29
614.101	22.2
614.518	22.09
614.936	22
615.353	21.89
615.771	21.82
616.188	21.73
616.606	21.67
617.023	21.59
617.44	21.51
617.857	21.45
618.274	21.38
618.691	21.31
619.108	21.24
619.525	21.18
619.942	21.14
620.359	21.08
620.776	21.02
621.192	20.96
621.609	20.94
622.026	20.9
622.442	20.86
622.859	20.84
623.275	20.81
623.691	20.8
624.108	20.79
624.524	20.77
624.94	20.76
625.356	20.76
625.772	20.75
626.188	20.72
626.604	20.69
627.02	20.68
627.436	20.66
627.852	20.65
628.268	20.63
628.683	20.6
629.099	20.59
629.514	20.56
629.93	20.53
630.345	20.5
630.761	20.45
631.176	20.42
631.591	20.36
632.007	20.31
632.422	20.25
632.837	20.18
633.252	20.1
633.667	20.02
634.082	19.92
634.497	19.82
634.911	19.7
635.326	19.59
635.741	19.46
636.155	19.33
636.57	19.2
636.984	19.05
637.399	18.88
637.813	18.72
638.228	18.55
638.642	18.36
639.056	18.17
639.47	18.01
639.884	17.82
640.298	17.63
640.712	17.45
641.126	17.25
641.54	17.05
641.954	16.85
642.368	16.66
642.781	16.47
643.195	16.29
643.609	16.11
644.022	15.91
644.436	15.74
644.849	15.57
645.262	15.41
645.676	15.25
646.089	15.1
646.502	14.96
646.915	14.83
647.328	14.72
647.741	14.6
648.154	14.5
648.567	14.41
648.98	14.32
649.393	14.24
649.805	14.16
650.218	14.09
650.631	14.04
651.043	13.96
651.456	13.9
651.868	13.82
652.28	13.75
652.693	13.67
653.105	13.59
653.517	13.52
653.929	13.43
654.341	13.33
654.753	13.22
655.165	13.11
655.577	13
655.989	12.87
656.401	12.74
656.813	12.62
657.224	12.48
657.636	12.32
658.047	12.18
658.459	12.02
658.87	11.86
659.282	11.68
659.693	11.53
660.104	11.35
660.515	11.19
660.926	11.02
661.338	10.84
661.749	10.69
662.159	10.54
662.57	10.39
662.981	10.26
663.392	10.11
663.803	9.99
664.213	9.85
664.624	9.73
665.035	9.61
665.445	9.49
665.855	9.39
666.266	9.29
666.676	9.19
667.086	9.08
667.497	8.98
667.907	8.91
668.317	8.84
668.727	8.78
669.137	8.72
669.547	8.67
669.956	8.62
670.366	8.57
670.776	8.52
671.186	8.49
671.595	8.46
672.005	8.44
672.414	8.42
672.824	8.4
673.233	8.38
673.642	8.38
674.052	8.38
674.461	8.39
674.87	8.39
675.279	8.43
675.688	8.44
676.097	8.48
676.506	8.52
676.915	8.56
677.323	8.61
677.732	8.67
678.141	8.74
678.549	8.81
678.958	8.9
679.366	9.02
679.775	9.13
680.183	9.27
680.592	9.43
681	9.61
681.408	9.8
681.816	10.02
682.224	10.27
682.632	10.53
683.04	10.83
683.448	11.15
683.856	11.49
684.264	11.87
684.671	12.28
685.079	12.73
685.487	13.21
685.894	13.72
686.302	14.26
686.709	14.83
687.116	15.42
687.524	16.05
687.931	16.71
688.338	17.39
688.745	18.08
689.152	18.78
689.559	19.51
689.966	20.24
690.373	20.98
690.78	21.74
691.187	22.49
691.593	23.27
692	24.03
692.407	24.76
692.813	25.52
693.22	26.26
693.626	27
694.032	27.73
694.439	28.44
694.845	29.15
695.251	29.86
695.657	30.52
696.063	31.17
696.469	31.81
696.875	32.46
697.281	33.09
697.687	33.69
698.093	34.29
698.498	34.87
698.904	35.45
699.31	35.99
699.715	36.5
700.12	37.02
700.526	37.53
700.931	38.02
701.337	38.47
701.742	38.9
702.147	39.33
702.552	39.76
702.957	40.14
703.362	40.51
703.767	40.9
704.172	41.29
704.577	41.64
704.981	42
705.386	42.34
705.791	42.69
706.195	43.04
706.6	43.37
707.004	43.68
707.408	44.01
707.813	44.33
708.217	44.63
708.621	44.9
709.025	45.17
709.43	45.45
709.834	45.73
710.237	45.97
710.641	46.22
711.045	46.46
711.449	46.7
711.853	46.95
712.256	47.16
712.66	47.37
713.064	47.61
713.467	47.84
713.87	48.03
714.274	48.22
714.677	48.44
715.08	48.6
715.484	48.8
715.887	49.03
716.29	49.21
716.693	49.41
717.096	49.58
717.499	49.72
717.901	49.9
718.304	50.07
718.707	50.25
719.109	50.37
719.512	50.54
719.915	50.67
720.317	50.77
720.719	50.86
721.122	50.98
721.524	51.09
721.926	51.23
722.328	51.36
722.731	51.47
723.133	51.57
723.535	51.69
723.937	51.81
724.338	51.92
724.74	52.02
725.142	52.22
725.544	52.32
725.945	52.45
726.347	52.5
726.748	52.57
727.15	52.63
727.551	52.73
727.952	52.81
728.354	52.88
728.755	52.93
729.156	52.98
729.557	52.92
729.958	52.95
730.359	52.98
730.76	53.07
731.161	53.11
731.562	53.18
731.962	53.18
732.363	53.25
732.763	53.28
733.164	53.34
733.564	53.42
733.965	53.47
734.365	53.51
734.766	53.54
735.166	53.58
735.566	53.63
735.966	53.64
736.366	53.7
736.766	53.7
737.166	53.75
737.566	53.77
737.966	53.77
738.365	53.83
738.765	53.89
739.165	53.92
739.564	53.95
739.964	53.96
740.363	53.98
740.763	53.99
741.162	54.02
741.561	54
741.96	54
742.36	54.02
742.759	54.03
743.158	54.02
743.557	54.03
743.955	54.06
744.354	54.07
744.753	54.1
745.152	54.14
745.55	54.17
745.949	54.22
746.348	54.24
746.746	54.24
747.144	54.26
747.543	54.26
747.941	54.26
748.339	54.24
748.737	54.23
749.136	54.21
749.534	54.17
749.932	54.17
750.33	54.15
750.727	54.17
751.125	54.19
751.523	54.19
751.921	54.19
752.318	54.23
752.716	54.23
753.113	54.25
753.511	54.27
753.908	54.31
754.305	54.33
754.703	54.34
755.1	54.34
755.497	54.35
755.894	54.35
756.291	54.37
756.688	54.35
757.085	54.39
757.482	54.43
757.878	54.43
758.275	54.42
758.672	54.39
759.068	54.41
759.465	54.4
759.861	54.4
760.258	54.41
760.654	54.42
761.05	54.45
761.447	54.45
761.843	54.41
762.239	54.42
762.635	54.43
763.031	54.47
763.427	54.43
763.822	54.45
764.218	54.48
764.614	54.48
765.01	54.46
765.405	54.45
765.801	54.41
766.196	54.4
766.592	54.37
766.987	54.35
767.382	54.33
767.778	54.32
768.173	54.31
768.568	54.28
768.963	54.28
769.358	54.28
769.753	54.28
770.148	54.28
770.542	54.29
770.937	54.34
771.332	54.35
771.726	54.38
772.121	54.39
772.515	54.38
772.91	54.36
773.304	54.35
773.699	54.36
774.093	54.33
774.487	54.36
774.881	54.38
775.275	54.34
775.669	54.33
776.063	54.3
776.457	54.33
776.851	54.3
777.245	54.29
777.638	54.3
778.032	54.3
778.425	54.33
778.819	54.32
