Data from C_1_DEC_CT_2N_Splice17_12-56-23-562.txt Node
Date: Sat Mar 07 12:56:23 EST 2020
User: sa697716
Spectrometer: NQ5500242
Trigger mode: 0
Integration Time (sec): 1.450000E-1
Scans to average: 20
Nonlinearity correction enabled: false
Boxcar width: 5
Storing dark spectrum: false
XAxis mode: Wavelengths
Number of Pixels in Spectrum: 512
>>>>>Begin Spectral Data<<<<<
187.83	112.12
188.298	136.78
188.766	125.72
189.233	110.86
189.701	112.55
190.169	128.58
190.636	144.06
191.104	205.07
191.571	190.71
192.039	-22.22
192.506	0.37
192.974	121.87
193.441	268.44
193.908	157.03
194.375	117.82
194.842	78.03
195.31	121.39
195.777	158.46
196.244	45.43
196.711	43.62
197.177	43.42
197.644	43.71
198.111	43.86
198.578	43.96
199.045	44.65
199.511	44.62
199.978	44.8
200.445	44.95
200.911	45.16
201.378	45.33
201.844	45.49
202.31	45.1
202.777	44.83
203.243	44.88
203.709	44.82
204.176	44.39
204.642	44.26
205.108	44.13
205.574	43.76
206.04	43.15
206.506	42.75
206.972	42.73
207.438	42.55
207.903	42.54
208.369	41.73
208.835	41.12
209.301	40.44
209.766	39.34
210.232	38
210.697	37.06
211.163	36.42
211.628	35.71
212.094	34.51
212.559	33.99
213.024	33.17
213.49	32.49
213.955	31.57
214.42	31
214.885	30.11
215.35	29.4
215.815	28.07
216.28	26.34
216.745	24.3
217.21	22.47
217.675	20.65
218.14	19.11
218.604	17.68
219.069	16.62
219.534	15.67
219.998	14.97
220.463	14.3
220.927	13.72
221.392	13.23
221.856	12.85
222.32	12.5
222.785	12.24
223.249	11.95
223.713	11.75
224.177	11.52
224.642	11.31
225.106	11.07
225.57	10.85
226.034	10.66
226.497	10.51
226.961	10.34
227.425	10.19
227.889	10.03
228.353	9.88
228.816	9.72
229.28	9.56
229.744	9.42
230.207	9.29
230.671	9.16
231.134	9.03
231.597	8.93
232.061	8.82
232.524	8.72
232.987	8.6
233.45	8.51
233.914	8.41
234.377	8.32
234.84	8.22
235.303	8.13
235.766	8.05
236.229	7.97
236.691	7.87
237.154	7.79
237.617	7.71
238.08	7.63
238.542	7.55
239.005	7.48
239.468	7.4
239.93	7.34
240.393	7.28
240.855	7.2
241.317	7.13
241.78	7.06
242.242	6.98
242.704	6.92
243.166	6.85
243.629	6.79
244.091	6.72
244.553	6.65
245.015	6.59
245.477	6.52
245.939	6.46
246.4	6.4
246.862	6.35
247.324	6.3
247.786	6.24
248.247	6.18
248.709	6.12
249.17	6.05
249.632	6.01
250.093	5.97
250.555	5.91
251.016	5.86
251.477	5.81
251.939	5.76
252.4	5.73
252.861	5.69
253.322	5.65
253.783	5.61
254.244	5.58
254.705	5.54
255.166	5.5
255.627	5.47
256.088	5.43
256.549	5.4
257.009	5.36
257.47	5.31
257.931	5.27
258.391	5.23
258.852	5.18
259.312	5.14
259.773	5.1
260.233	5.07
260.694	5.03
261.154	4.99
261.614	4.96
262.074	4.93
262.534	4.89
262.994	4.87
263.455	4.83
263.915	4.81
264.374	4.79
264.834	4.77
265.294	4.74
265.754	4.72
266.214	4.7
266.673	4.69
267.133	4.68
267.593	4.66
268.052	4.64
268.512	4.63
268.971	4.62
269.431	4.6
269.89	4.59
270.349	4.57
270.809	4.56
271.268	4.55
271.727	4.53
272.186	4.52
272.645	4.51
273.104	4.5
273.563	4.48
274.022	4.46
274.481	4.45
274.94	4.44
275.399	4.42
275.857	4.41
276.316	4.4
276.775	4.38
277.233	4.36
277.692	4.34
278.15	4.33
278.609	4.32
279.067	4.31
279.525	4.3
279.984	4.28
280.442	4.28
280.9	4.27
281.358	4.26
281.816	4.26
282.274	4.26
282.732	4.25
283.19	4.24
283.648	4.23
284.106	4.21
284.564	4.21
285.021	4.21
285.479	4.2
285.937	4.19
286.394	4.18
286.852	4.16
287.309	4.14
287.767	4.12
288.224	4.11
288.682	4.09
289.139	4.07
289.596	4.05
290.053	4.02
290.511	4
290.968	3.98
291.425	3.96
291.882	3.94
292.339	3.93
292.796	3.92
293.252	3.91
293.709	3.9
294.166	3.89
294.623	3.88
295.079	3.88
295.536	3.87
295.992	3.86
296.449	3.85
296.905	3.85
297.362	3.84
297.818	3.83
298.274	3.83
298.731	3.82
299.187	3.8
299.643	3.79
300.099	3.79
300.555	3.78
301.011	3.77
301.467	3.77
301.923	3.76
302.379	3.75
302.835	3.75
303.291	3.74
303.746	3.74
304.202	3.73
304.658	3.74
305.113	3.73
305.569	3.73
306.024	3.73
306.479	3.72
306.935	3.71
307.39	3.71
307.845	3.71
308.301	3.71
308.756	3.71
309.211	3.7
309.666	3.7
310.121	3.7
310.576	3.7
311.031	3.69
311.486	3.69
311.94	3.7
312.395	3.7
312.85	3.7
313.305	3.7
313.759	3.69
314.214	3.69
314.668	3.68
315.123	3.68
315.577	3.67
316.032	3.67
316.486	3.67
316.94	3.65
317.394	3.64
317.849	3.62
318.303	3.61
318.757	3.6
319.211	3.59
319.665	3.58
320.119	3.57
320.572	3.56
321.026	3.54
321.48	3.53
321.934	3.52
322.387	3.51
322.841	3.51
323.295	3.51
323.748	3.5
324.202	3.5
324.655	3.5
325.108	3.5
325.562	3.5
326.015	3.5
326.468	3.49
326.921	3.5
327.374	3.49
327.827	3.49
328.28	3.49
328.733	3.49
329.186	3.48
329.639	3.49
330.092	3.47
330.545	3.47
330.997	3.47
331.45	3.47
331.903	3.47
332.355	3.47
332.808	3.47
333.26	3.47
333.713	3.46
334.165	3.46
334.617	3.45
335.069	3.46
335.522	3.47
335.974	3.46
336.426	3.46
336.878	3.46
337.33	3.45
337.782	3.45
338.234	3.46
338.686	3.47
339.137	3.47
339.589	3.46
340.041	3.46
340.493	3.45
340.944	3.43
341.396	3.43
341.847	3.41
342.299	3.39
342.75	3.37
343.201	3.35
343.653	3.33
344.104	3.32
344.555	3.31
345.006	3.29
345.457	3.29
345.908	3.28
346.359	3.28
346.81	3.28
347.261	3.28
347.712	3.27
348.163	3.27
348.613	3.27
349.064	3.27
349.515	3.27
349.965	3.28
350.416	3.27
350.866	3.27
351.317	3.26
351.767	3.27
352.217	3.27
352.668	3.28
353.118	3.28
353.568	3.28
354.018	3.28
354.468	3.28
354.918	3.28
355.368	3.28
355.818	3.28
356.268	3.28
356.718	3.28
357.168	3.27
357.617	3.26
358.067	3.27
358.517	3.28
358.966	3.28
359.416	3.28
359.865	3.28
360.315	3.28
360.764	3.29
361.213	3.29
361.663	3.29
362.112	3.3
362.561	3.3
363.01	3.3
363.459	3.27
363.908	3.27
364.357	3.27
364.806	3.27
365.255	3.26
365.703	3.26
366.152	3.26
366.601	3.26
367.05	3.26
367.498	3.26
367.947	3.26
368.395	3.26
368.844	3.26
369.292	3.26
369.74	3.25
370.189	3.26
370.637	3.24
371.085	3.24
371.533	3.24
371.981	3.23
372.429	3.23
372.877	3.22
373.325	3.22
373.773	3.22
374.221	3.21
374.669	3.2
375.116	3.2
375.564	3.19
376.012	3.19
376.459	3.19
376.907	3.19
377.354	3.19
377.801	3.19
378.249	3.19
378.696	3.19
379.143	3.19
379.591	3.19
380.038	3.19
380.485	3.19
380.932	3.19
381.379	3.19
381.826	3.19
382.273	3.19
382.72	3.18
383.166	3.17
383.613	3.17
384.06	3.16
384.506	3.16
384.953	3.16
385.4	3.16
385.846	3.16
386.292	3.16
386.739	3.15
387.185	3.14
387.631	3.15
388.078	3.15
388.524	3.15
388.97	3.15
389.416	3.15
389.862	3.15
390.308	3.15
390.754	3.16
391.2	3.16
391.645	3.17
392.091	3.19
392.537	3.2
392.983	3.2
393.428	3.2
393.874	3.22
394.319	3.23
394.765	3.22
395.21	3.22
395.655	3.24
396.101	3.25
396.546	3.24
396.991	3.25
397.436	3.25
397.881	3.28
398.326	3.29
398.771	3.3
399.216	3.31
399.661	3.34
400.106	3.36
400.551	3.36
400.995	3.37
401.44	3.39
401.885	3.4
402.329	3.41
402.774	3.41
403.218	3.44
403.663	3.46
404.107	3.47
404.551	3.47
404.995	3.48
405.44	3.48
405.884	3.5
406.328	3.52
406.772	3.52
407.216	3.54
407.66	3.55
408.104	3.54
408.547	3.55
408.991	3.55
409.435	3.55
409.879	3.57
410.322	3.59
410.766	3.6
411.209	3.61
411.653	3.64
412.096	3.66
412.54	3.67
412.983	3.68
413.426	3.72
413.869	3.75
414.312	3.78
414.756	3.78
415.199	3.79
415.642	3.79
416.085	3.79
416.527	3.79
416.97	3.78
417.413	3.78
417.856	3.79
418.298	3.78
418.741	3.78
419.184	3.78
419.626	3.79
420.069	3.79
420.511	3.8
420.953	3.81
421.396	3.81
421.838	3.82
422.28	3.84
422.722	3.85
423.164	3.85
423.606	3.85
424.048	3.86
424.49	3.85
424.932	3.86
425.374	3.84
425.816	3.82
426.258	3.81
426.699	3.81
427.141	3.82
427.582	3.82
428.024	3.83
428.465	3.84
428.907	3.83
429.348	3.82
429.789	3.82
430.231	3.84
430.672	3.87
431.113	3.89
431.554	3.9
431.995	3.91
432.436	3.9
432.877	3.91
433.318	3.92
433.759	3.95
434.2	3.99
434.64	4
435.081	4.01
435.522	4.02
435.962	4.03
436.403	4.06
436.843	4.08
437.284	4.08
437.724	4.1
438.164	4.08
438.604	4.09
439.045	4.09
439.485	4.1
439.925	4.09
440.365	4.11
440.805	4.1
441.245	4.1
441.685	4.1
442.125	4.11
442.564	4.12
443.004	4.13
443.444	4.13
443.883	4.13
444.323	4.12
444.762	4.14
445.202	4.12
445.641	4.15
446.081	4.14
446.52	4.15
446.959	4.16
447.398	4.18
447.837	4.2
448.276	4.21
448.716	4.22
449.154	4.24
449.593	4.25
450.032	4.26
450.471	4.25
450.91	4.24
451.349	4.25
451.787	4.24
452.226	4.22
452.664	4.2
453.103	4.19
453.541	4.19
453.98	4.19
454.418	4.17
454.856	4.16
455.295	4.15
455.733	4.13
456.171	4.12
456.609	4.1
457.047	4.09
457.485	4.09
457.923	4.08
458.361	4.08
458.798	4.07
459.236	4.07
459.674	4.07
460.111	4.07
460.549	4.09
460.987	4.09
461.424	4.1
461.862	4.11
462.299	4.12
462.736	4.11
463.173	4.1
463.611	4.11
464.048	4.11
464.485	4.11
464.922	4.12
465.359	4.12
465.796	4.13
466.233	4.15
466.67	4.15
467.106	4.15
467.543	4.16
467.98	4.17
468.416	4.16
468.853	4.17
469.29	4.18
469.726	4.18
470.162	4.17
470.599	4.16
471.035	4.14
471.471	4.13
471.907	4.13
472.344	4.13
472.78	4.12
473.216	4.1
473.652	4.09
474.088	4.06
474.523	4.05
474.959	4.04
475.395	4.02
475.831	4.01
476.266	4.01
476.702	3.99
477.138	3.98
477.573	3.98
478.008	4
478.444	3.98
478.879	3.99
479.314	3.98
479.75	3.98
480.185	3.97
480.62	3.97
481.055	3.96
481.49	3.95
481.925	3.93
482.36	3.92
482.795	3.9
483.229	3.89
483.664	3.89
484.099	3.89
484.534	3.89
484.968	3.9
485.403	3.9
485.837	3.9
486.271	3.91
486.706	3.92
487.14	3.92
487.574	3.93
488.009	3.95
488.443	3.94
488.877	3.96
489.311	3.97
489.745	3.97
490.179	4
490.613	4.02
491.046	4.04
491.48	4.08
491.914	4.1
492.348	4.13
492.781	4.17
493.215	4.21
493.648	4.24
494.082	4.28
494.515	4.32
494.948	4.35
495.382	4.38
495.815	4.43
496.248	4.47
496.681	4.52
497.114	4.57
497.547	4.62
497.98	4.68
498.413	4.74
498.846	4.8
499.279	4.87
499.711	4.95
500.144	5.04
500.577	5.12
501.009	5.2
501.442	5.29
501.874	5.4
502.306	5.49
502.739	5.61
503.171	5.73
503.603	5.85
504.036	5.97
504.468	6.1
504.9	6.21
505.332	6.35
505.764	6.5
506.196	6.65
506.627	6.8
507.059	6.98
507.491	7.14
507.923	7.32
508.354	7.51
508.786	7.71
509.217	7.92
509.649	8.13
510.08	8.35
510.512	8.57
510.943	8.81
511.374	9.04
511.805	9.28
512.237	9.53
512.668	9.78
513.099	10.03
513.53	10.3
513.961	10.57
514.391	10.85
514.822	11.14
515.253	11.42
515.684	11.71
516.114	12.01
516.545	12.31
516.975	12.61
517.406	12.91
517.836	13.22
518.267	13.53
518.697	13.84
519.127	14.13
519.558	14.43
519.988	14.74
520.418	15.04
520.848	15.33
521.278	15.62
521.708	16.07
522.138	16.37
522.567	16.64
522.997	16.92
523.427	17.19
523.857	17.45
524.286	17.69
524.716	17.93
525.145	18.18
525.575	18.42
526.004	18.65
526.433	18.72
526.863	18.93
527.292	19.16
527.721	19.35
528.15	19.54
528.579	19.73
529.008	19.93
529.437	20.11
529.866	20.26
530.295	20.43
530.724	20.56
531.152	20.71
531.581	20.86
532.01	20.97
532.438	21.11
532.867	21.23
533.295	21.34
533.723	21.43
534.152	21.54
534.58	21.65
535.008	21.73
535.436	21.82
535.865	21.91
536.293	21.98
536.721	22.04
537.149	22.11
537.576	22.17
538.004	22.24
538.432	22.3
538.86	22.35
539.287	22.4
539.715	22.46
540.143	22.49
540.57	22.52
540.998	22.57
541.425	22.61
541.852	22.64
542.28	22.69
542.707	22.72
543.134	22.77
543.561	22.82
543.988	22.85
544.415	22.89
544.842	22.92
545.269	22.97
545.696	23
546.123	23.03
546.549	23.06
546.976	23.07
547.403	23.09
547.829	23.09
548.256	23.11
548.682	23.13
549.108	23.15
549.535	23.18
549.961	23.18
550.387	23.18
550.813	23.17
551.24	23.17
551.666	23.17
552.092	23.16
552.518	23.14
552.943	23.11
553.369	23.08
553.795	23.04
554.221	23.01
554.646	22.96
555.072	22.91
555.498	22.85
555.923	22.8
556.349	22.73
556.774	22.67
557.199	22.61
557.625	22.54
558.05	22.46
558.475	22.37
558.9	22.28
559.325	22.19
559.75	22.09
560.175	21.99
560.6	21.87
561.025	21.77
561.449	21.65
561.874	21.52
562.299	21.38
562.723	21.26
563.148	21.11
563.572	20.97
563.997	20.83
564.421	20.68
564.846	20.53
565.27	20.39
565.694	20.22
566.118	20.06
566.542	19.91
566.966	19.74
567.39	19.57
567.814	19.42
568.238	19.26
568.662	19.11
569.086	18.95
569.509	18.78
569.933	18.63
570.357	18.47
570.78	18.32
571.204	18.16
571.627	18.01
572.05	17.86
572.474	17.72
572.897	17.58
573.32	17.44
573.743	17.3
574.166	17.18
574.589	17.04
575.012	16.93
575.435	16.81
575.858	16.69
576.281	16.57
576.704	16.45
577.126	16.33
577.549	16.21
577.972	16.1
578.394	15.99
578.817	15.88
579.239	15.79
579.661	15.67
580.084	15.58
580.506	15.48
580.928	15.38
581.35	15.3
581.772	15.22
582.194	15.14
582.616	15.07
583.038	14.98
583.46	14.9
583.882	14.81
584.303	14.73
584.725	14.66
585.147	14.6
585.568	14.55
585.99	14.47
586.411	14.39
586.833	14.33
587.254	14.26
587.675	14.21
588.096	14.15
588.518	14.1
588.939	14.07
589.36	14.02
589.781	13.96
590.202	13.92
590.623	13.87
591.043	13.82
591.464	13.78
591.885	13.74
592.305	13.69
592.726	13.65
593.147	13.62
593.567	13.57
593.987	13.53
594.408	13.5
594.828	13.45
595.248	13.41
595.669	13.39
596.089	13.36
596.509	13.33
596.929	13.29
597.349	13.25
597.769	13.22
598.189	13.18
598.608	13.14
599.028	13.1
599.448	13.06
599.867	13.02
600.287	12.98
600.706	12.92
601.126	12.87
601.545	12.84
601.965	12.8
602.384	12.74
602.803	12.69
603.222	12.62
603.641	12.57
604.061	12.52
604.48	12.46
604.898	12.38
605.317	12.33
605.736	12.25
606.155	12.18
606.574	12.1
606.992	12.03
607.411	11.96
607.829	11.87
608.248	11.78
608.666	11.69
609.085	11.62
609.503	11.55
609.921	11.47
610.339	11.39
610.758	11.32
611.176	11.24
611.594	11.16
612.012	11.08
612.43	11.02
612.847	10.95
613.265	10.87
613.683	10.8
614.101	10.73
614.518	10.65
614.936	10.58
615.353	10.49
615.771	10.43
616.188	10.36
616.606	10.3
617.023	10.24
617.44	10.19
617.857	10.13
618.274	10.07
618.691	10.02
619.108	9.96
619.525	9.92
619.942	9.87
620.359	9.84
620.776	9.81
621.192	9.77
621.609	9.74
622.026	9.7
622.442	9.68
622.859	9.65
623.275	9.62
623.691	9.61
624.108	9.6
624.524	9.59
624.94	9.57
625.356	9.56
625.772	9.55
626.188	9.54
626.604	9.53
627.02	9.51
627.436	9.51
627.852	9.49
628.268	9.48
628.683	9.46
629.099	9.45
629.514	9.42
629.93	9.41
630.345	9.38
630.761	9.34
631.176	9.32
631.591	9.29
632.007	9.26
632.422	9.22
632.837	9.18
633.252	9.13
633.667	9.07
634.082	9.01
634.497	8.94
634.911	8.87
635.326	8.8
635.741	8.72
636.155	8.63
636.57	8.55
636.984	8.46
637.399	8.36
637.813	8.26
638.228	8.16
638.642	8.06
639.056	7.96
639.47	7.86
639.884	7.76
640.298	7.65
640.712	7.54
641.126	7.44
641.54	7.34
641.954	7.24
642.368	7.14
642.781	7.05
643.195	6.96
643.609	6.86
644.022	6.76
644.436	6.67
644.849	6.58
645.262	6.49
645.676	6.41
646.089	6.34
646.502	6.27
646.915	6.2
647.328	6.13
647.741	6.07
648.154	6.01
648.567	5.97
648.98	5.92
649.393	5.88
649.805	5.85
650.218	5.8
650.631	5.75
651.043	5.72
651.456	5.69
651.868	5.65
652.28	5.62
652.693	5.59
653.105	5.55
653.517	5.51
653.929	5.47
654.341	5.42
654.753	5.37
655.165	5.33
655.577	5.28
655.989	5.22
656.401	5.17
656.813	5.12
657.224	5.05
657.636	4.97
658.047	4.93
658.459	4.86
658.87	4.8
659.282	4.73
659.693	4.66
660.104	4.59
660.515	4.53
660.926	4.47
661.338	4.39
661.749	4.33
662.159	4.27
662.57	4.21
662.981	4.15
663.392	4.11
663.803	4.07
664.213	4.03
664.624	4
665.035	3.95
665.445	3.92
665.855	3.88
666.266	3.86
666.676	3.85
667.086	3.81
667.497	3.79
667.907	3.76
668.317	3.75
668.727	3.73
669.137	3.72
669.547	3.72
669.956	3.71
670.366	3.72
670.776	3.71
671.186	3.71
671.595	3.71
672.005	3.72
672.414	3.73
672.824	3.73
673.233	3.74
673.642	3.75
674.052	3.76
674.461	3.77
674.87	3.77
675.279	3.8
675.688	3.81
676.097	3.84
676.506	3.86
676.915	3.88
677.323	3.91
677.732	3.92
678.141	3.94
678.549	3.97
678.958	4
679.366	4.05
679.775	4.07
680.183	4.12
680.592	4.18
681	4.23
681.408	4.29
681.816	4.36
682.224	4.44
682.632	4.53
683.04	4.62
683.448	4.72
683.856	4.83
684.264	4.96
684.671	5.09
685.079	5.24
685.487	5.43
685.894	5.63
686.302	5.84
686.709	6.09
687.116	6.35
687.524	6.64
687.931	6.96
688.338	7.31
688.745	7.68
689.152	8.08
689.559	8.5
689.966	8.93
690.373	9.39
690.78	9.87
691.187	10.37
691.593	10.89
692	11.44
692.407	11.97
692.813	12.55
693.22	13.12
693.626	13.7
694.032	14.29
694.439	14.89
694.845	15.51
695.251	16.12
695.657	16.74
696.063	17.35
696.469	17.95
696.875	18.59
697.281	19.2
697.687	19.82
698.093	20.43
698.498	21.03
698.904	21.63
699.31	22.22
699.715	22.81
700.12	23.41
700.526	24.01
700.931	24.61
701.337	25.17
701.742	25.73
702.147	26.27
702.552	26.84
702.957	27.36
703.362	27.89
703.767	28.41
704.172	28.92
704.577	29.4
704.981	29.88
705.386	30.35
705.791	30.82
706.195	31.3
706.6	31.77
707.004	32.21
707.408	32.68
707.813	33.14
708.217	33.58
708.621	34
709.025	34.41
709.43	34.82
709.834	35.24
710.237	35.62
710.641	36
711.045	36.39
711.449	36.78
711.853	37.17
712.256	37.53
712.66	37.88
713.064	38.22
713.467	38.58
713.87	38.94
714.274	39.26
714.677	39.6
715.08	39.93
715.484	40.26
715.887	40.58
716.29	40.84
716.693	41.16
717.096	41.46
717.499	41.78
717.901	42.08
718.304	42.37
718.707	42.65
719.109	42.93
719.512	43.2
719.915	43.46
720.317	43.69
720.719	43.93
721.122	44.17
721.524	44.42
721.926	44.66
722.328	44.87
722.731	45.08
723.133	45.3
723.535	45.49
723.937	45.68
724.338	45.88
724.74	46.09
725.142	46.37
725.544	46.53
725.945	46.73
726.347	46.85
726.748	47
727.15	47.14
727.551	47.32
727.952	47.45
728.354	47.62
728.755	47.74
729.156	47.85
729.557	47.88
729.958	48.01
730.359	48.1
730.76	48.23
731.161	48.37
731.562	48.49
731.962	48.56
732.363	48.68
732.763	48.77
733.164	48.87
733.564	48.96
733.965	49.06
734.365	49.14
734.766	49.21
735.166	49.31
735.566	49.37
735.966	49.43
736.366	49.5
736.766	49.55
737.166	49.62
737.566	49.67
737.966	49.72
738.365	49.79
738.765	49.85
739.165	49.93
739.564	49.98
739.964	50.03
740.363	50.08
740.763	50.16
741.162	50.22
741.561	50.24
741.96	50.26
742.36	50.3
742.759	50.36
743.158	50.38
743.557	50.35
743.955	50.37
744.354	50.41
744.753	50.45
745.152	50.49
745.55	50.51
745.949	50.56
746.348	50.61
746.746	50.62
747.144	50.65
747.543	50.67
747.941	50.74
748.339	50.74
748.737	50.72
749.136	50.72
749.534	50.68
749.932	50.7
750.33	50.71
750.727	50.71
751.125	50.74
751.523	50.75
751.921	50.78
752.318	50.8
752.716	50.83
753.113	50.87
753.511	50.91
753.908	50.98
754.305	51
754.703	51
755.1	51.02
755.497	51.03
755.894	51.03
756.291	51.02
756.688	51.01
757.085	51.08
757.482	51.08
757.878	51.06
758.275	51.03
758.672	51.03
759.068	51.05
759.465	51.05
759.861	51.09
760.258	51.12
760.654	51.13
761.05	51.13
761.447	51.1
761.843	51.11
762.239	51.09
762.635	51.08
763.031	51.09
763.427	51.07
763.822	51.06
764.218	51.06
764.614	51.05
765.01	51.03
765.405	51.02
765.801	50.98
766.196	50.99
766.592	50.99
766.987	51.01
767.382	51
767.778	51.01
768.173	51.01
768.568	50.98
768.963	50.98
769.358	50.99
769.753	50.99
770.148	51.02
770.542	50.99
770.937	51.01
771.332	50.99
771.726	50.98
772.121	50.97
772.515	50.97
772.91	50.96
773.304	50.98
773.699	50.99
774.093	50.99
774.487	50.98
774.881	51
775.275	50.99
775.669	50.99
776.063	50.98
776.457	50.99
776.851	50.98
777.245	50.96
777.638	50.93
778.032	50.92
778.425	50.95
778.819	50.96
779.212	50.97
779.606	50.99
779.999	50.98
780.392	51
780.786	51.01
781.179	51.04
781.572	51.09
781.965	51.11
782.358	51.13
782.751	51.11
783.143	51.11
783.536	51.11
783.929	51.1
784.322	51.13
