Data from C_1_HIR_IL_4N_Splice17_12-47-48-359.txt Node
Date: Sat Mar 07 12:47:48 EST 2020
User: sa697716
Spectrometer: NQ5500242
Trigger mode: 0
Integration Time (sec): 1.450000E-1
Scans to average: 20
Nonlinearity correction enabled: false
Boxcar width: 5
Storing dark spectrum: false
XAxis mode: Wavelengths
Number of Pixels in Spectrum: 512
>>>>>Begin Spectral Data<<<<<
187.83	64.29
188.298	68.6
188.766	44.11
189.233	51.12
189.701	36.8
190.169	48.37
190.636	17.42
191.104	-56.79
191.571	-199.32
192.039	-278.3
192.506	-456.03
192.974	130.42
193.441	119.06
193.908	-49.82
194.375	-6.26
194.842	-48.46
195.31	-38.89
195.777	-224.72
196.244	15.87
196.711	29.09
197.177	30.38
197.644	31.59
198.111	30.86
198.578	31.28
199.045	31.72
199.511	31.66
199.978	31.52
200.445	31.76
200.911	31.56
201.378	31.59
201.844	31.62
202.31	31.58
202.777	31.46
203.243	31.64
203.709	31.53
204.176	31.45
204.642	31.45
205.108	31.55
205.574	31.34
206.04	31.2
206.506	31.25
206.972	31.02
207.438	30.63
207.903	30.09
208.369	29.68
208.835	29.12
209.301	28.41
209.766	27.68
210.232	27.06
210.697	26.6
211.163	26.07
211.628	25.2
212.094	24.57
212.559	24.34
213.024	23.97
213.49	23.45
213.955	22.97
214.42	22.63
214.885	22.03
215.35	21.27
215.815	20.32
216.28	19.37
216.745	18.32
217.21	17.27
217.675	16.21
218.14	15.39
218.604	14.73
219.069	14.11
219.534	13.65
219.998	13.23
220.463	12.89
220.927	12.54
221.392	12.25
221.856	12.01
222.32	11.8
222.785	11.63
223.249	11.42
223.713	11.24
224.177	11.1
224.642	10.94
225.106	10.77
225.57	10.61
226.034	10.48
226.497	10.37
226.961	10.23
227.425	10.12
227.889	10
228.353	9.89
228.816	9.76
229.28	9.64
229.744	9.52
230.207	9.43
230.671	9.31
231.134	9.21
231.597	9.12
232.061	9.03
232.524	8.94
232.987	8.85
233.45	8.78
233.914	8.68
234.377	8.6
234.84	8.51
235.303	8.43
235.766	8.37
236.229	8.29
236.691	8.22
237.154	8.15
237.617	8.07
238.08	7.98
238.542	7.9
239.005	7.85
239.468	7.78
239.93	7.7
240.393	7.65
240.855	7.58
241.317	7.51
241.78	7.45
242.242	7.38
242.704	7.32
243.166	7.28
243.629	7.23
244.091	7.17
244.553	7.11
245.015	7.06
245.477	7
245.939	6.95
246.4	6.9
246.862	6.85
247.324	6.8
247.786	6.75
248.247	6.7
248.709	6.65
249.17	6.59
249.632	6.56
250.093	6.53
250.555	6.49
251.016	6.46
251.477	6.42
251.939	6.39
252.4	6.36
252.861	6.34
253.322	6.31
253.783	6.29
254.244	6.26
254.705	6.22
255.166	6.19
255.627	6.16
256.088	6.12
256.549	6.1
257.009	6.07
257.47	6.03
257.931	5.99
258.391	5.94
258.852	5.91
259.312	5.88
259.773	5.86
260.233	5.84
260.694	5.82
261.154	5.79
261.614	5.76
262.074	5.73
262.534	5.72
262.994	5.7
263.455	5.68
263.915	5.67
264.374	5.64
264.834	5.63
265.294	5.61
265.754	5.6
266.214	5.6
266.673	5.59
267.133	5.58
267.593	5.57
268.052	5.57
268.512	5.57
268.971	5.57
269.431	5.56
269.89	5.55
270.349	5.53
270.809	5.52
271.268	5.5
271.727	5.49
272.186	5.48
272.645	5.47
273.104	5.45
273.563	5.43
274.022	5.42
274.481	5.41
274.94	5.4
275.399	5.39
275.857	5.38
276.316	5.37
276.775	5.35
277.233	5.34
277.692	5.33
278.15	5.32
278.609	5.3
279.067	5.29
279.525	5.28
279.984	5.26
280.442	5.25
280.9	5.23
281.358	5.22
281.816	5.21
282.274	5.19
282.732	5.17
283.19	5.14
283.648	5.12
284.106	5.1
284.564	5.08
285.021	5.07
285.479	5.05
285.937	5.02
286.394	5
286.852	4.98
287.309	4.96
287.767	4.94
288.224	4.92
288.682	4.91
289.139	4.89
289.596	4.88
290.053	4.86
290.511	4.84
290.968	4.83
291.425	4.81
291.882	4.8
292.339	4.78
292.796	4.76
293.252	4.74
293.709	4.73
294.166	4.72
294.623	4.7
295.079	4.68
295.536	4.68
295.992	4.66
296.449	4.65
296.905	4.64
297.362	4.64
297.818	4.63
298.274	4.63
298.731	4.61
299.187	4.6
299.643	4.59
300.099	4.58
300.555	4.56
301.011	4.55
301.467	4.54
301.923	4.52
302.379	4.5
302.835	4.49
303.291	4.48
303.746	4.47
304.202	4.46
304.658	4.45
305.113	4.45
305.569	4.44
306.024	4.42
306.479	4.41
306.935	4.41
307.39	4.4
307.845	4.39
308.301	4.38
308.756	4.37
309.211	4.35
309.666	4.35
310.121	4.34
310.576	4.33
311.031	4.32
311.486	4.31
311.94	4.3
312.395	4.3
312.85	4.3
313.305	4.28
313.759	4.28
314.214	4.27
314.668	4.25
315.123	4.24
315.577	4.24
316.032	4.23
316.486	4.21
316.94	4.21
317.394	4.19
317.849	4.17
318.303	4.16
318.757	4.15
319.211	4.14
319.665	4.13
320.119	4.13
320.572	4.11
321.026	4.11
321.48	4.1
321.934	4.08
322.387	4.07
322.841	4.07
323.295	4.06
323.748	4.04
324.202	4.04
324.655	4.03
325.108	4.03
325.562	4.02
326.015	4.01
326.468	4
326.921	4
327.374	3.99
327.827	3.99
328.28	3.97
328.733	3.98
329.186	3.97
329.639	3.97
330.092	3.96
330.545	3.95
330.997	3.94
331.45	3.94
331.903	3.95
332.355	3.95
332.808	3.95
333.26	3.94
333.713	3.93
334.165	3.93
334.617	3.93
335.069	3.92
335.522	3.92
335.974	3.92
336.426	3.91
336.878	3.89
337.33	3.88
337.782	3.88
338.234	3.88
338.686	3.87
339.137	3.87
339.589	3.86
340.041	3.86
340.493	3.85
340.944	3.83
341.396	3.83
341.847	3.82
342.299	3.81
342.75	3.8
343.201	3.79
343.653	3.78
344.104	3.76
344.555	3.76
345.006	3.74
345.457	3.74
345.908	3.73
346.359	3.73
346.81	3.73
347.261	3.71
347.712	3.7
348.163	3.7
348.613	3.69
349.064	3.69
349.515	3.69
349.965	3.68
350.416	3.67
350.866	3.67
351.317	3.66
351.767	3.66
352.217	3.67
352.668	3.66
353.118	3.66
353.568	3.65
354.018	3.65
354.468	3.64
354.918	3.64
355.368	3.64
355.818	3.64
356.268	3.63
356.718	3.63
357.168	3.62
357.617	3.62
358.067	3.61
358.517	3.62
358.966	3.61
359.416	3.62
359.865	3.61
360.315	3.61
360.764	3.62
361.213	3.62
361.663	3.6
362.112	3.6
362.561	3.61
363.01	3.61
363.459	3.59
363.908	3.59
364.357	3.59
364.806	3.58
365.255	3.59
365.703	3.59
366.152	3.58
366.601	3.59
367.05	3.59
367.498	3.58
367.947	3.59
368.395	3.59
368.844	3.6
369.292	3.59
369.74	3.59
370.189	3.58
370.637	3.58
371.085	3.57
371.533	3.58
371.981	3.58
372.429	3.58
372.877	3.58
373.325	3.58
373.773	3.58
374.221	3.59
374.669	3.59
375.116	3.59
375.564	3.59
376.012	3.59
376.459	3.6
376.907	3.6
377.354	3.62
377.801	3.62
378.249	3.62
378.696	3.63
379.143	3.63
379.591	3.64
380.038	3.64
380.485	3.65
380.932	3.66
381.379	3.66
381.826	3.67
382.273	3.67
382.72	3.67
383.166	3.68
383.613	3.69
384.06	3.7
384.506	3.7
384.953	3.71
385.4	3.72
385.846	3.74
386.292	3.75
386.739	3.75
387.185	3.76
387.631	3.77
388.078	3.79
388.524	3.81
388.97	3.82
389.416	3.84
389.862	3.85
390.308	3.87
390.754	3.89
391.2	3.9
391.645	3.92
392.091	3.95
392.537	3.97
392.983	3.97
393.428	3.98
393.874	4
394.319	4.01
394.765	4.03
395.21	4.03
395.655	4.04
396.101	4.06
396.546	4.07
396.991	4.08
397.436	4.09
397.881	4.11
398.326	4.14
398.771	4.15
399.216	4.16
399.661	4.18
400.106	4.21
400.551	4.21
400.995	4.22
401.44	4.23
401.885	4.24
402.329	4.26
402.774	4.26
403.218	4.28
403.663	4.28
404.107	4.29
404.551	4.29
404.995	4.28
405.44	4.28
405.884	4.28
406.328	4.3
406.772	4.3
407.216	4.29
407.66	4.29
408.104	4.27
408.547	4.27
408.991	4.28
409.435	4.28
409.879	4.29
410.322	4.31
410.766	4.32
411.209	4.31
411.653	4.33
412.096	4.34
412.54	4.34
412.983	4.34
413.426	4.37
413.869	4.37
414.312	4.38
414.756	4.38
415.199	4.38
415.642	4.38
416.085	4.38
416.527	4.37
416.97	4.36
417.413	4.36
417.856	4.36
418.298	4.35
418.741	4.36
419.184	4.35
419.626	4.36
420.069	4.35
420.511	4.35
420.953	4.34
421.396	4.36
421.838	4.37
422.28	4.38
422.722	4.38
423.164	4.36
423.606	4.37
424.048	4.37
424.49	4.37
424.932	4.36
425.374	4.35
425.816	4.34
426.258	4.31
426.699	4.29
427.141	4.28
427.582	4.29
428.024	4.29
428.465	4.3
428.907	4.28
429.348	4.26
429.789	4.25
430.231	4.27
430.672	4.28
431.113	4.29
431.554	4.3
431.995	4.3
432.436	4.3
432.877	4.3
433.318	4.3
433.759	4.32
434.2	4.34
434.64	4.35
435.081	4.33
435.522	4.34
435.962	4.35
436.403	4.37
436.843	4.38
437.284	4.37
437.724	4.38
438.164	4.37
438.604	4.38
439.045	4.38
439.485	4.39
439.925	4.4
440.365	4.4
440.805	4.39
441.245	4.39
441.685	4.4
442.125	4.42
442.564	4.42
443.004	4.41
443.444	4.41
443.883	4.42
444.323	4.4
444.762	4.41
445.202	4.41
445.641	4.43
446.081	4.43
446.52	4.42
446.959	4.43
447.398	4.43
447.837	4.45
448.276	4.45
448.716	4.45
449.154	4.47
449.593	4.48
450.032	4.47
450.471	4.44
450.91	4.44
451.349	4.45
451.787	4.44
452.226	4.43
452.664	4.43
453.103	4.41
453.541	4.39
453.98	4.4
454.418	4.38
454.856	4.37
455.295	4.37
455.733	4.35
456.171	4.34
456.609	4.33
457.047	4.32
457.485	4.32
457.923	4.32
458.361	4.32
458.798	4.31
459.236	4.32
459.674	4.31
460.111	4.31
460.549	4.32
460.987	4.32
461.424	4.33
461.862	4.33
462.299	4.33
462.736	4.32
463.173	4.32
463.611	4.32
464.048	4.33
464.485	4.35
464.922	4.35
465.359	4.35
465.796	4.35
466.233	4.35
466.67	4.36
467.106	4.37
467.543	4.38
467.98	4.38
468.416	4.38
468.853	4.37
469.29	4.37
469.726	4.38
470.162	4.38
470.599	4.38
471.035	4.38
471.471	4.37
471.907	4.35
472.344	4.35
472.78	4.35
473.216	4.34
473.652	4.34
474.088	4.33
474.523	4.33
474.959	4.33
475.395	4.32
475.831	4.31
476.266	4.31
476.702	4.3
477.138	4.29
477.573	4.29
478.008	4.3
478.444	4.29
478.879	4.29
479.314	4.28
479.75	4.27
480.185	4.26
480.62	4.25
481.055	4.24
481.49	4.23
481.925	4.23
482.36	4.22
482.795	4.21
483.229	4.2
483.664	4.2
484.099	4.2
484.534	4.19
484.968	4.2
485.403	4.2
485.837	4.22
486.271	4.23
486.706	4.23
487.14	4.23
487.574	4.24
488.009	4.25
488.443	4.25
488.877	4.27
489.311	4.29
489.745	4.31
490.179	4.33
490.613	4.34
491.046	4.35
491.48	4.38
491.914	4.42
492.348	4.45
492.781	4.48
493.215	4.51
493.648	4.55
494.082	4.58
494.515	4.61
494.948	4.65
495.382	4.69
495.815	4.74
496.248	4.77
496.681	4.82
497.114	4.87
497.547	4.92
497.98	4.97
498.413	5.02
498.846	5.08
499.279	5.14
499.711	5.21
500.144	5.29
500.577	5.36
501.009	5.44
501.442	5.52
501.874	5.61
502.306	5.69
502.739	5.81
503.171	5.91
503.603	6.02
504.036	6.13
504.468	6.24
504.9	6.35
505.332	6.49
505.764	6.63
506.196	6.77
506.627	6.91
507.059	7.07
507.491	7.21
507.923	7.38
508.354	7.55
508.786	7.73
509.217	7.92
509.649	8.11
510.08	8.3
510.512	8.49
510.943	8.69
511.374	8.89
511.805	9.1
512.237	9.31
512.668	9.52
513.099	9.73
513.53	9.96
513.961	10.18
514.391	10.41
514.822	10.65
515.253	10.89
515.684	11.14
516.114	11.39
516.545	11.64
516.975	11.89
517.406	12.16
517.836	12.42
518.267	12.68
518.697	12.94
519.127	13.2
519.558	13.45
519.988	13.72
520.418	13.97
520.848	14.22
521.278	14.47
521.708	14.82
522.138	15.06
522.567	15.28
522.997	15.49
523.427	15.73
523.857	15.94
524.286	16.14
524.716	16.34
525.145	16.54
525.575	16.74
526.004	16.94
526.433	17
526.863	17.17
527.292	17.37
527.721	17.53
528.15	17.68
528.579	17.83
529.008	17.98
529.437	18.12
529.866	18.24
530.295	18.37
530.724	18.48
531.152	18.61
531.581	18.74
532.01	18.85
532.438	18.95
532.867	19.05
533.295	19.14
533.723	19.23
534.152	19.3
534.58	19.38
535.008	19.43
535.436	19.51
535.865	19.56
536.293	19.6
536.721	19.64
537.149	19.68
537.576	19.74
538.004	19.79
538.432	19.84
538.86	19.88
539.287	19.93
539.715	19.97
540.143	19.99
540.57	20.03
540.998	20.06
541.425	20.1
541.852	20.14
542.28	20.17
542.707	20.19
543.134	20.22
543.561	20.25
543.988	20.27
544.415	20.3
544.842	20.31
545.269	20.34
545.696	20.37
546.123	20.39
546.549	20.41
546.976	20.43
547.403	20.44
547.829	20.45
548.256	20.47
548.682	20.48
549.108	20.5
549.535	20.52
549.961	20.53
550.387	20.53
550.813	20.53
551.24	20.53
551.666	20.53
552.092	20.52
552.518	20.51
552.943	20.49
553.369	20.48
553.795	20.45
554.221	20.41
554.646	20.37
555.072	20.33
555.498	20.28
555.923	20.23
556.349	20.15
556.774	20.09
557.199	20.04
557.625	19.97
558.05	19.9
558.475	19.84
558.9	19.76
559.325	19.7
559.75	19.62
560.175	19.54
560.6	19.44
561.025	19.36
561.449	19.26
561.874	19.14
562.299	19.03
562.723	18.92
563.148	18.8
563.572	18.67
563.997	18.55
564.421	18.4
564.846	18.27
565.27	18.14
565.694	18.01
566.118	17.88
566.542	17.74
566.966	17.6
567.39	17.47
567.814	17.33
568.238	17.19
568.662	17.06
569.086	16.94
569.509	16.81
569.933	16.67
570.357	16.54
570.78	16.41
571.204	16.29
571.627	16.16
572.05	16.04
572.474	15.93
572.897	15.81
573.32	15.69
573.743	15.58
574.166	15.47
574.589	15.36
575.012	15.25
575.435	15.15
575.858	15.04
576.281	14.94
576.704	14.83
577.126	14.74
577.549	14.62
577.972	14.53
578.394	14.43
578.817	14.34
579.239	14.27
579.661	14.19
580.084	14.1
580.506	14.02
580.928	13.94
581.35	13.87
581.772	13.79
582.194	13.73
582.616	13.67
583.038	13.6
583.46	13.53
583.882	13.47
584.303	13.39
584.725	13.32
585.147	13.26
585.568	13.2
585.99	13.14
586.411	13.07
586.833	13.01
587.254	12.94
587.675	12.89
588.096	12.84
588.518	12.79
588.939	12.75
589.36	12.71
589.781	12.67
590.202	12.63
590.623	12.59
591.043	12.55
591.464	12.54
591.885	12.49
592.305	12.45
592.726	12.43
593.147	12.39
593.567	12.36
593.987	12.33
594.408	12.3
594.828	12.27
595.248	12.25
595.669	12.22
596.089	12.18
596.509	12.17
596.929	12.14
597.349	12.11
597.769	12.07
598.189	12.03
598.608	12
599.028	11.97
599.448	11.93
599.867	11.89
600.287	11.86
600.706	11.82
601.126	11.78
601.545	11.74
601.965	11.7
602.384	11.66
602.803	11.61
603.222	11.57
603.641	11.51
604.061	11.46
604.48	11.39
604.898	11.33
605.317	11.27
605.736	11.21
606.155	11.15
606.574	11.08
606.992	11.02
607.411	10.96
607.829	10.87
608.248	10.79
608.666	10.72
609.085	10.67
609.503	10.6
609.921	10.52
610.339	10.46
610.758	10.4
611.176	10.33
611.594	10.26
612.012	10.19
612.43	10.14
612.847	10.08
613.265	10.01
613.683	9.95
614.101	9.89
614.518	9.83
614.936	9.76
615.353	9.69
615.771	9.63
616.188	9.58
616.606	9.53
617.023	9.49
617.44	9.45
617.857	9.4
618.274	9.35
618.691	9.29
619.108	9.26
619.525	9.22
619.942	9.19
620.359	9.15
620.776	9.12
621.192	9.08
621.609	9.05
622.026	9.03
622.442	9.02
622.859	8.99
623.275	8.98
623.691	8.95
624.108	8.93
624.524	8.91
624.94	8.9
625.356	8.89
625.772	8.88
626.188	8.86
626.604	8.84
627.02	8.83
627.436	8.82
627.852	8.81
628.268	8.8
628.683	8.78
629.099	8.78
629.514	8.76
629.93	8.74
630.345	8.72
630.761	8.7
631.176	8.68
631.591	8.64
632.007	8.61
632.422	8.58
632.837	8.54
633.252	8.49
633.667	8.44
634.082	8.39
634.497	8.35
634.911	8.29
635.326	8.23
635.741	8.17
636.155	8.1
636.57	8.03
636.984	7.96
637.399	7.88
637.813	7.8
638.228	7.72
638.642	7.63
639.056	7.53
639.47	7.45
639.884	7.36
640.298	7.27
640.712	7.19
641.126	7.1
641.54	7.01
641.954	6.93
642.368	6.85
642.781	6.76
643.195	6.68
643.609	6.6
644.022	6.51
644.436	6.44
644.849	6.36
645.262	6.3
645.676	6.22
646.089	6.15
646.502	6.09
646.915	6.04
647.328	5.99
647.741	5.95
648.154	5.9
648.567	5.87
648.98	5.83
649.393	5.8
649.805	5.76
650.218	5.73
650.631	5.7
651.043	5.66
651.456	5.63
651.868	5.59
652.28	5.56
652.693	5.53
653.105	5.49
653.517	5.46
653.929	5.42
654.341	5.38
654.753	5.33
655.165	5.29
655.577	5.24
655.989	5.19
656.401	5.14
656.813	5.1
657.224	5.03
657.636	4.96
658.047	4.91
658.459	4.85
658.87	4.79
659.282	4.73
659.693	4.67
660.104	4.6
660.515	4.55
660.926	4.5
661.338	4.43
661.749	4.38
662.159	4.34
662.57	4.29
662.981	4.25
663.392	4.21
663.803	4.18
664.213	4.14
664.624	4.11
665.035	4.08
665.445	4.05
665.855	4.03
666.266	4.02
666.676	4.01
667.086	3.98
667.497	3.96
667.907	3.95
668.317	3.94
668.727	3.93
669.137	3.92
669.547	3.92
669.956	3.92
670.366	3.93
670.776	3.92
671.186	3.91
671.595	3.92
672.005	3.92
672.414	3.92
672.824	3.93
673.233	3.95
673.642	3.96
674.052	3.96
674.461	3.97
674.87	3.99
675.279	4.01
675.688	4.04
676.097	4.06
676.506	4.09
676.915	4.11
677.323	4.13
677.732	4.14
678.141	4.17
678.549	4.2
678.958	4.23
679.366	4.25
679.775	4.28
680.183	4.32
680.592	4.36
681	4.41
681.408	4.46
681.816	4.53
682.224	4.6
682.632	4.67
683.04	4.75
683.448	4.84
683.856	4.94
684.264	5.04
684.671	5.16
685.079	5.3
685.487	5.45
685.894	5.61
686.302	5.79
686.709	5.99
687.116	6.21
687.524	6.45
687.931	6.71
688.338	6.99
688.745	7.29
689.152	7.61
689.559	7.95
689.966	8.31
690.373	8.7
690.78	9.09
691.187	9.5
691.593	9.93
692	10.37
692.407	10.81
692.813	11.27
693.22	11.73
693.626	12.19
694.032	12.68
694.439	13.17
694.845	13.65
695.251	14.14
695.657	14.63
696.063	15.13
696.469	15.63
696.875	16.13
697.281	16.64
697.687	17.14
698.093	17.63
698.498	18.11
698.904	18.58
699.31	19.07
699.715	19.55
700.12	20.02
700.526	20.47
700.931	20.93
701.337	21.38
701.742	21.81
702.147	22.24
702.552	22.7
702.957	23.11
703.362	23.55
703.767	23.93
704.172	24.34
704.577	24.73
704.981	25.14
705.386	25.52
705.791	25.91
706.195	26.3
706.6	26.7
707.004	27.03
707.408	27.39
707.813	27.75
708.217	28.1
708.621	28.45
709.025	28.78
709.43	29.1
709.834	29.44
710.237	29.75
710.641	30.06
711.045	30.35
711.449	30.68
711.853	30.99
712.256	31.28
712.66	31.57
713.064	31.86
713.467	32.14
713.87	32.41
714.274	32.66
714.677	32.93
715.08	33.18
715.484	33.45
715.887	33.69
716.29	33.93
716.693	34.18
717.096	34.41
717.499	34.67
717.901	34.91
718.304	35.14
718.707	35.36
719.109	35.59
719.512	35.82
719.915	36.03
720.317	36.23
720.719	36.41
721.122	36.61
721.524	36.81
721.926	36.99
722.328	37.18
722.731	37.37
723.133	37.56
723.535	37.72
723.937	37.88
724.338	38.03
724.74	38.2
725.142	38.43
725.544	38.59
725.945	38.74
726.347	38.86
726.748	38.98
727.15	39.08
727.551	39.19
727.952	39.31
728.354	39.41
728.755	39.54
729.156	39.64
729.557	39.67
729.958	39.77
730.359	39.86
730.76	39.96
731.161	40.05
731.562	40.17
731.962	40.24
732.363	40.33
732.763	40.42
733.164	40.51
733.564	40.62
733.965	40.68
734.365	40.75
734.766	40.8
735.166	40.87
735.566	40.92
735.966	40.97
736.366	41.04
736.766	41.07
737.166	41.14
737.566	41.16
737.966	41.18
738.365	41.23
738.765	41.3
739.165	41.34
739.564	41.38
739.964	41.41
740.363	41.43
740.763	41.48
741.162	41.53
741.561	41.53
741.96	41.56
742.36	41.61
742.759	41.65
743.158	41.65
743.557	41.7
743.955	41.74
744.354	41.79
744.753	41.8
745.152	41.85
745.55	41.88
745.949	41.91
746.348	41.96
746.746	41.97
747.144	41.98
747.543	42.01
747.941	42.05
748.339	42.03
748.737	42.05
749.136	42.07
749.534	42.04
749.932	42.05
750.33	42.07
750.727	42.09
751.125	42.11
751.523	42.12
751.921	42.12
752.318	42.1
752.716	42.12
753.113	42.15
753.511	42.16
753.908	42.2
754.305	42.2
754.703	42.17
755.1	42.12
755.497	42.07
755.894	42
756.291	41.94
756.688	41.87
757.085	41.83
757.482	41.76
757.878	41.7
758.275	41.64
758.672	41.58
759.068	41.58
759.465	41.54
759.861	41.54
760.258	41.55
760.654	41.59
761.05	41.63
761.447	41.65
761.843	41.66
762.239	41.69
762.635	41.7
763.031	41.76
763.427	41.77
763.822	41.82
764.218	41.83
764.614	41.89
765.01	41.91
765.405	41.91
765.801	41.93
766.196	41.96
766.592	41.98
766.987	42
767.382	41.99
767.778	41.99
768.173	41.99
768.568	42.01
768.963	41.99
769.358	42.01
769.753	42.03
770.148	42.03
770.542	42.02
770.937	42.03
771.332	42.04
771.726	42.04
772.121	42.05
772.515	42.06
772.91	42.07
773.304	42.06
773.699	42.04
774.093	42.01
774.487	41.99
774.881	42
775.275	42
775.669	41.97
776.063	41.96
776.457	41.96
776.851	41.94
777.245	41.9
777.638	41.88
778.032	41.89
778.425	41.94
778.819	41.94
779.212	41.94
779.606	41.94
779.999	41.96
780.392	41.99
780.786	41.98
781.179	41.97
781.572	42.03
781.965	42.05
782.358	42.04
782.751	42.02
783.143	42.02
783.536	42.01
783.929	42.02
784.322	42.02
