Data from C_1_HIR_IL_4N_Splice17_12-47-35-638.txt Node
Date: Sat Mar 07 12:47:35 EST 2020
User: sa697716
Spectrometer: NQ5500242
Trigger mode: 0
Integration Time (sec): 1.450000E-1
Scans to average: 20
Nonlinearity correction enabled: false
Boxcar width: 5
Storing dark spectrum: false
XAxis mode: Wavelengths
Number of Pixels in Spectrum: 512
>>>>>Begin Spectral Data<<<<<
187.83	128.27
188.298	149.28
188.766	125.48
189.233	92.94
189.701	95.35
190.169	107.01
190.636	89.34
191.104	27.8
191.571	-99.58
192.039	-116.27
192.506	-363.1
192.974	189.39
193.441	280.3
193.908	93.32
194.375	39
194.842	-15.12
195.31	-78.4
195.777	-412.87
196.244	-2.74
196.711	27.73
197.177	33.81
197.644	33.78
198.111	33.48
198.578	34.64
199.045	34.91
199.511	35.05
199.978	35.35
200.445	35.85
200.911	36.05
201.378	36.08
201.844	35.98
202.31	35.47
202.777	35.89
203.243	36.07
203.709	35.94
204.176	36.17
204.642	36.19
205.108	36.14
205.574	35.93
206.04	35.53
206.506	35.23
206.972	35.6
207.438	35.53
207.903	35.14
208.369	34.43
208.835	33.66
209.301	32.93
209.766	32.15
210.232	31.58
210.697	31.18
211.163	30.8
211.628	30.33
212.094	29.54
212.559	28.95
213.024	28.26
213.49	27.86
213.955	27.46
214.42	26.91
214.885	26.36
215.35	25.59
215.815	24.34
216.28	22.95
216.745	21.55
217.21	20.11
217.675	18.94
218.14	17.98
218.604	17.04
219.069	16.27
219.534	15.62
219.998	15.05
220.463	14.59
220.927	14.18
221.392	13.9
221.856	13.61
222.32	13.35
222.785	13.14
223.249	12.92
223.713	12.71
224.177	12.54
224.642	12.39
225.106	12.24
225.57	12.08
226.034	11.94
226.497	11.78
226.961	11.64
227.425	11.51
227.889	11.36
228.353	11.22
228.816	11.09
229.28	10.94
229.744	10.83
230.207	10.69
230.671	10.57
231.134	10.44
231.597	10.33
232.061	10.22
232.524	10.11
232.987	10.01
233.45	9.92
233.914	9.82
234.377	9.72
234.84	9.6
235.303	9.52
235.766	9.43
236.229	9.34
236.691	9.25
237.154	9.17
237.617	9.08
238.08	8.99
238.542	8.9
239.005	8.83
239.468	8.73
239.93	8.66
240.393	8.58
240.855	8.5
241.317	8.42
241.78	8.34
242.242	8.26
242.704	8.2
243.166	8.14
243.629	8.08
244.091	8
244.553	7.94
245.015	7.89
245.477	7.82
245.939	7.75
246.4	7.69
246.862	7.64
247.324	7.6
247.786	7.53
248.247	7.47
248.709	7.41
249.17	7.35
249.632	7.31
250.093	7.26
250.555	7.22
251.016	7.17
251.477	7.13
251.939	7.09
252.4	7.04
252.861	7
253.322	6.96
253.783	6.93
254.244	6.9
254.705	6.85
255.166	6.82
255.627	6.78
256.088	6.75
256.549	6.72
257.009	6.69
257.47	6.65
257.931	6.61
258.391	6.57
258.852	6.53
259.312	6.51
259.773	6.48
260.233	6.45
260.694	6.42
261.154	6.38
261.614	6.35
262.074	6.32
262.534	6.29
262.994	6.26
263.455	6.24
263.915	6.22
264.374	6.19
264.834	6.17
265.294	6.15
265.754	6.14
266.214	6.12
266.673	6.1
267.133	6.09
267.593	6.08
268.052	6.07
268.512	6.06
268.971	6.05
269.431	6.04
269.89	6.02
270.349	6.02
270.809	6
271.268	5.99
271.727	5.98
272.186	5.97
272.645	5.96
273.104	5.94
273.563	5.92
274.022	5.91
274.481	5.9
274.94	5.89
275.399	5.87
275.857	5.85
276.316	5.84
276.775	5.82
277.233	5.8
277.692	5.79
278.15	5.77
278.609	5.76
279.067	5.74
279.525	5.72
279.984	5.7
280.442	5.69
280.9	5.67
281.358	5.65
281.816	5.64
282.274	5.62
282.732	5.6
283.19	5.58
283.648	5.56
284.106	5.53
284.564	5.51
285.021	5.5
285.479	5.48
285.937	5.46
286.394	5.44
286.852	5.41
287.309	5.38
287.767	5.37
288.224	5.34
288.682	5.32
289.139	5.31
289.596	5.29
290.053	5.26
290.511	5.24
290.968	5.22
291.425	5.2
291.882	5.19
292.339	5.17
292.796	5.16
293.252	5.15
293.709	5.14
294.166	5.12
294.623	5.11
295.079	5.09
295.536	5.08
295.992	5.07
296.449	5.06
296.905	5.04
297.362	5.03
297.818	5.01
298.274	5
298.731	4.98
299.187	4.96
299.643	4.95
300.099	4.94
300.555	4.92
301.011	4.91
301.467	4.9
301.923	4.88
302.379	4.87
302.835	4.86
303.291	4.85
303.746	4.84
304.202	4.83
304.658	4.82
305.113	4.8
305.569	4.8
306.024	4.79
306.479	4.78
306.935	4.77
307.39	4.77
307.845	4.75
308.301	4.75
308.756	4.74
309.211	4.73
309.666	4.73
310.121	4.72
310.576	4.71
311.031	4.7
311.486	4.7
311.94	4.68
312.395	4.67
312.85	4.67
313.305	4.66
313.759	4.66
314.214	4.65
314.668	4.63
315.123	4.62
315.577	4.62
316.032	4.6
316.486	4.59
316.94	4.58
317.394	4.57
317.849	4.55
318.303	4.53
318.757	4.52
319.211	4.5
319.665	4.48
320.119	4.47
320.572	4.46
321.026	4.46
321.48	4.45
321.934	4.43
322.387	4.41
322.841	4.4
323.295	4.4
323.748	4.4
324.202	4.39
324.655	4.38
325.108	4.38
325.562	4.37
326.015	4.36
326.468	4.36
326.921	4.36
327.374	4.36
327.827	4.35
328.28	4.34
328.733	4.33
329.186	4.33
329.639	4.33
330.092	4.33
330.545	4.32
330.997	4.31
331.45	4.31
331.903	4.3
332.355	4.3
332.808	4.3
333.26	4.3
333.713	4.29
334.165	4.28
334.617	4.27
335.069	4.27
335.522	4.27
335.974	4.28
336.426	4.27
336.878	4.26
337.33	4.25
337.782	4.25
338.234	4.25
338.686	4.25
339.137	4.25
339.589	4.23
340.041	4.22
340.493	4.21
340.944	4.19
341.396	4.18
341.847	4.18
342.299	4.15
342.75	4.13
343.201	4.12
343.653	4.11
344.104	4.09
344.555	4.09
345.006	4.08
345.457	4.08
345.908	4.07
346.359	4.07
346.81	4.06
347.261	4.06
347.712	4.06
348.163	4.05
348.613	4.06
349.064	4.05
349.515	4.05
349.965	4.04
350.416	4.02
350.866	4.02
351.317	4.01
351.767	4.01
352.217	4
352.668	4
353.118	3.99
353.568	3.98
354.018	3.97
354.468	3.97
354.918	3.97
355.368	3.97
355.818	3.97
356.268	3.97
356.718	3.97
357.168	3.96
357.617	3.95
358.067	3.94
358.517	3.96
358.966	3.96
359.416	3.96
359.865	3.95
360.315	3.96
360.764	3.96
361.213	3.95
361.663	3.94
362.112	3.95
362.561	3.96
363.01	3.96
363.459	3.93
363.908	3.94
364.357	3.94
364.806	3.93
365.255	3.92
365.703	3.92
366.152	3.93
366.601	3.93
367.05	3.92
367.498	3.92
367.947	3.92
368.395	3.93
368.844	3.92
369.292	3.92
369.74	3.93
370.189	3.93
370.637	3.93
371.085	3.92
371.533	3.93
371.981	3.93
372.429	3.94
372.877	3.94
373.325	3.94
373.773	3.94
374.221	3.94
374.669	3.94
375.116	3.94
375.564	3.95
376.012	3.96
376.459	3.96
376.907	3.97
377.354	3.98
377.801	3.99
378.249	3.99
378.696	3.99
379.143	4
379.591	4.01
380.038	4.02
380.485	4.03
380.932	4.04
381.379	4.05
381.826	4.06
382.273	4.07
382.72	4.08
383.166	4.08
383.613	4.1
384.06	4.11
384.506	4.12
384.953	4.13
385.4	4.16
385.846	4.18
386.292	4.18
386.739	4.2
387.185	4.21
387.631	4.23
388.078	4.26
388.524	4.27
388.97	4.29
389.416	4.31
389.862	4.33
390.308	4.33
390.754	4.36
391.2	4.37
391.645	4.39
392.091	4.41
392.537	4.42
392.983	4.44
393.428	4.46
393.874	4.47
394.319	4.48
394.765	4.5
395.21	4.51
395.655	4.53
396.101	4.55
396.546	4.55
396.991	4.57
397.436	4.58
397.881	4.6
398.326	4.62
398.771	4.63
399.216	4.65
399.661	4.66
400.106	4.67
400.551	4.67
400.995	4.67
401.44	4.68
401.885	4.68
402.329	4.68
402.774	4.68
403.218	4.7
403.663	4.7
404.107	4.7
404.551	4.7
404.995	4.71
405.44	4.71
405.884	4.71
406.328	4.72
406.772	4.72
407.216	4.72
407.66	4.72
408.104	4.71
408.547	4.7
408.991	4.7
409.435	4.7
409.879	4.71
410.322	4.72
410.766	4.73
411.209	4.74
411.653	4.76
412.096	4.77
412.54	4.76
412.983	4.77
413.426	4.8
413.869	4.79
414.312	4.81
414.756	4.81
415.199	4.8
415.642	4.8
416.085	4.79
416.527	4.76
416.97	4.75
417.413	4.75
417.856	4.76
418.298	4.74
418.741	4.74
419.184	4.73
419.626	4.73
420.069	4.74
420.511	4.72
420.953	4.72
421.396	4.74
421.838	4.74
422.28	4.73
422.722	4.74
423.164	4.74
423.606	4.73
424.048	4.74
424.49	4.74
424.932	4.74
425.374	4.74
425.816	4.71
426.258	4.69
426.699	4.68
427.141	4.67
427.582	4.67
428.024	4.67
428.465	4.67
428.907	4.65
429.348	4.62
429.789	4.61
430.231	4.63
430.672	4.64
431.113	4.67
431.554	4.67
431.995	4.68
432.436	4.68
432.877	4.69
433.318	4.7
433.759	4.72
434.2	4.74
434.64	4.76
435.081	4.76
435.522	4.77
435.962	4.77
436.403	4.8
436.843	4.82
437.284	4.81
437.724	4.81
438.164	4.81
438.604	4.81
439.045	4.8
439.485	4.79
439.925	4.79
440.365	4.79
440.805	4.78
441.245	4.78
441.685	4.78
442.125	4.8
442.564	4.82
443.004	4.82
443.444	4.82
443.883	4.82
444.323	4.84
444.762	4.85
445.202	4.84
445.641	4.86
446.081	4.87
446.52	4.86
446.959	4.88
447.398	4.88
447.837	4.88
448.276	4.9
448.716	4.91
449.154	4.92
449.593	4.93
450.032	4.92
450.471	4.91
450.91	4.91
451.349	4.91
451.787	4.91
452.226	4.9
452.664	4.9
453.103	4.9
453.541	4.9
453.98	4.9
454.418	4.89
454.856	4.9
455.295	4.89
455.733	4.86
456.171	4.84
456.609	4.83
457.047	4.82
457.485	4.8
457.923	4.81
458.361	4.8
458.798	4.8
459.236	4.79
459.674	4.79
460.111	4.8
460.549	4.81
460.987	4.82
461.424	4.82
461.862	4.83
462.299	4.84
462.736	4.82
463.173	4.82
463.611	4.82
464.048	4.83
464.485	4.82
464.922	4.82
465.359	4.83
465.796	4.84
466.233	4.85
466.67	4.87
467.106	4.87
467.543	4.88
467.98	4.86
468.416	4.86
468.853	4.84
469.29	4.85
469.726	4.85
470.162	4.84
470.599	4.84
471.035	4.83
471.471	4.82
471.907	4.81
472.344	4.8
472.78	4.81
473.216	4.8
473.652	4.8
474.088	4.79
474.523	4.79
474.959	4.78
475.395	4.76
475.831	4.76
476.266	4.77
476.702	4.75
477.138	4.75
477.573	4.75
478.008	4.76
478.444	4.75
478.879	4.76
479.314	4.74
479.75	4.75
480.185	4.73
480.62	4.72
481.055	4.7
481.49	4.7
481.925	4.7
482.36	4.7
482.795	4.69
483.229	4.69
483.664	4.7
484.099	4.7
484.534	4.7
484.968	4.71
485.403	4.72
485.837	4.72
486.271	4.73
486.706	4.74
487.14	4.74
487.574	4.76
488.009	4.76
488.443	4.77
488.877	4.79
489.311	4.81
489.745	4.84
490.179	4.87
490.613	4.89
491.046	4.92
491.48	4.95
491.914	4.98
492.348	5.02
492.781	5.06
493.215	5.11
493.648	5.15
494.082	5.19
494.515	5.23
494.948	5.28
495.382	5.33
495.815	5.39
496.248	5.45
496.681	5.52
497.114	5.59
497.547	5.65
497.98	5.71
498.413	5.78
498.846	5.86
499.279	5.94
499.711	6.02
500.144	6.11
500.577	6.2
501.009	6.31
501.442	6.41
501.874	6.52
502.306	6.63
502.739	6.77
503.171	6.89
503.603	7.03
504.036	7.18
504.468	7.33
504.9	7.47
505.332	7.62
505.764	7.78
506.196	7.95
506.627	8.13
507.059	8.31
507.491	8.49
507.923	8.7
508.354	8.91
508.786	9.12
509.217	9.35
509.649	9.58
510.08	9.81
510.512	10.05
510.943	10.29
511.374	10.54
511.805	10.79
512.237	11.04
512.668	11.3
513.099	11.56
513.53	11.82
513.961	12.09
514.391	12.36
514.822	12.64
515.253	12.92
515.684	13.21
516.114	13.5
516.545	13.79
516.975	14.1
517.406	14.42
517.836	14.72
518.267	15.04
518.697	15.34
519.127	15.63
519.558	15.94
519.988	16.24
520.418	16.52
520.848	16.81
521.278	17.1
521.708	17.51
522.138	17.78
522.567	18.05
522.997	18.3
523.427	18.57
523.857	18.83
524.286	19.08
524.716	19.33
525.145	19.58
525.575	19.81
526.004	20.05
526.433	20.14
526.863	20.34
527.292	20.56
527.721	20.75
528.15	20.93
528.579	21.1
529.008	21.26
529.437	21.41
529.866	21.57
530.295	21.72
530.724	21.85
531.152	21.98
531.581	22.12
532.01	22.24
532.438	22.35
532.867	22.47
533.295	22.58
533.723	22.69
534.152	22.78
534.58	22.86
535.008	22.92
535.436	22.99
535.865	23.05
536.293	23.11
536.721	23.16
537.149	23.22
537.576	23.28
538.004	23.32
538.432	23.38
538.86	23.42
539.287	23.46
539.715	23.53
540.143	23.58
540.57	23.63
540.998	23.67
541.425	23.71
541.852	23.73
542.28	23.78
542.707	23.82
543.134	23.85
543.561	23.89
543.988	23.93
544.415	23.93
544.842	23.96
545.269	23.99
545.696	24.02
546.123	24.04
546.549	24.07
546.976	24.09
547.403	24.11
547.829	24.12
548.256	24.14
548.682	24.15
549.108	24.19
549.535	24.2
549.961	24.2
550.387	24.19
550.813	24.21
551.24	24.21
551.666	24.18
552.092	24.18
552.518	24.17
552.943	24.15
553.369	24.13
553.795	24.09
554.221	24.06
554.646	24.02
555.072	23.98
555.498	23.91
555.923	23.85
556.349	23.79
556.774	23.72
557.199	23.65
557.625	23.57
558.05	23.49
558.475	23.4
558.9	23.31
559.325	23.24
559.75	23.15
560.175	23.06
560.6	22.95
561.025	22.85
561.449	22.74
561.874	22.63
562.299	22.52
562.723	22.4
563.148	22.27
563.572	22.13
563.997	21.97
564.421	21.83
564.846	21.68
565.27	21.53
565.694	21.38
566.118	21.23
566.542	21.08
566.966	20.92
567.39	20.77
567.814	20.61
568.238	20.46
568.662	20.32
569.086	20.17
569.509	20.02
569.933	19.87
570.357	19.73
570.78	19.57
571.204	19.42
571.627	19.27
572.05	19.12
572.474	18.97
572.897	18.83
573.32	18.69
573.743	18.54
574.166	18.42
574.589	18.29
575.012	18.16
575.435	18.05
575.858	17.92
576.281	17.8
576.704	17.69
577.126	17.59
577.549	17.47
577.972	17.36
578.394	17.26
578.817	17.16
579.239	17.05
579.661	16.96
580.084	16.86
580.506	16.77
580.928	16.69
581.35	16.6
581.772	16.5
582.194	16.43
582.616	16.34
583.038	16.26
583.46	16.18
583.882	16.11
584.303	16.03
584.725	15.94
585.147	15.87
585.568	15.8
585.99	15.73
586.411	15.65
586.833	15.59
587.254	15.52
587.675	15.46
588.096	15.4
588.518	15.33
588.939	15.27
589.36	15.22
589.781	15.18
590.202	15.14
590.623	15.09
591.043	15.04
591.464	15
591.885	14.97
592.305	14.93
592.726	14.91
593.147	14.87
593.567	14.84
593.987	14.8
594.408	14.76
594.828	14.73
595.248	14.7
595.669	14.67
596.089	14.65
596.509	14.62
596.929	14.58
597.349	14.53
597.769	14.51
598.189	14.46
598.608	14.44
599.028	14.41
599.448	14.36
599.867	14.31
600.287	14.28
600.706	14.23
601.126	14.18
601.545	14.14
601.965	14.1
602.384	14.05
602.803	13.99
603.222	13.92
603.641	13.87
604.061	13.81
604.48	13.74
604.898	13.67
605.317	13.59
605.736	13.53
606.155	13.45
606.574	13.36
606.992	13.28
607.411	13.21
607.829	13.11
608.248	13.03
608.666	12.95
609.085	12.88
609.503	12.8
609.921	12.74
610.339	12.64
610.758	12.56
611.176	12.48
611.594	12.41
612.012	12.32
612.43	12.26
612.847	12.18
613.265	12.09
613.683	12
614.101	11.92
614.518	11.84
614.936	11.76
615.353	11.69
615.771	11.61
616.188	11.54
616.606	11.48
617.023	11.41
617.44	11.35
617.857	11.3
618.274	11.24
618.691	11.18
619.108	11.13
619.525	11.09
619.942	11.05
620.359	11.02
620.776	10.98
621.192	10.95
621.609	10.92
622.026	10.89
622.442	10.87
622.859	10.85
623.275	10.83
623.691	10.81
624.108	10.79
624.524	10.78
624.94	10.76
625.356	10.75
625.772	10.74
626.188	10.72
626.604	10.71
627.02	10.69
627.436	10.67
627.852	10.66
628.268	10.64
628.683	10.63
629.099	10.62
629.514	10.6
629.93	10.57
630.345	10.55
630.761	10.52
631.176	10.5
631.591	10.46
632.007	10.43
632.422	10.39
632.837	10.35
633.252	10.29
633.667	10.23
634.082	10.16
634.497	10.1
634.911	10.02
635.326	9.94
635.741	9.86
636.155	9.76
636.57	9.68
636.984	9.6
637.399	9.5
637.813	9.39
638.228	9.29
638.642	9.19
639.056	9.08
639.47	8.98
639.884	8.89
640.298	8.77
640.712	8.67
641.126	8.56
641.54	8.45
641.954	8.33
642.368	8.23
642.781	8.13
643.195	8.03
643.609	7.92
644.022	7.82
644.436	7.71
644.849	7.62
645.262	7.53
645.676	7.45
646.089	7.37
646.502	7.3
646.915	7.23
647.328	7.17
647.741	7.11
648.154	7.05
648.567	7.01
648.98	6.95
649.393	6.91
649.805	6.87
650.218	6.82
650.631	6.78
651.043	6.74
651.456	6.7
651.868	6.66
652.28	6.62
652.693	6.58
653.105	6.54
653.517	6.5
653.929	6.44
654.341	6.38
654.753	6.32
655.165	6.26
655.577	6.2
655.989	6.13
656.401	6.06
656.813	6
657.224	5.93
657.636	5.84
658.047	5.79
658.459	5.71
658.87	5.64
659.282	5.56
659.693	5.49
660.104	5.42
660.515	5.35
660.926	5.27
661.338	5.2
661.749	5.13
662.159	5.07
662.57	5.01
662.981	4.96
663.392	4.91
663.803	4.86
664.213	4.8
664.624	4.75
665.035	4.7
665.445	4.67
665.855	4.64
666.266	4.61
666.676	4.59
667.086	4.55
667.497	4.53
667.907	4.5
668.317	4.49
668.727	4.48
669.137	4.47
669.547	4.47
669.956	4.46
670.366	4.45
670.776	4.44
671.186	4.43
671.595	4.43
672.005	4.45
672.414	4.46
672.824	4.47
673.233	4.48
673.642	4.49
674.052	4.5
674.461	4.51
674.87	4.52
675.279	4.55
675.688	4.58
676.097	4.61
676.506	4.63
676.915	4.64
677.323	4.67
677.732	4.7
678.141	4.74
678.549	4.78
678.958	4.83
679.366	4.88
679.775	4.91
680.183	4.96
680.592	5.02
681	5.09
681.408	5.16
681.816	5.24
682.224	5.33
682.632	5.43
683.04	5.53
683.448	5.64
683.856	5.78
684.264	5.93
684.671	6.08
685.079	6.25
685.487	6.45
685.894	6.67
686.302	6.92
686.709	7.2
687.116	7.49
687.524	7.8
687.931	8.14
688.338	8.5
688.745	8.9
689.152	9.31
689.559	9.76
689.966	10.21
690.373	10.7
690.78	11.2
691.187	11.71
691.593	12.24
692	12.79
692.407	13.34
692.813	13.93
693.22	14.5
693.626	15.07
694.032	15.65
694.439	16.25
694.845	16.85
695.251	17.43
695.657	18.01
696.063	18.61
696.469	19.2
696.875	19.79
697.281	20.38
697.687	20.97
698.093	21.56
698.498	22.13
698.904	22.71
699.31	23.26
699.715	23.8
700.12	24.36
700.526	24.91
700.931	25.45
701.337	25.97
701.742	26.47
702.147	26.97
702.552	27.46
702.957	27.93
703.362	28.41
703.767	28.87
704.172	29.34
704.577	29.79
704.981	30.23
705.386	30.65
705.791	31.07
706.195	31.49
706.6	31.91
707.004	32.31
707.408	32.73
707.813	33.13
708.217	33.52
708.621	33.92
709.025	34.29
709.43	34.65
709.834	35.04
710.237	35.38
710.641	35.75
711.045	36.08
711.449	36.41
711.853	36.77
712.256	37.09
712.66	37.41
713.064	37.7
713.467	38
713.87	38.29
714.274	38.57
714.677	38.87
715.08	39.14
715.484	39.44
715.887	39.72
716.29	39.95
716.693	40.21
717.096	40.49
717.499	40.77
717.901	41.04
718.304	41.3
718.707	41.56
719.109	41.8
719.512	42.05
719.915	42.27
720.317	42.47
720.719	42.68
721.122	42.89
721.524	43.1
721.926	43.3
722.328	43.48
722.731	43.68
723.133	43.87
723.535	44.06
723.937	44.21
724.338	44.38
724.74	44.58
725.142	44.82
725.544	44.97
725.945	45.14
726.347	45.27
726.748	45.41
727.15	45.56
727.551	45.69
727.952	45.8
728.354	45.93
728.755	46.06
729.156	46.16
729.557	46.21
729.958	46.33
730.359	46.41
730.76	46.52
731.161	46.62
731.562	46.73
731.962	46.8
732.363	46.91
732.763	47
733.164	47.08
733.564	47.17
733.965	47.23
734.365	47.29
734.766	47.35
735.166	47.4
735.566	47.46
735.966	47.5
736.366	47.55
736.766	47.59
737.166	47.64
737.566	47.69
737.966	47.73
738.365	47.79
738.765	47.86
739.165	47.9
739.564	47.96
739.964	47.99
740.363	48.03
740.763	48.08
741.162	48.12
741.561	48.15
741.96	48.18
742.36	48.2
742.759	48.24
743.158	48.26
743.557	48.3
743.955	48.34
744.354	48.38
744.753	48.43
745.152	48.46
745.55	48.5
745.949	48.52
746.348	48.54
746.746	48.57
747.144	48.6
747.543	48.63
747.941	48.66
748.339	48.64
748.737	48.65
749.136	48.63
749.534	48.62
749.932	48.61
750.33	48.6
750.727	48.6
751.125	48.62
751.523	48.6
751.921	48.61
752.318	48.62
752.716	48.64
753.113	48.67
753.511	48.71
753.908	48.75
754.305	48.78
754.703	48.8
755.1	48.82
755.497	48.81
755.894	48.81
756.291	48.78
756.688	48.77
757.085	48.76
757.482	48.74
757.878	48.69
758.275	48.66
758.672	48.64
759.068	48.64
759.465	48.63
759.861	48.62
760.258	48.61
760.654	48.64
761.05	48.66
761.447	48.66
761.843	48.66
762.239	48.68
762.635	48.7
763.031	48.72
763.427	48.7
763.822	48.72
764.218	48.75
764.614	48.79
765.01	48.78
765.405	48.77
765.801	48.76
766.196	48.78
766.592	48.79
766.987	48.78
767.382	48.76
767.778	48.79
768.173	48.79
768.568	48.76
768.963	48.74
769.358	48.76
769.753	48.74
770.148	48.74
770.542	48.71
770.937	48.73
771.332	48.74
771.726	48.74
772.121	48.73
772.515	48.75
772.91	48.75
773.304	48.78
773.699	48.76
774.093	48.77
774.487	48.78
774.881	48.81
775.275	48.79
775.669	48.75
776.063	48.74
776.457	48.74
776.851	48.72
777.245	48.69
777.638	48.67
778.032	48.68
778.425	48.71
778.819	48.7
779.212	48.71
779.606	48.71
779.999	48.72
780.392	48.77
780.786	48.77
781.179	48.78
781.572	48.84
781.965	48.84
782.358	48.85
782.751	48.83
783.143	48.85
