Data from C_1_DEC_ON_6N_Splice17_12-45-44-354.txt Node
Date: Sat Mar 07 12:45:44 EST 2020
User: sa697716
Spectrometer: NQ5500242
Trigger mode: 0
Integration Time (sec): 1.450000E-1
Scans to average: 20
Nonlinearity correction enabled: false
Boxcar width: 5
Storing dark spectrum: false
XAxis mode: Wavelengths
Number of Pixels in Spectrum: 512
>>>>>Begin Spectral Data<<<<<
187.83	113.98
188.298	101.56
188.766	83.5
189.233	77.31
189.701	80.24
190.169	89.8
190.636	71.9
191.104	-71.56
191.571	-319.5
192.039	-335.24
192.506	-914.58
192.974	261.41
193.441	175.83
193.908	20.74
194.375	30.13
194.842	-33.56
195.31	-34.04
195.777	-114.93
196.244	13.58
196.711	32.3
197.177	34.77
197.644	35.14
198.111	33.83
198.578	34.53
199.045	35.08
199.511	35.1
199.978	35.27
200.445	35.23
200.911	35.04
201.378	34.84
201.844	34.34
202.31	33.8
202.777	33.89
203.243	34.21
203.709	33.94
204.176	33.58
204.642	33.53
205.108	33.62
205.574	33.49
206.04	33.36
206.506	33.31
206.972	33.62
207.438	33.42
207.903	32.91
208.369	32.34
208.835	31.88
209.301	31.32
209.766	30.4
210.232	29.7
210.697	28.89
211.163	28.04
211.628	27.15
212.094	26.47
212.559	26.1
213.024	25.51
213.49	24.93
213.955	24.37
214.42	23.82
214.885	23.27
215.35	22.5
215.815	21.46
216.28	20.16
216.745	18.78
217.21	17.36
217.675	16.2
218.14	15.22
218.604	14.35
219.069	13.55
219.534	12.92
219.998	12.34
220.463	11.88
220.927	11.47
221.392	11.18
221.856	10.94
222.32	10.72
222.785	10.5
223.249	10.3
223.713	10.13
224.177	9.98
224.642	9.81
225.106	9.65
225.57	9.49
226.034	9.36
226.497	9.22
226.961	9.09
227.425	8.95
227.889	8.83
228.353	8.71
228.816	8.59
229.28	8.49
229.744	8.39
230.207	8.3
230.671	8.22
231.134	8.13
231.597	8.06
232.061	7.97
232.524	7.9
232.987	7.82
233.45	7.74
233.914	7.65
234.377	7.58
234.84	7.51
235.303	7.45
235.766	7.39
236.229	7.32
236.691	7.25
237.154	7.19
237.617	7.13
238.08	7.06
238.542	6.99
239.005	6.95
239.468	6.9
239.93	6.83
240.393	6.79
240.855	6.72
241.317	6.66
241.78	6.6
242.242	6.55
242.704	6.5
243.166	6.46
243.629	6.42
244.091	6.35
244.553	6.3
245.015	6.25
245.477	6.19
245.939	6.14
246.4	6.08
246.862	6.05
247.324	5.99
247.786	5.95
248.247	5.9
248.709	5.85
249.17	5.81
249.632	5.77
250.093	5.73
250.555	5.7
251.016	5.67
251.477	5.63
251.939	5.59
252.4	5.57
252.861	5.54
253.322	5.51
253.783	5.48
254.244	5.45
254.705	5.42
255.166	5.4
255.627	5.36
256.088	5.34
256.549	5.31
257.009	5.27
257.47	5.24
257.931	5.19
258.391	5.16
258.852	5.12
259.312	5.09
259.773	5.05
260.233	5.03
260.694	4.99
261.154	4.96
261.614	4.93
262.074	4.9
262.534	4.88
262.994	4.86
263.455	4.84
263.915	4.82
264.374	4.81
264.834	4.79
265.294	4.78
265.754	4.76
266.214	4.75
266.673	4.73
267.133	4.73
267.593	4.71
268.052	4.69
268.512	4.69
268.971	4.67
269.431	4.66
269.89	4.64
270.349	4.62
270.809	4.61
271.268	4.59
271.727	4.58
272.186	4.57
272.645	4.56
273.104	4.55
273.563	4.53
274.022	4.52
274.481	4.51
274.94	4.5
275.399	4.48
275.857	4.47
276.316	4.46
276.775	4.44
277.233	4.43
277.692	4.42
278.15	4.41
278.609	4.4
279.067	4.39
279.525	4.38
279.984	4.36
280.442	4.35
280.9	4.34
281.358	4.32
281.816	4.31
282.274	4.3
282.732	4.29
283.19	4.27
283.648	4.26
284.106	4.24
284.564	4.22
285.021	4.22
285.479	4.21
285.937	4.2
286.394	4.2
286.852	4.19
287.309	4.18
287.767	4.17
288.224	4.16
288.682	4.15
289.139	4.14
289.596	4.13
290.053	4.11
290.511	4.09
290.968	4.08
291.425	4.07
291.882	4.06
292.339	4.04
292.796	4.03
293.252	4.01
293.709	4
294.166	3.99
294.623	3.98
295.079	3.97
295.536	3.97
295.992	3.95
296.449	3.95
296.905	3.94
297.362	3.93
297.818	3.92
298.274	3.92
298.731	3.91
299.187	3.9
299.643	3.9
300.099	3.89
300.555	3.88
301.011	3.87
301.467	3.86
301.923	3.85
302.379	3.85
302.835	3.84
303.291	3.84
303.746	3.84
304.202	3.83
304.658	3.83
305.113	3.83
305.569	3.83
306.024	3.83
306.479	3.83
306.935	3.82
307.39	3.81
307.845	3.8
308.301	3.8
308.756	3.8
309.211	3.79
309.666	3.8
310.121	3.79
310.576	3.79
311.031	3.78
311.486	3.78
311.94	3.79
312.395	3.79
312.85	3.79
313.305	3.79
313.759	3.79
314.214	3.78
314.668	3.77
315.123	3.77
315.577	3.77
316.032	3.77
316.486	3.76
316.94	3.75
317.394	3.75
317.849	3.73
318.303	3.73
318.757	3.71
319.211	3.71
319.665	3.69
320.119	3.69
320.572	3.68
321.026	3.68
321.48	3.67
321.934	3.66
322.387	3.65
322.841	3.64
323.295	3.64
323.748	3.64
324.202	3.64
324.655	3.65
325.108	3.64
325.562	3.63
326.015	3.63
326.468	3.63
326.921	3.62
327.374	3.62
327.827	3.62
328.28	3.6
328.733	3.61
329.186	3.6
329.639	3.59
330.092	3.59
330.545	3.59
330.997	3.58
331.45	3.58
331.903	3.58
332.355	3.58
332.808	3.58
333.26	3.59
333.713	3.58
334.165	3.58
334.617	3.58
335.069	3.58
335.522	3.57
335.974	3.57
336.426	3.57
336.878	3.56
337.33	3.56
337.782	3.57
338.234	3.56
338.686	3.56
339.137	3.57
339.589	3.56
340.041	3.56
340.493	3.54
340.944	3.53
341.396	3.53
341.847	3.52
342.299	3.5
342.75	3.49
343.201	3.47
343.653	3.46
344.104	3.44
344.555	3.42
345.006	3.41
345.457	3.4
345.908	3.4
346.359	3.4
346.81	3.39
347.261	3.39
347.712	3.38
348.163	3.37
348.613	3.37
349.064	3.37
349.515	3.38
349.965	3.38
350.416	3.38
350.866	3.37
351.317	3.37
351.767	3.36
352.217	3.37
352.668	3.38
353.118	3.38
353.568	3.37
354.018	3.38
354.468	3.37
354.918	3.38
355.368	3.38
355.818	3.38
356.268	3.38
356.718	3.38
357.168	3.37
357.617	3.37
358.067	3.37
358.517	3.38
358.966	3.38
359.416	3.38
359.865	3.37
360.315	3.39
360.764	3.39
361.213	3.38
361.663	3.38
362.112	3.38
362.561	3.38
363.01	3.38
363.459	3.36
363.908	3.36
364.357	3.36
364.806	3.36
365.255	3.35
365.703	3.36
366.152	3.36
366.601	3.36
367.05	3.37
367.498	3.36
367.947	3.36
368.395	3.37
368.844	3.37
369.292	3.36
369.74	3.37
370.189	3.38
370.637	3.38
371.085	3.38
371.533	3.38
371.981	3.39
372.429	3.4
372.877	3.41
373.325	3.42
373.773	3.43
374.221	3.43
374.669	3.44
375.116	3.44
375.564	3.45
376.012	3.46
376.459	3.47
376.907	3.49
377.354	3.5
377.801	3.51
378.249	3.52
378.696	3.53
379.143	3.54
379.591	3.56
380.038	3.57
380.485	3.59
380.932	3.61
381.379	3.62
381.826	3.63
382.273	3.64
382.72	3.65
383.166	3.67
383.613	3.69
384.06	3.7
384.506	3.71
384.953	3.73
385.4	3.75
385.846	3.76
386.292	3.78
386.739	3.8
387.185	3.82
387.631	3.83
388.078	3.84
388.524	3.86
388.97	3.88
389.416	3.9
389.862	3.92
390.308	3.95
390.754	3.96
391.2	3.98
391.645	4.01
392.091	4.03
392.537	4.06
392.983	4.08
393.428	4.1
393.874	4.12
394.319	4.12
394.765	4.13
395.21	4.14
395.655	4.15
396.101	4.17
396.546	4.18
396.991	4.18
397.436	4.2
397.881	4.22
398.326	4.24
398.771	4.26
399.216	4.27
399.661	4.28
400.106	4.29
400.551	4.29
400.995	4.28
401.44	4.29
401.885	4.3
402.329	4.3
402.774	4.3
403.218	4.32
403.663	4.32
404.107	4.33
404.551	4.33
404.995	4.33
405.44	4.33
405.884	4.34
406.328	4.35
406.772	4.33
407.216	4.34
407.66	4.34
408.104	4.32
408.547	4.31
408.991	4.31
409.435	4.3
409.879	4.31
410.322	4.32
410.766	4.33
411.209	4.34
411.653	4.35
412.096	4.35
412.54	4.34
412.983	4.34
413.426	4.36
413.869	4.36
414.312	4.38
414.756	4.38
415.199	4.37
415.642	4.37
416.085	4.35
416.527	4.35
416.97	4.34
417.413	4.33
417.856	4.33
418.298	4.31
418.741	4.32
419.184	4.3
419.626	4.29
420.069	4.3
420.511	4.3
420.953	4.31
421.396	4.33
421.838	4.33
422.28	4.33
422.722	4.34
423.164	4.35
423.606	4.34
424.048	4.35
424.49	4.34
424.932	4.34
425.374	4.32
425.816	4.3
426.258	4.27
426.699	4.26
427.141	4.25
427.582	4.24
428.024	4.22
428.465	4.22
428.907	4.2
429.348	4.2
429.789	4.19
430.231	4.2
430.672	4.21
431.113	4.22
431.554	4.24
431.995	4.24
432.436	4.24
432.877	4.26
433.318	4.28
433.759	4.31
434.2	4.33
434.64	4.34
435.081	4.35
435.522	4.37
435.962	4.38
436.403	4.4
436.843	4.41
437.284	4.41
437.724	4.42
438.164	4.4
438.604	4.4
439.045	4.4
439.485	4.4
439.925	4.4
440.365	4.4
440.805	4.38
441.245	4.39
441.685	4.41
442.125	4.45
442.564	4.44
443.004	4.45
443.444	4.45
443.883	4.45
444.323	4.45
444.762	4.47
445.202	4.48
445.641	4.5
446.081	4.51
446.52	4.49
446.959	4.5
447.398	4.5
447.837	4.52
448.276	4.54
448.716	4.57
449.154	4.59
449.593	4.59
450.032	4.6
450.471	4.58
450.91	4.57
451.349	4.59
451.787	4.57
452.226	4.56
452.664	4.56
453.103	4.54
453.541	4.52
453.98	4.52
454.418	4.51
454.856	4.5
455.295	4.49
455.733	4.47
456.171	4.46
456.609	4.46
457.047	4.45
457.485	4.43
457.923	4.43
458.361	4.43
458.798	4.42
459.236	4.41
459.674	4.42
460.111	4.42
460.549	4.43
460.987	4.44
461.424	4.44
461.862	4.44
462.299	4.45
462.736	4.44
463.173	4.44
463.611	4.45
464.048	4.46
464.485	4.47
464.922	4.47
465.359	4.47
465.796	4.48
466.233	4.49
466.67	4.49
467.106	4.5
467.543	4.51
467.98	4.5
468.416	4.51
468.853	4.51
469.29	4.5
469.726	4.5
470.162	4.49
470.599	4.48
471.035	4.48
471.471	4.48
471.907	4.46
472.344	4.46
472.78	4.46
473.216	4.44
473.652	4.43
474.088	4.41
474.523	4.41
474.959	4.41
475.395	4.39
475.831	4.39
476.266	4.39
476.702	4.38
477.138	4.37
477.573	4.37
478.008	4.37
478.444	4.37
478.879	4.38
479.314	4.37
479.75	4.36
480.185	4.35
480.62	4.33
481.055	4.32
481.49	4.32
481.925	4.32
482.36	4.32
482.795	4.3
483.229	4.3
483.664	4.3
484.099	4.3
484.534	4.29
484.968	4.29
485.403	4.3
485.837	4.31
486.271	4.32
486.706	4.32
487.14	4.33
487.574	4.34
488.009	4.35
488.443	4.35
488.877	4.37
489.311	4.38
489.745	4.41
490.179	4.43
490.613	4.45
491.046	4.47
491.48	4.49
491.914	4.52
492.348	4.54
492.781	4.57
493.215	4.61
493.648	4.66
494.082	4.69
494.515	4.73
494.948	4.76
495.382	4.81
495.815	4.86
496.248	4.92
496.681	4.97
497.114	5.03
497.547	5.08
497.98	5.14
498.413	5.2
498.846	5.26
499.279	5.34
499.711	5.41
500.144	5.49
500.577	5.57
501.009	5.65
501.442	5.75
501.874	5.85
502.306	5.94
502.739	6.06
503.171	6.17
503.603	6.29
504.036	6.42
504.468	6.54
504.9	6.66
505.332	6.81
505.764	6.95
506.196	7.09
506.627	7.24
507.059	7.41
507.491	7.57
507.923	7.74
508.354	7.93
508.786	8.11
509.217	8.31
509.649	8.51
510.08	8.71
510.512	8.93
510.943	9.16
511.374	9.38
511.805	9.62
512.237	9.85
512.668	10.09
513.099	10.33
513.53	10.58
513.961	10.83
514.391	11.09
514.822	11.37
515.253	11.62
515.684	11.89
516.114	12.17
516.545	12.45
516.975	12.74
517.406	13.04
517.836	13.33
518.267	13.62
518.697	13.9
519.127	14.19
519.558	14.47
519.988	14.77
520.418	15.06
520.848	15.33
521.278	15.61
521.708	16.01
522.138	16.27
522.567	16.53
522.997	16.79
523.427	17.06
523.857	17.32
524.286	17.55
524.716	17.79
525.145	18.01
525.575	18.23
526.004	18.46
526.433	18.54
526.863	18.75
527.292	18.95
527.721	19.14
528.15	19.31
528.579	19.5
529.008	19.67
529.437	19.83
529.866	19.98
530.295	20.14
530.724	20.28
531.152	20.41
531.581	20.55
532.01	20.69
532.438	20.8
532.867	20.93
533.295	21.04
533.723	21.14
534.152	21.23
534.58	21.33
535.008	21.4
535.436	21.48
535.865	21.56
536.293	21.63
536.721	21.69
537.149	21.75
537.576	21.79
538.004	21.86
538.432	21.91
538.86	21.97
539.287	22.02
539.715	22.08
540.143	22.13
540.57	22.16
540.998	22.19
541.425	22.23
541.852	22.27
542.28	22.3
542.707	22.33
543.134	22.36
543.561	22.4
543.988	22.43
544.415	22.43
544.842	22.44
545.269	22.46
545.696	22.5
546.123	22.53
546.549	22.55
546.976	22.58
547.403	22.6
547.829	22.61
548.256	22.63
548.682	22.64
549.108	22.68
549.535	22.7
549.961	22.72
550.387	22.72
550.813	22.72
551.24	22.71
551.666	22.7
552.092	22.68
552.518	22.67
552.943	22.65
553.369	22.62
553.795	22.58
554.221	22.54
554.646	22.5
555.072	22.46
555.498	22.41
555.923	22.35
556.349	22.27
556.774	22.2
557.199	22.12
557.625	22.05
558.05	21.97
558.475	21.89
558.9	21.8
559.325	21.72
559.75	21.61
560.175	21.52
560.6	21.4
561.025	21.31
561.449	21.21
561.874	21.09
562.299	20.96
562.723	20.83
563.148	20.69
563.572	20.54
563.997	20.39
564.421	20.25
564.846	20.11
565.27	19.97
565.694	19.82
566.118	19.67
566.542	19.51
566.966	19.36
567.39	19.21
567.814	19.06
568.238	18.9
568.662	18.76
569.086	18.61
569.509	18.45
569.933	18.3
570.357	18.15
570.78	18
571.204	17.85
571.627	17.72
572.05	17.58
572.474	17.45
572.897	17.33
573.32	17.19
573.743	17.05
574.166	16.93
574.589	16.78
575.012	16.65
575.435	16.54
575.858	16.42
576.281	16.3
576.704	16.18
577.126	16.07
577.549	15.94
577.972	15.85
578.394	15.74
578.817	15.64
579.239	15.56
579.661	15.49
580.084	15.39
580.506	15.31
580.928	15.22
581.35	15.14
581.772	15.06
582.194	14.98
582.616	14.91
583.038	14.83
583.46	14.75
583.882	14.68
584.303	14.59
584.725	14.51
585.147	14.44
585.568	14.37
585.99	14.32
586.411	14.25
586.833	14.18
587.254	14.11
587.675	14.05
588.096	13.99
588.518	13.93
588.939	13.89
589.36	13.85
589.781	13.8
590.202	13.75
590.623	13.69
591.043	13.64
591.464	13.6
591.885	13.56
592.305	13.53
592.726	13.49
593.147	13.44
593.567	13.39
593.987	13.35
594.408	13.31
594.828	13.27
595.248	13.24
595.669	13.21
596.089	13.18
596.509	13.13
596.929	13.08
597.349	13.04
597.769	13.02
598.189	12.99
598.608	12.97
599.028	12.94
599.448	12.89
599.867	12.86
600.287	12.83
600.706	12.79
601.126	12.76
601.545	12.73
601.965	12.69
602.384	12.64
602.803	12.59
603.222	12.54
603.641	12.47
604.061	12.43
604.48	12.36
604.898	12.29
605.317	12.24
605.736	12.18
606.155	12.12
606.574	12.05
606.992	11.98
607.411	11.93
607.829	11.83
608.248	11.76
608.666	11.69
609.085	11.63
609.503	11.56
609.921	11.48
610.339	11.41
610.758	11.34
611.176	11.25
611.594	11.19
612.012	11.12
612.43	11.07
612.847	11
613.265	10.92
613.683	10.86
614.101	10.79
614.518	10.73
614.936	10.66
615.353	10.59
615.771	10.54
616.188	10.47
616.606	10.42
617.023	10.36
617.44	10.31
617.857	10.27
618.274	10.22
618.691	10.17
619.108	10.12
619.525	10.09
619.942	10.05
620.359	10.02
620.776	9.99
621.192	9.96
621.609	9.94
622.026	9.91
622.442	9.89
622.859	9.87
623.275	9.85
623.691	9.83
624.108	9.81
624.524	9.79
624.94	9.77
625.356	9.76
625.772	9.75
626.188	9.73
626.604	9.72
627.02	9.71
627.436	9.7
627.852	9.69
628.268	9.69
628.683	9.68
629.099	9.68
629.514	9.66
629.93	9.64
630.345	9.61
630.761	9.57
631.176	9.54
631.591	9.51
632.007	9.46
632.422	9.42
632.837	9.36
633.252	9.29
633.667	9.23
634.082	9.16
634.497	9.1
634.911	9.02
635.326	8.95
635.741	8.87
636.155	8.78
636.57	8.71
636.984	8.62
637.399	8.51
637.813	8.41
638.228	8.3
638.642	8.19
639.056	8.08
639.47	7.98
639.884	7.86
640.298	7.75
640.712	7.64
641.126	7.53
641.54	7.41
641.954	7.31
642.368	7.22
642.781	7.13
643.195	7.04
643.609	6.95
644.022	6.85
644.436	6.77
644.849	6.68
645.262	6.6
645.676	6.51
646.089	6.45
646.502	6.39
646.915	6.33
647.328	6.27
647.741	6.21
648.154	6.17
648.567	6.14
648.98	6.1
649.393	6.07
649.805	6.03
650.218	6.01
650.631	5.97
651.043	5.94
651.456	5.92
651.868	5.88
652.28	5.85
652.693	5.82
653.105	5.79
653.517	5.74
653.929	5.72
654.341	5.68
654.753	5.63
655.165	5.59
655.577	5.56
655.989	5.51
656.401	5.46
656.813	5.42
657.224	5.37
657.636	5.31
658.047	5.27
658.459	5.21
658.87	5.16
659.282	5.11
659.693	5.05
660.104	4.99
660.515	4.94
660.926	4.89
661.338	4.84
661.749	4.8
662.159	4.75
662.57	4.71
662.981	4.66
663.392	4.61
663.803	4.57
664.213	4.54
664.624	4.51
665.035	4.47
665.445	4.44
665.855	4.41
666.266	4.39
666.676	4.38
667.086	4.35
667.497	4.34
667.907	4.34
668.317	4.33
668.727	4.32
669.137	4.32
669.547	4.33
669.956	4.32
670.366	4.33
670.776	4.34
671.186	4.34
671.595	4.34
672.005	4.34
672.414	4.36
672.824	4.37
673.233	4.39
673.642	4.39
674.052	4.41
674.461	4.43
674.87	4.45
675.279	4.48
675.688	4.51
676.097	4.54
676.506	4.58
676.915	4.61
677.323	4.65
677.732	4.68
678.141	4.72
678.549	4.76
678.958	4.81
679.366	4.86
679.775	4.89
680.183	4.95
680.592	5.01
681	5.07
681.408	5.14
681.816	5.2
682.224	5.29
682.632	5.37
683.04	5.47
683.448	5.57
683.856	5.68
684.264	5.8
684.671	5.94
685.079	6.08
685.487	6.26
685.894	6.45
686.302	6.67
686.709	6.91
687.116	7.17
687.524	7.45
687.931	7.77
688.338	8.1
688.745	8.46
689.152	8.84
689.559	9.27
689.966	9.69
690.373	10.15
690.78	10.62
691.187	11.13
691.593	11.64
692	12.17
692.407	12.72
692.813	13.28
693.22	13.85
693.626	14.44
694.032	15.03
694.439	15.63
694.845	16.24
695.251	16.84
695.657	17.43
696.063	18.05
696.469	18.68
696.875	19.29
697.281	19.89
697.687	20.51
698.093	21.12
698.498	21.71
698.904	22.31
699.31	22.89
699.715	23.5
700.12	24.1
700.526	24.7
700.931	25.29
701.337	25.88
701.742	26.45
702.147	26.99
702.552	27.54
702.957	28.06
703.362	28.62
703.767	29.13
704.172	29.62
704.577	30.12
704.981	30.6
705.386	31.07
705.791	31.53
706.195	32.02
706.6	32.5
707.004	32.96
707.408	33.45
707.813	33.9
708.217	34.35
708.621	34.79
709.025	35.22
709.43	35.63
709.834	36.07
710.237	36.47
710.641	36.86
711.045	37.25
711.449	37.64
711.853	38.02
712.256	38.36
712.66	38.76
713.064	39.15
713.467	39.51
713.87	39.88
714.274	40.21
714.677	40.59
715.08	40.93
715.484	41.27
715.887	41.6
716.29	41.92
716.693	42.27
717.096	42.59
717.499	42.88
717.901	43.19
718.304	43.49
718.707	43.78
719.109	44.06
719.512	44.35
719.915	44.61
720.317	44.86
720.719	45.1
721.122	45.35
721.524	45.58
721.926	45.81
722.328	46.04
722.731	46.26
723.133	46.48
723.535	46.69
723.937	46.89
724.338	47.1
724.74	47.3
725.142	47.55
725.544	47.74
725.945	47.92
726.347	48.08
726.748	48.25
727.15	48.39
727.551	48.58
727.952	48.73
728.354	48.87
728.755	49.02
729.156	49.19
729.557	49.25
729.958	49.36
730.359	49.49
730.76	49.64
731.161	49.74
731.562	49.89
731.962	49.96
732.363	50.08
732.763	50.2
733.164	50.28
733.564	50.39
733.965	50.49
734.365	50.61
734.766	50.7
735.166	50.77
735.566	50.87
735.966	50.95
736.366	51.03
736.766	51.08
737.166	51.14
737.566	51.2
737.966	51.25
738.365	51.31
738.765	51.37
739.165	51.4
739.564	51.46
739.964	51.54
740.363	51.55
740.763	51.59
741.162	51.66
741.561	51.71
741.96	51.75
742.36	51.78
742.759	51.81
743.158	51.85
743.557	51.88
743.955	51.94
744.354	51.95
744.753	52.02
745.152	52.09
745.55	52.11
745.949	52.14
746.348	52.2
746.746	52.22
747.144	52.25
747.543	52.27
747.941	52.32
748.339	52.3
748.737	52.3
749.136	52.29
749.534	52.25
749.932	52.29
750.33	52.28
750.727	52.29
751.125	52.28
751.523	52.31
751.921	52.33
752.318	52.32
752.716	52.35
753.113	52.37
753.511	52.42
753.908	52.48
754.305	52.49
754.703	52.52
755.1	52.52
755.497	52.54
755.894	52.54
756.291	52.54
756.688	52.53
757.085	52.54
757.482	52.56
757.878	52.53
758.275	52.51
758.672	52.48
759.068	52.5
759.465	52.5
759.861	52.51
760.258	52.49
760.654	52.5
761.05	52.51
761.447	52.51
761.843	52.47
762.239	52.47
762.635	52.47
763.031	52.5
763.427	52.46
763.822	52.48
764.218	52.46
764.614	52.47
765.01	52.44
765.405	52.43
765.801	52.41
766.196	52.44
766.592	52.42
766.987	52.41
767.382	52.38
767.778	52.39
768.173	52.39
768.568	52.37
768.963	52.37
769.358	52.4
769.753	52.38
770.148	52.42
770.542	52.43
770.937	52.45
771.332	52.44
771.726	52.44
772.121	52.41
772.515	52.39
772.91	52.41
773.304	52.41
773.699	52.4
774.093	52.38
774.487	52.34
774.881	52.38
775.275	52.35
775.669	52.35
776.063	52.34
776.457	52.35
776.851	52.33
777.245	52.31
777.638	52.31
778.032	52.31
778.425	52.36
778.819	52.36
779.212	52.34
779.606	52.37
779.999	52.36
780.392	52.38
780.786	52.4
781.179	52.43
781.572	52.46
781.965	52.46
782.358	52.49
782.751	52.44
783.143	52.46
783.536	52.44
