Data from C_1_DIV_OH_2N_Splice17_12-51-28-700.txt Node
Date: Sat Mar 07 12:51:28 EST 2020
User: sa697716
Spectrometer: NQ5500242
Trigger mode: 0
Integration Time (sec): 1.450000E-1
Scans to average: 20
Nonlinearity correction enabled: false
Boxcar width: 5
Storing dark spectrum: false
XAxis mode: Wavelengths
Number of Pixels in Spectrum: 512
>>>>>Begin Spectral Data<<<<<
187.83	81.38
188.298	89.66
188.766	59.97
189.233	51.17
189.701	49.91
190.169	55.75
190.636	28.78
191.104	-15.79
191.571	-70.51
192.039	-189.59
192.506	-58.29
192.974	128.38
193.441	215
193.908	22.99
194.375	42.93
194.842	-10.25
195.31	-9.69
195.777	-64
196.244	22.97
196.711	31.67
197.177	32.57
197.644	33.03
198.111	32.65
198.578	33.16
199.045	33.57
199.511	33.03
199.978	33.17
200.445	33.18
200.911	33.04
201.378	33.09
201.844	32.72
202.31	32.53
202.777	32.43
203.243	32.66
203.709	32.41
204.176	31.91
204.642	31.99
205.108	32.09
205.574	31.96
206.04	31.57
206.506	31.5
206.972	31.93
207.438	31.66
207.903	31.07
208.369	30.33
208.835	29.81
209.301	29.41
209.766	28.51
210.232	27.55
210.697	26.99
211.163	26.52
211.628	25.87
212.094	25.06
212.559	24.61
213.024	24.12
213.49	23.63
213.955	22.93
214.42	22.55
214.885	21.97
215.35	21.2
215.815	20.05
216.28	18.63
216.745	17.14
217.21	15.76
217.675	14.44
218.14	13.48
218.604	12.49
219.069	11.76
219.534	11.1
219.998	10.52
220.463	10.1
220.927	9.67
221.392	9.34
221.856	9.07
222.32	8.83
222.785	8.64
223.249	8.44
223.713	8.28
224.177	8.12
224.642	7.94
225.106	7.79
225.57	7.62
226.034	7.5
226.497	7.4
226.961	7.3
227.425	7.21
227.889	7.1
228.353	6.99
228.816	6.88
229.28	6.77
229.744	6.7
230.207	6.61
230.671	6.52
231.134	6.45
231.597	6.37
232.061	6.29
232.524	6.21
232.987	6.13
233.45	6.06
233.914	5.99
234.377	5.93
234.84	5.87
235.303	5.82
235.766	5.77
236.229	5.71
236.691	5.65
237.154	5.6
237.617	5.56
238.08	5.5
238.542	5.45
239.005	5.42
239.468	5.37
239.93	5.32
240.393	5.27
240.855	5.22
241.317	5.17
241.78	5.12
242.242	5.06
242.704	5.01
243.166	4.98
243.629	4.95
244.091	4.9
244.553	4.85
245.015	4.81
245.477	4.76
245.939	4.73
246.4	4.69
246.862	4.66
247.324	4.63
247.786	4.6
248.247	4.56
248.709	4.51
249.17	4.47
249.632	4.45
250.093	4.42
250.555	4.4
251.016	4.37
251.477	4.34
251.939	4.31
252.4	4.29
252.861	4.27
253.322	4.25
253.783	4.23
254.244	4.21
254.705	4.18
255.166	4.16
255.627	4.14
256.088	4.13
256.549	4.11
257.009	4.08
257.47	4.06
257.931	4.03
258.391	4
258.852	3.97
259.312	3.95
259.773	3.93
260.233	3.91
260.694	3.89
261.154	3.87
261.614	3.84
262.074	3.82
262.534	3.8
262.994	3.79
263.455	3.77
263.915	3.76
264.374	3.74
264.834	3.72
265.294	3.7
265.754	3.69
266.214	3.68
266.673	3.66
267.133	3.66
267.593	3.65
268.052	3.63
268.512	3.63
268.971	3.62
269.431	3.61
269.89	3.6
270.349	3.6
270.809	3.58
271.268	3.58
271.727	3.57
272.186	3.55
272.645	3.54
273.104	3.53
273.563	3.52
274.022	3.52
274.481	3.51
274.94	3.5
275.399	3.49
275.857	3.49
276.316	3.47
276.775	3.46
277.233	3.46
277.692	3.45
278.15	3.44
278.609	3.43
279.067	3.42
279.525	3.42
279.984	3.41
280.442	3.4
280.9	3.39
281.358	3.39
281.816	3.39
282.274	3.38
282.732	3.37
283.19	3.36
283.648	3.35
284.106	3.33
284.564	3.32
285.021	3.32
285.479	3.31
285.937	3.3
286.394	3.29
286.852	3.28
287.309	3.27
287.767	3.25
288.224	3.23
288.682	3.22
289.139	3.21
289.596	3.2
290.053	3.18
290.511	3.17
290.968	3.16
291.425	3.14
291.882	3.14
292.339	3.12
292.796	3.12
293.252	3.12
293.709	3.11
294.166	3.1
294.623	3.09
295.079	3.08
295.536	3.08
295.992	3.07
296.449	3.07
296.905	3.06
297.362	3.05
297.818	3.04
298.274	3.04
298.731	3.03
299.187	3.02
299.643	3.01
300.099	3
300.555	3
301.011	2.99
301.467	2.98
301.923	2.98
302.379	2.98
302.835	2.98
303.291	2.97
303.746	2.97
304.202	2.97
304.658	2.97
305.113	2.96
305.569	2.96
306.024	2.95
306.479	2.95
306.935	2.94
307.39	2.93
307.845	2.92
308.301	2.93
308.756	2.92
309.211	2.91
309.666	2.91
310.121	2.91
310.576	2.91
311.031	2.91
311.486	2.91
311.94	2.9
312.395	2.91
312.85	2.91
313.305	2.9
313.759	2.9
314.214	2.9
314.668	2.89
315.123	2.89
315.577	2.88
316.032	2.88
316.486	2.87
316.94	2.87
317.394	2.86
317.849	2.85
318.303	2.85
318.757	2.83
319.211	2.83
319.665	2.82
320.119	2.81
320.572	2.8
321.026	2.79
321.48	2.79
321.934	2.78
322.387	2.77
322.841	2.76
323.295	2.76
323.748	2.76
324.202	2.76
324.655	2.75
325.108	2.75
325.562	2.75
326.015	2.75
326.468	2.76
326.921	2.76
327.374	2.75
327.827	2.76
328.28	2.75
328.733	2.76
329.186	2.75
329.639	2.75
330.092	2.75
330.545	2.75
330.997	2.75
331.45	2.74
331.903	2.75
332.355	2.75
332.808	2.75
333.26	2.74
333.713	2.73
334.165	2.72
334.617	2.72
335.069	2.72
335.522	2.72
335.974	2.72
336.426	2.72
336.878	2.71
337.33	2.7
337.782	2.7
338.234	2.71
338.686	2.71
339.137	2.72
339.589	2.71
340.041	2.71
340.493	2.7
340.944	2.69
341.396	2.68
341.847	2.68
342.299	2.66
342.75	2.65
343.201	2.64
343.653	2.63
344.104	2.62
344.555	2.6
345.006	2.59
345.457	2.59
345.908	2.58
346.359	2.58
346.81	2.57
347.261	2.58
347.712	2.58
348.163	2.56
348.613	2.57
349.064	2.57
349.515	2.58
349.965	2.58
350.416	2.57
350.866	2.57
351.317	2.57
351.767	2.57
352.217	2.56
352.668	2.56
353.118	2.56
353.568	2.56
354.018	2.56
354.468	2.56
354.918	2.57
355.368	2.57
355.818	2.58
356.268	2.58
356.718	2.58
357.168	2.58
357.617	2.58
358.067	2.58
358.517	2.6
358.966	2.59
359.416	2.59
359.865	2.59
360.315	2.61
360.764	2.61
361.213	2.61
361.663	2.62
362.112	2.64
362.561	2.65
363.01	2.66
363.459	2.65
363.908	2.65
364.357	2.65
364.806	2.65
365.255	2.65
365.703	2.66
366.152	2.66
366.601	2.66
367.05	2.67
367.498	2.67
367.947	2.68
368.395	2.69
368.844	2.71
369.292	2.73
369.74	2.74
370.189	2.75
370.637	2.76
371.085	2.77
371.533	2.79
371.981	2.81
372.429	2.82
372.877	2.84
373.325	2.85
373.773	2.85
374.221	2.87
374.669	2.89
375.116	2.92
375.564	2.94
376.012	2.96
376.459	2.98
376.907	3.01
377.354	3.04
377.801	3.06
378.249	3.09
378.696	3.13
379.143	3.15
379.591	3.18
380.038	3.21
380.485	3.24
380.932	3.27
381.379	3.3
381.826	3.32
382.273	3.35
382.72	3.38
383.166	3.41
383.613	3.44
384.06	3.48
384.506	3.51
384.953	3.55
385.4	3.58
385.846	3.62
386.292	3.66
386.739	3.69
387.185	3.73
387.631	3.78
388.078	3.82
388.524	3.85
388.97	3.89
389.416	3.93
389.862	3.97
390.308	4.01
390.754	4.06
391.2	4.1
391.645	4.14
392.091	4.18
392.537	4.22
392.983	4.26
393.428	4.3
393.874	4.32
394.319	4.36
394.765	4.39
395.21	4.41
395.655	4.44
396.101	4.47
396.546	4.49
396.991	4.51
397.436	4.54
397.881	4.57
398.326	4.61
398.771	4.63
399.216	4.64
399.661	4.67
400.106	4.69
400.551	4.69
400.995	4.69
401.44	4.71
401.885	4.72
402.329	4.73
402.774	4.74
403.218	4.74
403.663	4.75
404.107	4.75
404.551	4.76
404.995	4.76
405.44	4.75
405.884	4.75
406.328	4.75
406.772	4.75
407.216	4.74
407.66	4.73
408.104	4.71
408.547	4.7
408.991	4.69
409.435	4.68
409.879	4.68
410.322	4.7
410.766	4.71
411.209	4.71
411.653	4.73
412.096	4.73
412.54	4.75
412.983	4.76
413.426	4.78
413.869	4.79
414.312	4.82
414.756	4.81
415.199	4.81
415.642	4.8
416.085	4.81
416.527	4.8
416.97	4.79
417.413	4.78
417.856	4.78
418.298	4.76
418.741	4.76
419.184	4.74
419.626	4.75
420.069	4.75
420.511	4.75
420.953	4.75
421.396	4.76
421.838	4.76
422.28	4.78
422.722	4.79
423.164	4.8
423.606	4.79
424.048	4.8
424.49	4.8
424.932	4.78
425.374	4.76
425.816	4.74
426.258	4.71
426.699	4.7
427.141	4.67
427.582	4.67
428.024	4.66
428.465	4.67
428.907	4.66
429.348	4.65
429.789	4.65
430.231	4.67
430.672	4.69
431.113	4.71
431.554	4.73
431.995	4.74
432.436	4.74
432.877	4.74
433.318	4.76
433.759	4.78
434.2	4.8
434.64	4.82
435.081	4.84
435.522	4.85
435.962	4.86
436.403	4.88
436.843	4.9
437.284	4.91
437.724	4.93
438.164	4.93
438.604	4.94
439.045	4.96
439.485	4.97
439.925	4.99
440.365	5.01
440.805	5.04
441.245	5.06
441.685	5.09
442.125	5.14
442.564	5.18
443.004	5.2
443.444	5.23
443.883	5.27
444.323	5.31
444.762	5.34
445.202	5.37
445.641	5.41
446.081	5.46
446.52	5.49
446.959	5.52
447.398	5.56
447.837	5.6
448.276	5.63
448.716	5.66
449.154	5.71
449.593	5.74
450.032	5.78
450.471	5.79
450.91	5.8
451.349	5.83
451.787	5.84
452.226	5.84
452.664	5.85
453.103	5.85
453.541	5.87
453.98	5.89
454.418	5.88
454.856	5.87
455.295	5.87
455.733	5.86
456.171	5.85
456.609	5.85
457.047	5.85
457.485	5.83
457.923	5.83
458.361	5.83
458.798	5.82
459.236	5.83
459.674	5.83
460.111	5.83
460.549	5.85
460.987	5.85
461.424	5.86
461.862	5.87
462.299	5.9
462.736	5.9
463.173	5.89
463.611	5.9
464.048	5.89
464.485	5.9
464.922	5.92
465.359	5.93
465.796	5.93
466.233	5.94
466.67	5.96
467.106	5.98
467.543	5.98
467.98	6.01
468.416	6.01
468.853	6.02
469.29	6.03
469.726	6.04
470.162	6.04
470.599	6.06
471.035	6.06
471.471	6.06
471.907	6.05
472.344	6.07
472.78	6.08
473.216	6.08
473.652	6.09
474.088	6.09
474.523	6.11
474.959	6.12
475.395	6.11
475.831	6.11
476.266	6.12
476.702	6.13
477.138	6.14
477.573	6.14
478.008	6.16
478.444	6.16
478.879	6.18
479.314	6.17
479.75	6.17
480.185	6.18
480.62	6.18
481.055	6.16
481.49	6.14
481.925	6.13
482.36	6.13
482.795	6.11
483.229	6.11
483.664	6.12
484.099	6.12
484.534	6.12
484.968	6.13
485.403	6.15
485.837	6.18
486.271	6.21
486.706	6.24
487.14	6.27
487.574	6.3
488.009	6.33
488.443	6.37
488.877	6.41
489.311	6.45
489.745	6.5
490.179	6.54
490.613	6.59
491.046	6.65
491.48	6.7
491.914	6.77
492.348	6.83
492.781	6.91
493.215	6.98
493.648	7.05
494.082	7.12
494.515	7.19
494.948	7.27
495.382	7.35
495.815	7.44
496.248	7.53
496.681	7.63
497.114	7.73
497.547	7.82
497.98	7.93
498.413	8.04
498.846	8.16
499.279	8.29
499.711	8.41
500.144	8.55
500.577	8.68
501.009	8.81
501.442	8.95
501.874	9.11
502.306	9.26
502.739	9.43
503.171	9.6
503.603	9.77
504.036	9.95
504.468	10.14
504.9	10.32
505.332	10.51
505.764	10.71
506.196	10.91
506.627	11.11
507.059	11.33
507.491	11.54
507.923	11.77
508.354	12
508.786	12.23
509.217	12.46
509.649	12.7
510.08	12.94
510.512	13.2
510.943	13.45
511.374	13.7
511.805	13.96
512.237	14.2
512.668	14.44
513.099	14.68
513.53	14.93
513.961	15.2
514.391	15.45
514.822	15.72
515.253	15.98
515.684	16.24
516.114	16.51
516.545	16.78
516.975	17.08
517.406	17.37
517.836	17.66
518.267	17.95
518.697	18.22
519.127	18.48
519.558	18.75
519.988	19.02
520.418	19.28
520.848	19.53
521.278	19.77
521.708	20.12
522.138	20.34
522.567	20.56
522.997	20.76
523.427	20.97
523.857	21.19
524.286	21.38
524.716	21.59
525.145	21.77
525.575	21.97
526.004	22.16
526.433	22.2
526.863	22.38
527.292	22.55
527.721	22.71
528.15	22.84
528.579	22.98
529.008	23.11
529.437	23.22
529.866	23.34
530.295	23.44
530.724	23.56
531.152	23.67
531.581	23.78
532.01	23.86
532.438	23.95
532.867	24.05
533.295	24.14
533.723	24.22
534.152	24.31
534.58	24.37
535.008	24.42
535.436	24.46
535.865	24.5
536.293	24.54
536.721	24.59
537.149	24.64
537.576	24.69
538.004	24.72
538.432	24.77
538.86	24.8
539.287	24.84
539.715	24.9
540.143	24.95
540.57	24.98
540.998	25.02
541.425	25.07
541.852	25.11
542.28	25.14
542.707	25.2
543.134	25.22
543.561	25.27
543.988	25.31
544.415	25.32
544.842	25.34
545.269	25.39
545.696	25.41
546.123	25.44
546.549	25.47
546.976	25.5
547.403	25.51
547.829	25.54
548.256	25.55
548.682	25.55
549.108	25.59
549.535	25.62
549.961	25.62
550.387	25.63
550.813	25.64
551.24	25.64
551.666	25.62
552.092	25.63
552.518	25.62
552.943	25.61
553.369	25.6
553.795	25.56
554.221	25.52
554.646	25.48
555.072	25.44
555.498	25.4
555.923	25.34
556.349	25.3
556.774	25.24
557.199	25.18
557.625	25.12
558.05	25.07
558.475	25.02
558.9	24.97
559.325	24.93
559.75	24.87
560.175	24.8
560.6	24.73
561.025	24.66
561.449	24.58
561.874	24.48
562.299	24.41
562.723	24.32
563.148	24.23
563.572	24.12
563.997	23.99
564.421	23.87
564.846	23.76
565.27	23.65
565.694	23.55
566.118	23.43
566.542	23.33
566.966	23.2
567.39	23.08
567.814	22.96
568.238	22.85
568.662	22.75
569.086	22.64
569.509	22.56
569.933	22.46
570.357	22.34
570.78	22.23
571.204	22.11
571.627	22.02
572.05	21.91
572.474	21.81
572.897	21.71
573.32	21.6
573.743	21.5
574.166	21.38
574.589	21.27
575.012	21.18
575.435	21.09
575.858	21
576.281	20.91
576.704	20.82
577.126	20.73
577.549	20.65
577.972	20.57
578.394	20.48
578.817	20.41
579.239	20.33
579.661	20.26
580.084	20.19
580.506	20.13
580.928	20.05
581.35	19.98
581.772	19.91
582.194	19.83
582.616	19.77
583.038	19.7
583.46	19.63
583.882	19.55
584.303	19.47
584.725	19.4
585.147	19.32
585.568	19.25
585.99	19.17
586.411	19.11
586.833	19.03
587.254	18.98
587.675	18.93
588.096	18.88
588.518	18.85
588.939	18.81
589.36	18.77
589.781	18.74
590.202	18.72
590.623	18.69
591.043	18.66
591.464	18.66
591.885	18.61
592.305	18.57
592.726	18.54
593.147	18.51
593.567	18.47
593.987	18.44
594.408	18.38
594.828	18.34
595.248	18.31
595.669	18.28
596.089	18.24
596.509	18.21
596.929	18.19
597.349	18.14
597.769	18.1
598.189	18.08
598.608	18.05
599.028	18.04
599.448	18.01
599.867	17.97
600.287	17.94
600.706	17.91
601.126	17.87
601.545	17.84
601.965	17.8
602.384	17.76
602.803	17.7
603.222	17.65
603.641	17.59
604.061	17.53
604.48	17.48
604.898	17.41
605.317	17.35
605.736	17.28
606.155	17.21
606.574	17.15
606.992	17.07
607.411	17.01
607.829	16.91
608.248	16.83
608.666	16.75
609.085	16.68
609.503	16.61
609.921	16.53
610.339	16.44
610.758	16.37
611.176	16.28
611.594	16.21
612.012	16.11
612.43	16.05
612.847	15.97
613.265	15.89
613.683	15.81
614.101	15.74
614.518	15.66
614.936	15.59
615.353	15.51
615.771	15.46
616.188	15.39
616.606	15.34
617.023	15.29
617.44	15.25
617.857	15.2
618.274	15.14
618.691	15.08
619.108	15.02
619.525	14.96
619.942	14.92
620.359	14.88
620.776	14.83
621.192	14.78
621.609	14.75
622.026	14.71
622.442	14.69
622.859	14.66
623.275	14.63
623.691	14.63
624.108	14.61
624.524	14.59
624.94	14.57
625.356	14.57
625.772	14.56
626.188	14.54
626.604	14.53
627.02	14.51
627.436	14.51
627.852	14.51
628.268	14.49
628.683	14.49
629.099	14.48
629.514	14.44
629.93	14.43
630.345	14.42
630.761	14.38
631.176	14.36
631.591	14.34
632.007	14.3
632.422	14.25
632.837	14.21
633.252	14.15
633.667	14.08
634.082	14.03
634.497	13.96
634.911	13.9
635.326	13.82
635.741	13.74
636.155	13.64
636.57	13.54
636.984	13.44
637.399	13.34
637.813	13.24
638.228	13.13
638.642	13.01
639.056	12.89
639.47	12.76
639.884	12.65
640.298	12.51
640.712	12.4
641.126	12.28
641.54	12.14
641.954	12.01
642.368	11.89
642.781	11.77
643.195	11.65
643.609	11.53
644.022	11.4
644.436	11.28
644.849	11.17
645.262	11.04
645.676	10.94
646.089	10.84
646.502	10.75
646.915	10.67
647.328	10.59
647.741	10.51
648.154	10.43
648.567	10.37
648.98	10.3
649.393	10.24
649.805	10.19
650.218	10.13
650.631	10.08
651.043	10.02
651.456	9.95
651.868	9.88
652.28	9.81
652.693	9.75
653.105	9.67
653.517	9.62
653.929	9.55
654.341	9.48
654.753	9.4
655.165	9.31
655.577	9.22
655.989	9.13
656.401	9.04
656.813	8.96
657.224	8.86
657.636	8.74
658.047	8.63
658.459	8.51
658.87	8.38
659.282	8.25
659.693	8.14
660.104	8
660.515	7.88
660.926	7.75
661.338	7.61
661.749	7.49
662.159	7.37
662.57	7.26
662.981	7.14
663.392	7.03
663.803	6.93
664.213	6.82
664.624	6.73
665.035	6.63
665.445	6.55
665.855	6.47
666.266	6.39
666.676	6.33
667.086	6.25
667.497	6.18
667.907	6.12
668.317	6.05
668.727	5.99
669.137	5.94
669.547	5.89
669.956	5.84
670.366	5.8
670.776	5.75
671.186	5.72
671.595	5.69
672.005	5.67
672.414	5.65
672.824	5.63
673.233	5.64
673.642	5.64
674.052	5.63
674.461	5.63
674.87	5.62
675.279	5.64
675.688	5.65
676.097	5.66
676.506	5.68
676.915	5.71
677.323	5.73
677.732	5.76
678.141	5.79
678.549	5.84
678.958	5.9
679.366	5.97
679.775	6.04
680.183	6.13
680.592	6.24
681	6.35
681.408	6.48
681.816	6.63
682.224	6.8
682.632	6.97
683.04	7.16
683.448	7.37
683.856	7.59
684.264	7.85
684.671	8.12
685.079	8.42
685.487	8.74
685.894	9.08
686.302	9.45
686.709	9.82
687.116	10.23
687.524	10.65
687.931	11.1
688.338	11.55
688.745	12.02
689.152	12.49
689.559	13
689.966	13.49
690.373	13.98
690.78	14.49
691.187	15
691.593	15.52
692	16.02
692.407	16.5
692.813	17.01
693.22	17.49
693.626	18
694.032	18.47
694.439	18.94
694.845	19.42
695.251	19.86
695.657	20.3
696.063	20.74
696.469	21.19
696.875	21.64
697.281	22.06
697.687	22.46
698.093	22.85
698.498	23.24
698.904	23.63
699.31	24
699.715	24.39
700.12	24.76
700.526	25.11
700.931	25.46
701.337	25.78
701.742	26.09
702.147	26.41
702.552	26.72
702.957	27.01
703.362	27.3
703.767	27.58
704.172	27.83
704.577	28.09
704.981	28.34
705.386	28.58
705.791	28.82
706.195	29.07
706.6	29.32
707.004	29.53
707.408	29.74
707.813	29.96
708.217	30.16
708.621	30.39
709.025	30.6
709.43	30.78
709.834	30.98
710.237	31.17
710.641	31.34
711.045	31.5
711.449	31.69
711.853	31.89
712.256	32.04
712.66	32.18
713.064	32.34
713.467	32.48
713.87	32.63
714.274	32.76
714.677	32.91
715.08	33.02
715.484	33.15
715.887	33.27
716.29	33.37
716.693	33.5
717.096	33.63
717.499	33.75
717.901	33.88
718.304	34.01
718.707	34.15
719.109	34.28
719.512	34.41
719.915	34.52
720.317	34.64
720.719	34.75
721.122	34.86
721.524	34.97
721.926	35.06
722.328	35.15
722.731	35.22
723.133	35.3
723.535	35.36
723.937	35.42
724.338	35.52
724.74	35.58
725.142	35.71
725.544	35.76
725.945	35.82
726.347	35.86
726.748	35.93
727.15	36
727.551	36.06
727.952	36.13
728.354	36.21
728.755	36.25
729.156	36.32
729.557	36.31
729.958	36.36
730.359	36.41
730.76	36.48
731.161	36.52
731.562	36.56
731.962	36.58
732.363	36.63
732.763	36.68
733.164	36.72
733.564	36.76
733.965	36.8
734.365	36.85
734.766	36.89
735.166	36.92
735.566	36.96
735.966	36.99
736.366	37.02
736.766	37.04
737.166	37.05
737.566	37.07
737.966	37.07
738.365	37.08
738.765	37.11
739.165	37.11
739.564	37.13
739.964	37.15
740.363	37.14
740.763	37.16
741.162	37.17
741.561	37.17
741.96	37.18
742.36	37.21
742.759	37.22
743.158	37.2
743.557	37.2
743.955	37.22
744.354	37.23
744.753	37.3
745.152	37.3
745.55	37.32
745.949	37.33
746.348	37.34
746.746	37.35
747.144	37.35
747.543	37.35
747.941	37.38
748.339	37.36
748.737	37.34
749.136	37.29
749.534	37.3
749.932	37.31
750.33	37.33
750.727	37.34
751.125	37.35
751.523	37.36
751.921	37.38
752.318	37.38
752.716	37.39
753.113	37.42
753.511	37.43
753.908	37.45
754.305	37.45
754.703	37.42
755.1	37.38
755.497	37.33
755.894	37.29
756.291	37.2
756.688	37.1
757.085	37.02
757.482	36.93
757.878	36.87
758.275	36.79
758.672	36.71
759.068	36.67
759.465	36.63
759.861	36.61
760.258	36.61
760.654	36.64
761.05	36.68
761.447	36.73
761.843	36.77
762.239	36.79
762.635	36.83
763.031	36.88
763.427	36.91
763.822	36.96
764.218	37.01
764.614	37.07
765.01	37.11
765.405	37.14
765.801	37.18
766.196	37.22
766.592	37.26
766.987	37.28
767.382	37.29
767.778	37.32
768.173	37.31
768.568	37.3
768.963	37.27
769.358	37.27
769.753	37.27
770.148	37.26
770.542	37.26
770.937	37.25
771.332	37.24
771.726	37.25
772.121	37.26
772.515	37.28
772.91	37.28
773.304	37.3
773.699	37.31
774.093	37.32
774.487	37.31
774.881	37.31
775.275	37.32
775.669	37.34
776.063	37.33
776.457	37.32
776.851	37.3
777.245	37.28
777.638	37.27
778.032	37.26
778.425	37.27
778.819	37.27
779.212	37.25
779.606	37.27
779.999	37.25
780.392	37.26
780.786	37.24
781.179	37.25
781.572	37.29
