Data from C_1_DIV_WI_4N_Splice17_12-54-09-000.txt Node
Date: Sat Mar 07 12:54:09 EST 2020
User: sa697716
Spectrometer: NQ5500242
Trigger mode: 0
Integration Time (sec): 1.450000E-1
Scans to average: 20
Nonlinearity correction enabled: false
Boxcar width: 5
Storing dark spectrum: false
XAxis mode: Wavelengths
Number of Pixels in Spectrum: 512
>>>>>Begin Spectral Data<<<<<
187.83	168.18
188.298	205.07
188.766	194.27
189.233	164.82
189.701	162.05
190.169	169.77
190.636	214.83
191.104	342.89
191.571	450.27
192.039	277.34
192.506	371.11
192.974	-8.53
193.441	81.55
193.908	66.81
194.375	99.03
194.842	92.29
195.31	107.32
195.777	301.82
196.244	31.16
196.711	24.57
197.177	25.33
197.644	25.31
198.111	24.82
198.578	25.59
199.045	25.29
199.511	25.18
199.978	24.78
200.445	24.75
200.911	24.6
201.378	24.84
201.844	25.03
202.31	25.05
202.777	25.19
203.243	25.45
203.709	25.28
204.176	24.88
204.642	24.7
205.108	24.62
205.574	24.51
206.04	24.25
206.506	24.11
206.972	24.15
207.438	24.02
207.903	23.46
208.369	22.93
208.835	22.44
209.301	22.41
209.766	21.77
210.232	21.34
210.697	20.95
211.163	20.71
211.628	20.36
212.094	19.7
212.559	19.47
213.024	19.25
213.49	19.07
213.955	18.69
214.42	18.41
214.885	18.12
215.35	17.83
215.815	17.1
216.28	16.14
216.745	15.21
217.21	14.41
217.675	13.51
218.14	12.8
218.604	12.19
219.069	11.77
219.534	11.41
219.998	11.07
220.463	10.75
220.927	10.46
221.392	10.26
221.856	10.12
222.32	9.92
222.785	9.79
223.249	9.64
223.713	9.53
224.177	9.42
224.642	9.29
225.106	9.15
225.57	9.01
226.034	8.91
226.497	8.8
226.961	8.68
227.425	8.58
227.889	8.49
228.353	8.39
228.816	8.27
229.28	8.15
229.744	8.04
230.207	7.96
230.671	7.87
231.134	7.79
231.597	7.72
232.061	7.64
232.524	7.56
232.987	7.48
233.45	7.41
233.914	7.33
234.377	7.25
234.84	7.18
235.303	7.12
235.766	7.06
236.229	6.98
236.691	6.91
237.154	6.84
237.617	6.78
238.08	6.71
238.542	6.64
239.005	6.58
239.468	6.52
239.93	6.48
240.393	6.42
240.855	6.35
241.317	6.29
241.78	6.22
242.242	6.15
242.704	6.1
243.166	6.05
243.629	6.01
244.091	5.95
244.553	5.89
245.015	5.83
245.477	5.77
245.939	5.73
246.4	5.69
246.862	5.64
247.324	5.61
247.786	5.56
248.247	5.51
248.709	5.46
249.17	5.42
249.632	5.39
250.093	5.37
250.555	5.33
251.016	5.29
251.477	5.26
251.939	5.23
252.4	5.2
252.861	5.17
253.322	5.14
253.783	5.12
254.244	5.09
254.705	5.05
255.166	5.01
255.627	4.98
256.088	4.96
256.549	4.92
257.009	4.89
257.47	4.86
257.931	4.82
258.391	4.79
258.852	4.75
259.312	4.73
259.773	4.71
260.233	4.69
260.694	4.67
261.154	4.64
261.614	4.62
262.074	4.59
262.534	4.57
262.994	4.56
263.455	4.54
263.915	4.52
264.374	4.5
264.834	4.49
265.294	4.47
265.754	4.45
266.214	4.44
266.673	4.42
267.133	4.41
267.593	4.4
268.052	4.39
268.512	4.38
268.971	4.36
269.431	4.35
269.89	4.34
270.349	4.33
270.809	4.32
271.268	4.31
271.727	4.3
272.186	4.29
272.645	4.28
273.104	4.26
273.563	4.25
274.022	4.24
274.481	4.23
274.94	4.22
275.399	4.21
275.857	4.2
276.316	4.18
276.775	4.17
277.233	4.16
277.692	4.15
278.15	4.13
278.609	4.12
279.067	4.1
279.525	4.08
279.984	4.06
280.442	4.04
280.9	4.03
281.358	4.01
281.816	4
282.274	3.98
282.732	3.96
283.19	3.95
283.648	3.93
284.106	3.91
284.564	3.89
285.021	3.89
285.479	3.87
285.937	3.85
286.394	3.84
286.852	3.81
287.309	3.8
287.767	3.79
288.224	3.77
288.682	3.75
289.139	3.73
289.596	3.72
290.053	3.7
290.511	3.68
290.968	3.67
291.425	3.66
291.882	3.64
292.339	3.62
292.796	3.62
293.252	3.61
293.709	3.6
294.166	3.6
294.623	3.58
295.079	3.57
295.536	3.56
295.992	3.55
296.449	3.54
296.905	3.53
297.362	3.52
297.818	3.5
298.274	3.5
298.731	3.48
299.187	3.47
299.643	3.46
300.099	3.45
300.555	3.43
301.011	3.42
301.467	3.42
301.923	3.4
302.379	3.39
302.835	3.39
303.291	3.37
303.746	3.36
304.202	3.36
304.658	3.35
305.113	3.33
305.569	3.33
306.024	3.31
306.479	3.3
306.935	3.29
307.39	3.29
307.845	3.28
308.301	3.27
308.756	3.27
309.211	3.25
309.666	3.26
310.121	3.25
310.576	3.24
311.031	3.24
311.486	3.24
311.94	3.23
312.395	3.23
312.85	3.22
313.305	3.21
313.759	3.2
314.214	3.18
314.668	3.17
315.123	3.16
315.577	3.14
316.032	3.13
316.486	3.11
316.94	3.11
317.394	3.09
317.849	3.07
318.303	3.07
318.757	3.06
319.211	3.06
319.665	3.05
320.119	3.04
320.572	3.03
321.026	3.03
321.48	3.02
321.934	3.01
322.387	3
322.841	3
323.295	3
323.748	2.99
324.202	2.99
324.655	2.98
325.108	2.98
325.562	2.98
326.015	2.97
326.468	2.97
326.921	2.97
327.374	2.96
327.827	2.95
328.28	2.94
328.733	2.94
329.186	2.93
329.639	2.92
330.092	2.91
330.545	2.9
330.997	2.89
331.45	2.9
331.903	2.89
332.355	2.9
332.808	2.89
333.26	2.88
333.713	2.87
334.165	2.86
334.617	2.86
335.069	2.84
335.522	2.84
335.974	2.84
336.426	2.82
336.878	2.81
337.33	2.81
337.782	2.8
338.234	2.8
338.686	2.8
339.137	2.81
339.589	2.81
340.041	2.81
340.493	2.8
340.944	2.78
341.396	2.77
341.847	2.77
342.299	2.76
342.75	2.75
343.201	2.73
343.653	2.72
344.104	2.7
344.555	2.69
345.006	2.68
345.457	2.67
345.908	2.67
346.359	2.67
346.81	2.67
347.261	2.66
347.712	2.66
348.163	2.65
348.613	2.64
349.064	2.65
349.515	2.64
349.965	2.64
350.416	2.63
350.866	2.63
351.317	2.61
351.767	2.61
352.217	2.6
352.668	2.6
353.118	2.6
353.568	2.59
354.018	2.6
354.468	2.59
354.918	2.58
355.368	2.59
355.818	2.58
356.268	2.58
356.718	2.58
357.168	2.57
357.617	2.56
358.067	2.56
358.517	2.56
358.966	2.56
359.416	2.57
359.865	2.56
360.315	2.56
360.764	2.56
361.213	2.56
361.663	2.55
362.112	2.56
362.561	2.57
363.01	2.56
363.459	2.54
363.908	2.53
364.357	2.53
364.806	2.53
365.255	2.52
365.703	2.53
366.152	2.53
366.601	2.53
367.05	2.52
367.498	2.51
367.947	2.51
368.395	2.52
368.844	2.51
369.292	2.5
369.74	2.5
370.189	2.49
370.637	2.49
371.085	2.48
371.533	2.48
371.981	2.47
372.429	2.47
372.877	2.47
373.325	2.46
373.773	2.46
374.221	2.46
374.669	2.45
375.116	2.45
375.564	2.44
376.012	2.43
376.459	2.42
376.907	2.43
377.354	2.43
377.801	2.43
378.249	2.44
378.696	2.43
379.143	2.42
379.591	2.42
380.038	2.42
380.485	2.42
380.932	2.42
381.379	2.43
381.826	2.42
382.273	2.41
382.72	2.4
383.166	2.4
383.613	2.4
384.06	2.4
384.506	2.4
384.953	2.4
385.4	2.4
385.846	2.4
386.292	2.4
386.739	2.4
387.185	2.4
387.631	2.41
388.078	2.4
388.524	2.4
388.97	2.39
389.416	2.4
389.862	2.41
390.308	2.42
390.754	2.42
391.2	2.43
391.645	2.44
392.091	2.45
392.537	2.47
392.983	2.47
393.428	2.49
393.874	2.5
394.319	2.51
394.765	2.51
395.21	2.51
395.655	2.53
396.101	2.55
396.546	2.55
396.991	2.56
397.436	2.57
397.881	2.59
398.326	2.6
398.771	2.62
399.216	2.63
399.661	2.65
400.106	2.66
400.551	2.68
400.995	2.68
401.44	2.69
401.885	2.71
402.329	2.72
402.774	2.72
403.218	2.75
403.663	2.76
404.107	2.77
404.551	2.78
404.995	2.8
405.44	2.8
405.884	2.82
406.328	2.84
406.772	2.84
407.216	2.86
407.66	2.88
408.104	2.88
408.547	2.89
408.991	2.92
409.435	2.92
409.879	2.93
410.322	2.95
410.766	2.97
411.209	2.98
411.653	3.01
412.096	3.03
412.54	3.04
412.983	3.04
413.426	3.07
413.869	3.08
414.312	3.1
414.756	3.13
415.199	3.12
415.642	3.12
416.085	3.12
416.527	3.12
416.97	3.11
417.413	3.11
417.856	3.11
418.298	3.11
418.741	3.1
419.184	3.11
419.626	3.11
420.069	3.13
420.511	3.14
420.953	3.14
421.396	3.15
421.838	3.16
422.28	3.17
422.722	3.18
423.164	3.19
423.606	3.19
424.048	3.2
424.49	3.2
424.932	3.19
425.374	3.18
425.816	3.17
426.258	3.15
426.699	3.14
427.141	3.14
427.582	3.14
428.024	3.14
428.465	3.15
428.907	3.14
429.348	3.14
429.789	3.13
430.231	3.16
430.672	3.18
431.113	3.2
431.554	3.23
431.995	3.25
432.436	3.26
432.877	3.3
433.318	3.32
433.759	3.34
434.2	3.36
434.64	3.38
435.081	3.39
435.522	3.39
435.962	3.41
436.403	3.42
436.843	3.43
437.284	3.43
437.724	3.42
438.164	3.42
438.604	3.43
439.045	3.44
439.485	3.45
439.925	3.45
440.365	3.47
440.805	3.48
441.245	3.49
441.685	3.51
442.125	3.53
442.564	3.53
443.004	3.54
443.444	3.54
443.883	3.55
444.323	3.55
444.762	3.56
445.202	3.57
445.641	3.59
446.081	3.6
446.52	3.6
446.959	3.63
447.398	3.65
447.837	3.66
448.276	3.65
448.716	3.66
449.154	3.67
449.593	3.67
450.032	3.67
450.471	3.66
450.91	3.65
451.349	3.64
451.787	3.62
452.226	3.61
452.664	3.6
453.103	3.6
453.541	3.61
453.98	3.62
454.418	3.59
454.856	3.58
455.295	3.57
455.733	3.55
456.171	3.56
456.609	3.56
457.047	3.53
457.485	3.52
457.923	3.51
458.361	3.51
458.798	3.5
459.236	3.5
459.674	3.5
460.111	3.5
460.549	3.5
460.987	3.5
461.424	3.5
461.862	3.52
462.299	3.53
462.736	3.54
463.173	3.54
463.611	3.55
464.048	3.57
464.485	3.58
464.922	3.59
465.359	3.61
465.796	3.63
466.233	3.63
466.67	3.65
467.106	3.66
467.543	3.66
467.98	3.67
468.416	3.68
468.853	3.68
469.29	3.68
469.726	3.71
470.162	3.71
470.599	3.73
471.035	3.73
471.471	3.71
471.907	3.7
472.344	3.72
472.78	3.72
473.216	3.71
473.652	3.72
474.088	3.71
474.523	3.71
474.959	3.7
475.395	3.68
475.831	3.68
476.266	3.69
476.702	3.68
477.138	3.68
477.573	3.68
478.008	3.68
478.444	3.66
478.879	3.67
479.314	3.66
479.75	3.64
480.185	3.63
480.62	3.62
481.055	3.6
481.49	3.57
481.925	3.55
482.36	3.52
482.795	3.51
483.229	3.49
483.664	3.48
484.099	3.46
484.534	3.46
484.968	3.46
485.403	3.45
485.837	3.46
486.271	3.49
486.706	3.5
487.14	3.5
487.574	3.51
488.009	3.51
488.443	3.52
488.877	3.53
489.311	3.54
489.745	3.55
490.179	3.57
490.613	3.58
491.046	3.59
491.48	3.6
491.914	3.62
492.348	3.65
492.781	3.68
493.215	3.71
493.648	3.74
494.082	3.76
494.515	3.79
494.948	3.82
495.382	3.84
495.815	3.88
496.248	3.91
496.681	3.94
497.114	3.97
497.547	3.99
497.98	4.04
498.413	4.07
498.846	4.11
499.279	4.16
499.711	4.2
500.144	4.26
500.577	4.32
501.009	4.38
501.442	4.45
501.874	4.52
502.306	4.6
502.739	4.68
503.171	4.75
503.603	4.83
504.036	4.91
504.468	5
504.9	5.07
505.332	5.15
505.764	5.25
506.196	5.36
506.627	5.46
507.059	5.56
507.491	5.66
507.923	5.78
508.354	5.91
508.786	6.03
509.217	6.16
509.649	6.3
510.08	6.43
510.512	6.56
510.943	6.69
511.374	6.83
511.805	6.97
512.237	7.1
512.668	7.22
513.099	7.36
513.53	7.5
513.961	7.65
514.391	7.79
514.822	7.96
515.253	8.13
515.684	8.31
516.114	8.5
516.545	8.68
516.975	8.89
517.406	9.11
517.836	9.31
518.267	9.53
518.697	9.73
519.127	9.94
519.558	10.14
519.988	10.35
520.418	10.55
520.848	10.74
521.278	10.93
521.708	11.25
522.138	11.41
522.567	11.56
522.997	11.71
523.427	11.89
523.857	12.06
524.286	12.22
524.716	12.37
525.145	12.53
525.575	12.68
526.004	12.85
526.433	12.86
526.863	13.02
527.292	13.19
527.721	13.33
528.15	13.45
528.579	13.55
529.008	13.65
529.437	13.74
529.866	13.84
530.295	13.92
530.724	14
531.152	14.09
531.581	14.18
532.01	14.25
532.438	14.34
532.867	14.41
533.295	14.5
533.723	14.56
534.152	14.62
534.58	14.68
535.008	14.71
535.436	14.75
535.865	14.78
536.293	14.8
536.721	14.81
537.149	14.83
537.576	14.86
538.004	14.88
538.432	14.91
538.86	14.94
539.287	14.97
539.715	15.01
540.143	15.06
540.57	15.09
540.998	15.13
541.425	15.19
541.852	15.23
542.28	15.27
542.707	15.31
543.134	15.34
543.561	15.38
543.988	15.41
544.415	15.43
544.842	15.45
545.269	15.48
545.696	15.51
546.123	15.54
546.549	15.56
546.976	15.6
547.403	15.63
547.829	15.66
548.256	15.68
548.682	15.7
549.108	15.73
549.535	15.75
549.961	15.77
550.387	15.77
550.813	15.79
551.24	15.8
551.666	15.79
552.092	15.77
552.518	15.74
552.943	15.72
553.369	15.69
553.795	15.65
554.221	15.6
554.646	15.55
555.072	15.5
555.498	15.43
555.923	15.36
556.349	15.31
556.774	15.25
557.199	15.2
557.625	15.14
558.05	15.08
558.475	15.02
558.9	14.97
559.325	14.92
559.75	14.85
560.175	14.78
560.6	14.7
561.025	14.61
561.449	14.52
561.874	14.41
562.299	14.32
562.723	14.22
563.148	14.11
563.572	13.99
563.997	13.88
564.421	13.76
564.846	13.64
565.27	13.52
565.694	13.41
566.118	13.27
566.542	13.15
566.966	13.03
567.39	12.91
567.814	12.8
568.238	12.69
568.662	12.59
569.086	12.49
569.509	12.4
569.933	12.3
570.357	12.2
570.78	12.11
571.204	12.02
571.627	11.93
572.05	11.85
572.474	11.76
572.897	11.68
573.32	11.58
573.743	11.48
574.166	11.39
574.589	11.31
575.012	11.23
575.435	11.16
575.858	11.09
576.281	11.01
576.704	10.95
577.126	10.89
577.549	10.81
577.972	10.75
578.394	10.7
578.817	10.64
579.239	10.6
579.661	10.55
580.084	10.5
580.506	10.45
580.928	10.39
581.35	10.33
581.772	10.27
582.194	10.21
582.616	10.16
583.038	10.11
583.46	10.05
583.882	9.99
584.303	9.92
584.725	9.85
585.147	9.79
585.568	9.74
585.99	9.67
586.411	9.63
586.833	9.57
587.254	9.51
587.675	9.47
588.096	9.43
588.518	9.38
588.939	9.35
589.36	9.33
589.781	9.29
590.202	9.26
590.623	9.24
591.043	9.19
591.464	9.18
591.885	9.16
592.305	9.12
592.726	9.1
593.147	9.07
593.567	9.04
593.987	9.01
594.408	8.98
594.828	8.95
595.248	8.93
595.669	8.91
596.089	8.88
596.509	8.85
596.929	8.83
597.349	8.79
597.769	8.77
598.189	8.73
598.608	8.71
599.028	8.7
599.448	8.67
599.867	8.65
600.287	8.63
600.706	8.61
601.126	8.59
601.545	8.56
601.965	8.53
602.384	8.51
602.803	8.48
603.222	8.44
603.641	8.39
604.061	8.36
604.48	8.31
604.898	8.26
605.317	8.21
605.736	8.16
606.155	8.11
606.574	8.06
606.992	8
607.411	7.95
607.829	7.87
608.248	7.82
608.666	7.76
609.085	7.72
609.503	7.67
609.921	7.61
610.339	7.56
610.758	7.52
611.176	7.46
611.594	7.41
612.012	7.36
612.43	7.34
612.847	7.3
613.265	7.25
613.683	7.19
614.101	7.15
614.518	7.11
614.936	7.07
615.353	7.01
615.771	6.97
616.188	6.94
616.606	6.91
617.023	6.87
617.44	6.85
617.857	6.81
618.274	6.78
618.691	6.74
619.108	6.7
619.525	6.67
619.942	6.65
620.359	6.62
620.776	6.59
621.192	6.55
621.609	6.52
622.026	6.49
622.442	6.46
622.859	6.44
623.275	6.41
623.691	6.4
624.108	6.39
624.524	6.37
624.94	6.36
625.356	6.35
625.772	6.33
626.188	6.33
626.604	6.32
627.02	6.3
627.436	6.28
627.852	6.28
628.268	6.26
628.683	6.25
629.099	6.24
629.514	6.23
629.93	6.21
630.345	6.2
630.761	6.17
631.176	6.15
631.591	6.13
632.007	6.11
632.422	6.08
632.837	6.05
633.252	6.01
633.667	5.97
634.082	5.94
634.497	5.89
634.911	5.85
635.326	5.81
635.741	5.77
636.155	5.72
636.57	5.67
636.984	5.62
637.399	5.56
637.813	5.51
638.228	5.44
638.642	5.37
639.056	5.31
639.47	5.26
639.884	5.2
640.298	5.14
640.712	5.07
641.126	5.02
641.54	4.95
641.954	4.89
642.368	4.82
642.781	4.77
643.195	4.7
643.609	4.65
644.022	4.59
644.436	4.54
644.849	4.48
645.262	4.44
645.676	4.39
646.089	4.34
646.502	4.31
646.915	4.28
647.328	4.25
647.741	4.22
648.154	4.19
648.567	4.17
648.98	4.15
649.393	4.13
649.805	4.11
650.218	4.09
650.631	4.08
651.043	4.05
651.456	4.02
651.868	4
652.28	3.97
652.693	3.94
653.105	3.91
653.517	3.88
653.929	3.86
654.341	3.82
654.753	3.8
655.165	3.77
655.577	3.75
655.989	3.73
656.401	3.7
656.813	3.69
657.224	3.66
657.636	3.64
658.047	3.62
658.459	3.59
658.87	3.56
659.282	3.52
659.693	3.49
660.104	3.45
660.515	3.41
660.926	3.38
661.338	3.34
661.749	3.31
662.159	3.28
662.57	3.24
662.981	3.21
663.392	3.18
663.803	3.15
664.213	3.12
664.624	3.1
665.035	3.08
665.445	3.06
665.855	3.03
666.266	3.01
666.676	3
667.086	2.98
667.497	2.96
667.907	2.94
668.317	2.94
668.727	2.93
669.137	2.92
669.547	2.92
669.956	2.91
670.366	2.91
670.776	2.9
671.186	2.9
671.595	2.91
672.005	2.9
672.414	2.91
672.824	2.9
673.233	2.9
673.642	2.91
674.052	2.91
674.461	2.92
674.87	2.94
675.279	2.95
675.688	2.96
676.097	2.98
676.506	3
676.915	3.01
677.323	3.03
677.732	3.05
678.141	3.06
678.549	3.08
678.958	3.1
679.366	3.12
679.775	3.14
680.183	3.17
680.592	3.2
681	3.23
681.408	3.28
681.816	3.32
682.224	3.36
682.632	3.41
683.04	3.46
683.448	3.52
683.856	3.56
684.264	3.62
684.671	3.7
685.079	3.78
685.487	3.87
685.894	3.97
686.302	4.09
686.709	4.22
687.116	4.37
687.524	4.53
687.931	4.7
688.338	4.91
688.745	5.11
689.152	5.32
689.559	5.55
689.966	5.78
690.373	6.02
690.78	6.29
691.187	6.55
691.593	6.83
692	7.12
692.407	7.41
692.813	7.71
693.22	8.02
693.626	8.33
694.032	8.64
694.439	8.96
694.845	9.3
695.251	9.62
695.657	9.95
696.063	10.28
696.469	10.62
696.875	10.96
697.281	11.3
697.687	11.64
698.093	11.97
698.498	12.31
698.904	12.66
699.31	12.99
699.715	13.32
700.12	13.67
700.526	14.01
700.931	14.33
701.337	14.67
701.742	15
702.147	15.31
702.552	15.65
702.957	15.96
703.362	16.26
703.767	16.57
704.172	16.86
704.577	17.14
704.981	17.44
705.386	17.74
705.791	18.03
706.195	18.31
706.6	18.6
707.004	18.86
707.408	19.15
707.813	19.44
708.217	19.73
708.621	20
709.025	20.27
709.43	20.53
709.834	20.78
710.237	21.03
710.641	21.28
711.045	21.52
711.449	21.79
711.853	22.04
712.256	22.25
712.66	22.47
713.064	22.69
713.467	22.9
713.87	23.09
714.274	23.27
714.677	23.46
715.08	23.61
715.484	23.8
715.887	23.97
716.29	24.11
716.693	24.3
717.096	24.47
717.499	24.68
717.901	24.91
718.304	25.13
718.707	25.36
719.109	25.58
719.512	25.79
719.915	25.99
720.317	26.17
720.719	26.35
721.122	26.54
721.524	26.7
721.926	26.86
722.328	27
722.731	27.12
723.133	27.25
723.535	27.39
723.937	27.55
724.338	27.67
724.74	27.83
725.142	28.03
725.544	28.16
725.945	28.31
726.347	28.42
726.748	28.54
727.15	28.66
727.551	28.81
727.952	28.91
728.354	29.03
728.755	29.16
729.156	29.27
729.557	29.31
729.958	29.43
730.359	29.55
730.76	29.67
731.161	29.79
731.562	29.9
731.962	29.97
732.363	30.06
732.763	30.16
733.164	30.25
733.564	30.33
733.965	30.41
734.365	30.48
734.766	30.52
735.166	30.55
735.566	30.59
735.966	30.66
736.366	30.7
736.766	30.74
737.166	30.77
737.566	30.8
737.966	30.83
738.365	30.88
738.765	30.93
739.165	30.98
739.564	31.04
739.964	31.08
740.363	31.1
740.763	31.15
741.162	31.21
741.561	31.25
741.96	31.29
742.36	31.33
742.759	31.36
743.158	31.37
743.557	31.39
743.955	31.4
744.354	31.43
744.753	31.48
745.152	31.5
745.55	31.51
745.949	31.53
746.348	31.56
746.746	31.54
747.144	31.56
747.543	31.58
747.941	31.6
748.339	31.6
748.737	31.6
749.136	31.6
749.534	31.6
749.932	31.6
750.33	31.59
750.727	31.6
751.125	31.64
751.523	31.63
751.921	31.63
752.318	31.62
752.716	31.64
753.113	31.63
753.511	31.63
753.908	31.64
754.305	31.63
754.703	31.58
755.1	31.48
755.497	31.29
755.894	31.02
756.291	30.73
756.688	30.38
757.085	30.07
757.482	29.78
757.878	29.52
758.275	29.22
758.672	28.94
759.068	28.7
759.465	28.52
759.861	28.44
760.258	28.44
760.654	28.52
761.05	28.68
761.447	28.83
761.843	28.95
762.239	29.07
762.635	29.24
763.031	29.44
763.427	29.61
763.822	29.82
764.218	30.03
764.614	30.25
765.01	30.41
765.405	30.57
765.801	30.7
766.196	30.85
766.592	30.95
766.987	31.05
767.382	31.12
767.778	31.19
768.173	31.25
768.568	31.28
768.963	31.29
769.358	31.33
769.753	31.36
770.148	31.37
770.542	31.38
770.937	31.41
771.332	31.42
771.726	31.42
772.121	31.4
772.515	31.38
772.91	31.38
773.304	31.39
773.699	31.39
774.093	31.38
774.487	31.36
774.881	31.35
775.275	31.33
775.669	31.28
776.063	31.27
776.457	31.27
776.851	31.25
777.245	31.23
777.638	31.19
778.032	31.17
778.425	31.16
778.819	31.14
779.212	31.14
779.606	31.13
779.999	31.11
780.392	31.09
780.786	31.08
781.179	31.08
781.572	31.07
781.965	31.07
782.358	31.06
782.751	31.03
783.143	31.01
783.536	30.98
783.929	30.96
784.322	30.96
784.714	30.93
785.107	30.92
785.499	30.9
785.891	30.86
786.284	30.84
786.676	30.8
787.068	30.76
787.46	30.74
787.852	30.7
788.245	30.65
