Data from C_1_HIR_IL_4N_Splice17_12-47-25-267.txt Node
Date: Sat Mar 07 12:47:25 EST 2020
User: sa697716
Spectrometer: NQ5500242
Trigger mode: 0
Integration Time (sec): 1.450000E-1
Scans to average: 20
Nonlinearity correction enabled: false
Boxcar width: 5
Storing dark spectrum: false
XAxis mode: Wavelengths
Number of Pixels in Spectrum: 512
>>>>>Begin Spectral Data<<<<<
187.83	84.16
188.298	94.15
188.766	85.05
189.233	83.71
189.701	82.84
190.169	103.6
190.636	108.47
191.104	58.84
191.571	-222.89
192.039	-164.6
192.506	-314.08
192.974	136.53
193.441	236.63
193.908	131.99
194.375	129.43
194.842	58.1
195.31	106.49
195.777	247.78
196.244	31.75
196.711	31.07
197.177	33.48
197.644	33.1
198.111	32.29
198.578	32.42
199.045	31.92
199.511	31.72
199.978	31.66
200.445	31.18
200.911	30.96
201.378	30.96
201.844	30.46
202.31	29.86
202.777	29.72
203.243	29.76
203.709	29.17
204.176	28.95
204.642	28.67
205.108	28.7
205.574	28.99
206.04	28.52
206.506	28.11
206.972	28.28
207.438	27.99
207.903	27.52
208.369	26.81
208.835	26.27
209.301	25.71
209.766	24.65
210.232	23.96
210.697	23.07
211.163	22.54
211.628	22.01
212.094	21.02
212.559	20.64
213.024	20.08
213.49	19.56
213.955	19.04
214.42	18.63
214.885	18.19
215.35	17.33
215.815	16.36
216.28	15.2
216.745	13.86
217.21	12.58
217.675	11.37
218.14	10.35
218.604	9.45
219.069	8.62
219.534	7.96
219.998	7.48
220.463	7.07
220.927	6.67
221.392	6.35
221.856	6.09
222.32	5.89
222.785	5.68
223.249	5.5
223.713	5.36
224.177	5.27
224.642	5.16
225.106	5.01
225.57	4.88
226.034	4.79
226.497	4.7
226.961	4.6
227.425	4.51
227.889	4.44
228.353	4.36
228.816	4.27
229.28	4.18
229.744	4.12
230.207	4.05
230.671	3.99
231.134	3.93
231.597	3.89
232.061	3.84
232.524	3.79
232.987	3.74
233.45	3.71
233.914	3.66
234.377	3.61
234.84	3.57
235.303	3.54
235.766	3.52
236.229	3.49
236.691	3.44
237.154	3.42
237.617	3.38
238.08	3.35
238.542	3.31
239.005	3.29
239.468	3.27
239.93	3.24
240.393	3.21
240.855	3.16
241.317	3.14
241.78	3.11
242.242	3.08
242.704	3.07
243.166	3.04
243.629	3.03
244.091	2.99
244.553	2.96
245.015	2.94
245.477	2.92
245.939	2.9
246.4	2.88
246.862	2.85
247.324	2.84
247.786	2.81
248.247	2.78
248.709	2.75
249.17	2.73
249.632	2.72
250.093	2.7
250.555	2.69
251.016	2.69
251.477	2.67
251.939	2.65
252.4	2.64
252.861	2.63
253.322	2.62
253.783	2.62
254.244	2.61
254.705	2.59
255.166	2.58
255.627	2.57
256.088	2.55
256.549	2.54
257.009	2.53
257.47	2.51
257.931	2.49
258.391	2.47
258.852	2.45
259.312	2.43
259.773	2.42
260.233	2.41
260.694	2.4
261.154	2.38
261.614	2.37
262.074	2.35
262.534	2.34
262.994	2.33
263.455	2.32
263.915	2.31
264.374	2.3
264.834	2.3
265.294	2.28
265.754	2.27
266.214	2.27
266.673	2.26
267.133	2.26
267.593	2.26
268.052	2.26
268.512	2.26
268.971	2.26
269.431	2.25
269.89	2.25
270.349	2.24
270.809	2.24
271.268	2.23
271.727	2.23
272.186	2.22
272.645	2.22
273.104	2.21
273.563	2.21
274.022	2.2
274.481	2.19
274.94	2.19
275.399	2.18
275.857	2.18
276.316	2.18
276.775	2.18
277.233	2.18
277.692	2.17
278.15	2.17
278.609	2.16
279.067	2.15
279.525	2.16
279.984	2.15
280.442	2.15
280.9	2.15
281.358	2.14
281.816	2.14
282.274	2.14
282.732	2.13
283.19	2.12
283.648	2.12
284.106	2.12
284.564	2.12
285.021	2.11
285.479	2.11
285.937	2.09
286.394	2.09
286.852	2.09
287.309	2.09
287.767	2.08
288.224	2.07
288.682	2.07
289.139	2.06
289.596	2.05
290.053	2.04
290.511	2.03
290.968	2.03
291.425	2.02
291.882	2.01
292.339	2
292.796	2
293.252	1.99
293.709	1.99
294.166	1.99
294.623	1.98
295.079	1.98
295.536	1.97
295.992	1.96
296.449	1.95
296.905	1.95
297.362	1.94
297.818	1.94
298.274	1.94
298.731	1.93
299.187	1.92
299.643	1.91
300.099	1.91
300.555	1.9
301.011	1.9
301.467	1.9
301.923	1.89
302.379	1.89
302.835	1.89
303.291	1.88
303.746	1.88
304.202	1.88
304.658	1.88
305.113	1.88
305.569	1.88
306.024	1.88
306.479	1.88
306.935	1.87
307.39	1.86
307.845	1.86
308.301	1.86
308.756	1.87
309.211	1.86
309.666	1.87
310.121	1.87
310.576	1.86
311.031	1.87
311.486	1.87
311.94	1.88
312.395	1.87
312.85	1.87
313.305	1.87
313.759	1.87
314.214	1.86
314.668	1.85
315.123	1.85
315.577	1.85
316.032	1.84
316.486	1.84
316.94	1.84
317.394	1.84
317.849	1.84
318.303	1.83
318.757	1.82
319.211	1.82
319.665	1.81
320.119	1.81
320.572	1.81
321.026	1.81
321.48	1.81
321.934	1.79
322.387	1.79
322.841	1.78
323.295	1.78
323.748	1.78
324.202	1.78
324.655	1.79
325.108	1.79
325.562	1.79
326.015	1.78
326.468	1.79
326.921	1.79
327.374	1.78
327.827	1.78
328.28	1.78
328.733	1.79
329.186	1.79
329.639	1.78
330.092	1.78
330.545	1.78
330.997	1.78
331.45	1.78
331.903	1.79
332.355	1.8
332.808	1.8
333.26	1.79
333.713	1.79
334.165	1.78
334.617	1.78
335.069	1.78
335.522	1.79
335.974	1.79
336.426	1.78
336.878	1.77
337.33	1.76
337.782	1.76
338.234	1.77
338.686	1.78
339.137	1.79
339.589	1.79
340.041	1.78
340.493	1.78
340.944	1.77
341.396	1.77
341.847	1.77
342.299	1.76
342.75	1.75
343.201	1.74
343.653	1.74
344.104	1.72
344.555	1.71
345.006	1.7
345.457	1.69
345.908	1.7
346.359	1.7
346.81	1.69
347.261	1.69
347.712	1.69
348.163	1.68
348.613	1.68
349.064	1.68
349.515	1.69
349.965	1.69
350.416	1.69
350.866	1.68
351.317	1.68
351.767	1.67
352.217	1.67
352.668	1.67
353.118	1.67
353.568	1.68
354.018	1.68
354.468	1.68
354.918	1.68
355.368	1.68
355.818	1.68
356.268	1.68
356.718	1.69
357.168	1.69
357.617	1.69
358.067	1.7
358.517	1.7
358.966	1.71
359.416	1.71
359.865	1.7
360.315	1.71
360.764	1.71
361.213	1.71
361.663	1.71
362.112	1.72
362.561	1.72
363.01	1.71
363.459	1.69
363.908	1.68
364.357	1.68
364.806	1.68
365.255	1.67
365.703	1.68
366.152	1.69
366.601	1.69
367.05	1.69
367.498	1.69
367.947	1.7
368.395	1.71
368.844	1.72
369.292	1.72
369.74	1.73
370.189	1.73
370.637	1.72
371.085	1.72
371.533	1.72
371.981	1.72
372.429	1.72
372.877	1.73
373.325	1.73
373.773	1.73
374.221	1.73
374.669	1.74
375.116	1.74
375.564	1.73
376.012	1.74
376.459	1.74
376.907	1.74
377.354	1.75
377.801	1.76
378.249	1.75
378.696	1.76
379.143	1.76
379.591	1.77
380.038	1.77
380.485	1.78
380.932	1.8
381.379	1.81
381.826	1.82
382.273	1.83
382.72	1.83
383.166	1.86
383.613	1.87
384.06	1.9
384.506	1.92
384.953	1.96
385.4	2
385.846	2.05
386.292	2.11
386.739	2.17
387.185	2.24
387.631	2.31
388.078	2.37
388.524	2.42
388.97	2.47
389.416	2.54
389.862	2.62
390.308	2.74
390.754	2.87
391.2	2.99
391.645	3.1
392.091	3.2
392.537	3.31
392.983	3.46
393.428	3.69
393.874	3.96
394.319	4.27
394.765	4.58
395.21	4.9
395.655	5.22
396.101	5.58
396.546	5.97
396.991	6.42
397.436	6.9
397.881	7.4
398.326	7.85
398.771	8.28
399.216	8.7
399.661	9.06
400.106	9.38
400.551	9.68
400.995	9.94
401.44	10.18
401.885	10.41
402.329	10.65
402.774	10.9
403.218	11.21
403.663	11.52
404.107	11.85
404.551	12.21
404.995	12.54
405.44	12.86
405.884	13.2
406.328	13.58
406.772	14.01
407.216	14.46
407.66	14.86
408.104	15.2
408.547	15.51
408.991	15.8
409.435	16.1
409.879	16.48
410.322	16.92
410.766	17.37
411.209	17.79
411.653	18.16
412.096	18.49
412.54	18.82
412.983	19.15
413.426	19.52
413.869	19.89
414.312	20.26
414.756	20.59
415.199	20.84
415.642	21.07
416.085	21.25
416.527	21.37
416.97	21.44
417.413	21.48
417.856	21.48
418.298	21.45
418.741	21.47
419.184	21.51
419.626	21.58
420.069	21.73
420.511	21.86
420.953	22.02
421.396	22.24
421.838	22.52
422.28	22.82
422.722	23.15
423.164	23.48
423.606	23.73
424.048	23.92
424.49	23.99
424.932	23.84
425.374	23.49
425.816	23.01
426.258	22.51
426.699	22.19
427.141	22.19
427.582	22.44
428.024	22.8
428.465	23.2
428.907	23.52
429.348	23.86
429.789	24.37
430.231	25.17
430.672	26.26
431.113	27.46
431.554	28.57
431.995	29.39
432.436	29.98
432.877	30.44
433.318	30.85
433.759	31.32
434.2	31.9
434.64	32.59
435.081	33.21
435.522	33.75
435.962	34.2
436.403	34.57
436.843	34.9
437.284	35.29
437.724	35.71
438.164	36.26
438.604	36.86
439.045	37.46
439.485	38
439.925	38.48
440.365	38.87
440.805	39.18
441.245	39.52
441.685	39.82
442.125	40.14
442.564	40.51
443.004	40.9
443.444	41.35
443.883	41.86
444.323	42.33
444.762	42.82
445.202	43.35
445.641	44
446.081	44.73
446.52	45.49
446.959	46.18
447.398	46.7
447.837	47.01
448.276	47.14
448.716	47.2
449.154	47.3
449.593	47.38
450.032	47.42
450.471	47.31
450.91	47.13
451.349	46.96
451.787	46.81
452.226	46.74
452.664	46.74
453.103	46.8
453.541	46.81
453.98	46.71
454.418	46.57
454.856	46.39
455.295	46.27
455.733	46.13
456.171	46.05
456.609	45.99
457.047	45.9
457.485	45.88
457.923	45.96
458.361	46.07
458.798	46.28
459.236	46.46
459.674	46.69
460.111	46.88
460.549	47.15
460.987	47.38
461.424	47.63
461.862	47.92
462.299	48.17
462.736	48.39
463.173	48.69
463.611	49.04
464.048	49.48
464.485	49.96
464.922	50.49
465.359	50.98
465.796	51.39
466.233	51.83
466.67	52.31
467.106	52.85
467.543	53.44
467.98	54.02
468.416	54.47
468.853	54.88
469.29	55.25
469.726	55.63
470.162	56.02
470.599	56.38
471.035	56.64
471.471	56.8
471.907	56.87
472.344	56.87
472.78	56.8
473.216	56.73
473.652	56.67
474.088	56.54
474.523	56.33
474.959	56.1
475.395	55.84
475.831	55.59
476.266	55.32
476.702	55.07
477.138	54.76
477.573	54.4
478.008	54.02
478.444	53.54
478.879	53.05
479.314	52.54
479.75	51.98
480.185	51.4
480.62	50.74
481.055	49.96
481.49	49
481.925	48.03
482.36	47.13
482.795	46.37
483.229	45.75
483.664	45.19
484.099	44.68
484.534	44.23
484.968	43.87
485.403	43.61
485.837	43.54
486.271	43.63
486.706	43.71
487.14	43.76
487.574	43.69
488.009	43.59
488.443	43.49
488.877	43.44
489.311	43.4
489.745	43.38
490.179	43.38
490.613	43.37
491.046	43.37
491.48	43.42
491.914	43.5
492.348	43.66
492.781	43.82
493.215	43.97
493.648	44.05
494.082	44.13
494.515	44.2
494.948	44.26
495.382	44.3
495.815	44.32
496.248	44.36
496.681	44.37
497.114	44.34
497.547	44.3
497.98	44.32
498.413	44.42
498.846	44.56
499.279	44.67
499.711	44.77
500.144	44.92
500.577	45.13
501.009	45.38
501.442	45.72
501.874	46.08
502.306	46.44
502.739	46.74
503.171	47.01
503.603	47.24
504.036	47.51
504.468	47.81
504.9	48.12
505.332	48.4
505.764	48.65
506.196	48.86
506.627	49.11
507.059	49.4
507.491	49.7
507.923	49.98
508.354	50.32
508.786	50.59
509.217	50.81
509.649	51.01
510.08	51.21
510.512	51.45
510.943	51.72
511.374	51.95
511.805	52.05
512.237	52.05
512.668	52.04
513.099	52
513.53	52.03
513.961	52.1
514.391	52.22
514.822	52.4
515.253	52.61
515.684	52.81
516.114	53.07
516.545	53.41
516.975	53.91
517.406	54.44
517.836	54.97
518.267	55.44
518.697	55.89
519.127	56.28
519.558	56.68
519.988	57.06
520.418	57.39
520.848	57.65
521.278	57.89
521.708	58.06
522.138	58.08
522.567	58.05
522.997	58.07
523.427	58.14
523.857	58.25
524.286	58.38
524.716	58.48
525.145	58.57
525.575	58.68
526.004	58.83
526.433	59.03
526.863	59.4
527.292	59.75
527.721	60.01
528.15	60.11
528.579	60.13
529.008	60.1
529.437	60.03
529.866	59.97
530.295	59.94
530.724	59.92
531.152	59.91
531.581	59.87
532.01	59.81
532.438	59.78
532.867	59.82
533.295	59.88
533.723	59.93
534.152	59.97
534.58	59.98
535.008	59.9
535.436	59.78
535.865	59.56
536.293	59.38
536.721	59.27
537.149	59.23
537.576	59.25
538.004	59.29
538.432	59.29
538.86	59.32
539.287	59.37
539.715	59.52
540.143	59.71
540.57	59.97
540.998	60.23
541.425	60.47
541.852	60.73
542.28	60.94
542.707	61.15
543.134	61.36
543.561	61.53
543.988	61.73
544.415	61.9
544.842	62.1
545.269	62.3
545.696	62.48
546.123	62.69
546.549	62.86
546.976	63.04
547.403	63.21
547.829	63.4
548.256	63.62
548.682	63.78
549.108	63.97
549.535	64.15
549.961	64.29
550.387	64.45
550.813	64.61
551.24	64.74
551.666	64.84
552.092	64.89
552.518	64.94
552.943	64.92
553.369	64.91
553.795	64.86
554.221	64.74
554.646	64.57
555.072	64.35
555.498	64.12
555.923	63.93
556.349	63.76
556.774	63.65
557.199	63.47
557.625	63.34
558.05	63.2
558.475	63.05
558.9	62.92
559.325	62.81
559.75	62.67
560.175	62.53
560.6	62.31
561.025	62.02
561.449	61.65
561.874	61.3
562.299	60.94
562.723	60.6
563.148	60.23
563.572	59.81
563.997	59.38
564.421	58.93
564.846	58.5
565.27	58.06
565.694	57.63
566.118	57.18
566.542	56.75
566.966	56.29
567.39	55.85
567.814	55.47
568.238	55.15
568.662	54.88
569.086	54.64
569.509	54.42
569.933	54.22
570.357	54.04
570.78	53.9
571.204	53.79
571.627	53.71
572.05	53.61
572.474	53.54
572.897	53.45
573.32	53.34
573.743	53.24
574.166	53.14
574.589	53.06
575.012	53.02
575.435	53.06
575.858	53.12
576.281	53.21
576.704	53.31
577.126	53.39
577.549	53.5
577.972	53.66
578.394	53.85
578.817	54.07
579.239	54.33
579.661	54.55
580.084	54.73
580.506	54.94
580.928	55.12
581.35	55.29
581.772	55.43
582.194	55.59
582.616	55.77
583.038	55.97
583.46	56.14
583.882	56.23
584.303	56.26
584.725	56.24
585.147	56.17
585.568	56.17
585.99	56.23
586.411	56.39
586.833	56.53
587.254	56.66
587.675	56.82
588.096	56.99
588.518	57.23
588.939	57.57
589.36	57.94
589.781	58.37
590.202	58.69
590.623	58.96
591.043	59.16
591.464	59.35
591.885	59.51
592.305	59.67
592.726	59.82
593.147	59.89
593.567	59.94
593.987	59.98
594.408	59.99
594.828	60.05
595.248	60.08
595.669	60.06
596.089	60
596.509	59.94
596.929	59.8
597.349	59.67
597.769	59.54
598.189	59.42
598.608	59.37
599.028	59.32
599.448	59.28
599.867	59.23
600.287	59.24
600.706	59.23
601.126	59.22
601.545	59.24
601.965	59.27
602.384	59.33
602.803	59.36
603.222	59.34
603.641	59.31
604.061	59.28
604.48	59.23
604.898	59.18
605.317	59.17
605.736	59.13
606.155	59.1
606.574	59.08
606.992	59.06
607.411	59.04
607.829	59.02
608.248	59.01
608.666	58.96
609.085	58.95
609.503	58.9
609.921	58.87
610.339	58.85
610.758	58.83
611.176	58.79
611.594	58.72
612.012	58.61
612.43	58.51
612.847	58.43
613.265	58.4
613.683	58.37
614.101	58.39
614.518	58.39
614.936	58.39
615.353	58.36
615.771	58.39
616.188	58.45
616.606	58.55
617.023	58.64
617.44	58.71
617.857	58.72
618.274	58.72
618.691	58.65
619.108	58.6
619.525	58.53
619.942	58.45
620.359	58.32
620.776	58.16
621.192	58
621.609	57.88
622.026	57.75
622.442	57.68
622.859	57.58
623.275	57.5
623.691	57.38
624.108	57.29
624.524	57.24
624.94	57.18
625.356	57.14
625.772	57.1
626.188	57.09
626.604	57.04
627.02	56.98
627.436	56.94
627.852	56.96
628.268	56.98
628.683	57.03
629.099	57.08
629.514	57.14
629.93	57.21
630.345	57.31
630.761	57.36
631.176	57.43
631.591	57.47
632.007	57.55
632.422	57.6
632.837	57.69
633.252	57.75
633.667	57.82
634.082	57.86
634.497	57.94
634.911	57.96
635.326	57.97
635.741	57.95
636.155	57.95
636.57	57.91
636.984	57.87
637.399	57.78
637.813	57.74
638.228	57.64
638.642	57.56
639.056	57.45
639.47	57.4
639.884	57.34
640.298	57.3
640.712	57.27
641.126	57.22
641.54	57.15
641.954	57.09
642.368	56.98
642.781	56.89
643.195	56.81
643.609	56.71
644.022	56.61
644.436	56.5
644.849	56.38
645.262	56.21
645.676	56.08
646.089	56.01
646.502	55.96
646.915	55.92
647.328	55.9
647.741	55.85
648.154	55.83
648.567	55.79
648.98	55.78
649.393	55.78
649.805	55.83
650.218	55.86
650.631	55.75
651.043	55.56
651.456	55.18
651.868	54.66
652.28	54.1
652.693	53.67
653.105	53.29
653.517	53.02
653.929	52.81
654.341	52.66
654.753	52.51
655.165	52.45
655.577	52.51
655.989	52.74
656.401	53.14
656.813	53.58
657.224	53.89
657.636	54.14
658.047	54.3
658.459	54.36
658.87	54.36
659.282	54.35
659.693	54.31
660.104	54.23
660.515	54.15
660.926	54.08
661.338	53.99
661.749	53.88
662.159	53.75
662.57	53.63
662.981	53.51
663.392	53.39
663.803	53.29
664.213	53.18
664.624	53.1
665.035	53
665.445	52.87
665.855	52.75
666.266	52.63
666.676	52.52
667.086	52.35
667.497	52.2
667.907	52.07
668.317	51.95
668.727	51.83
669.137	51.7
669.547	51.59
669.956	51.47
670.366	51.36
670.776	51.26
671.186	51.17
671.595	51.12
672.005	51.07
672.414	51.02
672.824	50.95
673.233	50.91
673.642	50.88
674.052	50.84
674.461	50.82
674.87	50.82
675.279	50.82
675.688	50.82
676.097	50.83
676.506	50.86
676.915	50.88
677.323	50.94
677.732	50.97
678.141	51.01
678.549	51.04
678.958	51.12
679.366	51.16
679.775	51.2
680.183	51.22
680.592	51.27
681	51.33
681.408	51.38
681.816	51.35
682.224	51.13
682.632	50.65
683.04	50
683.448	49.34
683.856	48.78
684.264	48.31
684.671	47.88
685.079	47.46
685.487	47.07
685.894	46.77
686.302	46.59
686.709	46.7
687.116	47.11
687.524	47.78
687.931	48.49
688.338	49.18
688.745	49.82
689.152	50.46
689.559	51.12
689.966	51.73
690.373	52.29
690.78	52.83
691.187	53.32
691.593	53.79
692	54.25
692.407	54.68
692.813	55.13
693.22	55.52
693.626	55.89
694.032	56.26
694.439	56.61
694.845	57
695.251	57.34
695.657	57.65
696.063	57.94
696.469	58.16
696.875	58.37
697.281	58.54
697.687	58.72
698.093	58.92
698.498	59.12
698.904	59.36
699.31	59.59
699.715	59.84
700.12	60.15
700.526	60.46
700.931	60.79
701.337	61.13
701.742	61.44
702.147	61.78
702.552	62.12
702.957	62.43
703.362	62.74
703.767	63.01
704.172	63.25
704.577	63.47
704.981	63.68
705.386	63.9
705.791	64.11
706.195	64.36
706.6	64.6
707.004	64.79
707.408	64.98
707.813	65.16
708.217	65.3
708.621	65.49
709.025	65.62
709.43	65.78
709.834	65.95
710.237	66.06
710.641	66.14
711.045	66.23
711.449	66.34
711.853	66.4
712.256	66.34
712.66	66.2
713.064	65.96
713.467	65.66
713.87	65.23
714.274	64.69
714.677	64.15
715.08	63.57
715.484	62.99
715.887	62.46
716.29	61.99
716.693	61.76
717.096	61.76
717.499	61.93
717.901	62.24
718.304	62.66
718.707	63.13
719.109	63.58
719.512	63.98
719.915	64.35
720.317	64.64
720.719	64.89
721.122	65.03
721.524	65.03
721.926	64.98
722.328	64.89
722.731	64.77
723.133	64.69
723.535	64.67
723.937	64.7
724.338	64.74
724.74	64.79
725.142	64.88
725.544	64.92
725.945	65.01
726.347	65.04
726.748	65.06
727.15	65.08
727.551	65.18
727.952	65.3
728.354	65.5
728.755	65.73
729.156	66.01
729.557	66.28
729.958	66.6
730.359	66.88
730.76	67.14
731.161	67.37
731.562	67.62
731.962	67.74
732.363	67.86
732.763	67.94
733.164	67.98
733.564	68
733.965	67.96
734.365	67.88
734.766	67.74
735.166	67.65
735.566	67.59
735.966	67.51
736.366	67.48
736.766	67.39
737.166	67.3
737.566	67.19
737.966	67.03
738.365	66.96
738.765	66.94
739.165	66.96
739.564	66.97
739.964	66.95
740.363	66.89
740.763	66.86
741.162	66.85
741.561	66.83
741.96	66.83
742.36	66.89
742.759	66.86
743.158	66.82
743.557	66.73
743.955	66.66
744.354	66.58
744.753	66.57
745.152	66.5
745.55	66.41
745.949	66.31
746.348	66.23
746.746	66.08
747.144	65.96
747.543	65.8
747.941	65.69
748.339	65.52
748.737	65.38
749.136	65.22
749.534	65.11
749.932	65.02
750.33	64.92
750.727	64.82
751.125	64.72
751.523	64.6
751.921	64.48
752.318	64.36
752.716	64.26
753.113	64.17
753.511	64.06
753.908	63.91
754.305	63.66
754.703	63.15
755.1	62.13
755.497	60.42
755.894	57.99
756.291	55.08
756.688	52.01
757.085	49.14
757.482	46.46
757.878	43.99
758.275	41.55
758.672	39.11
759.068	36.91
759.465	35.27
759.861	34.5
760.258	34.65
760.654	35.47
761.05	36.64
761.447	37.84
761.843	39
762.239	40.14
762.635	41.47
763.031	43.09
763.427	44.88
763.822	46.76
764.218	48.62
764.614	50.37
765.01	51.97
765.405	53.41
765.801	54.68
766.196	55.83
766.592	56.78
766.987	57.57
767.382	58.11
767.778	58.53
768.173	58.83
768.568	59.02
768.963	59.18
769.358	59.31
769.753	59.41
770.148	59.44
770.542	59.41
770.937	59.39
771.332	59.35
771.726	59.37
772.121	59.36
772.515	59.32
772.91	59.26
773.304	59.17
