Data from C_1_DEC_OH_4N_Splice17_12-43-18-918.txt Node
Date: Sat Mar 07 12:43:18 EST 2020
User: sa697716
Spectrometer: NQ5500242
Trigger mode: 0
Integration Time (sec): 1.450000E-1
Scans to average: 20
Nonlinearity correction enabled: false
Boxcar width: 5
Storing dark spectrum: false
XAxis mode: Wavelengths
Number of Pixels in Spectrum: 512
>>>>>Begin Spectral Data<<<<<
187.83	50.89
188.298	76.71
188.766	37.32
189.233	52.87
189.701	47.8
190.169	54.75
190.636	38.9
191.104	-28.44
191.571	-162.64
192.039	-86.84
192.506	-756.61
192.974	220.94
193.441	382.47
193.908	63.27
194.375	71.09
194.842	21.73
195.31	11.81
195.777	-107.95
196.244	5.44
196.711	14.71
197.177	18.63
197.644	18.14
198.111	18.64
198.578	18.96
199.045	19.58
199.511	19.4
199.978	19.75
200.445	19.9
200.911	19.73
201.378	19.57
201.844	19.63
202.31	19.32
202.777	19.64
203.243	19.47
203.709	19.37
204.176	19.27
204.642	19.54
205.108	19.58
205.574	19.43
206.04	19.26
206.506	19.11
206.972	19.21
207.438	18.93
207.903	18.44
208.369	18.01
208.835	17.57
209.301	16.88
209.766	16.2
210.232	15.28
210.697	14.85
211.163	14.55
211.628	14.24
212.094	13.54
212.559	13.27
213.024	12.98
213.49	12.71
213.955	12.24
214.42	12.06
214.885	11.69
215.35	11.36
215.815	10.5
216.28	9.36
216.745	8.39
217.21	7.44
217.675	6.61
218.14	5.88
218.604	5.31
219.069	4.82
219.534	4.34
219.998	3.98
220.463	3.69
220.927	3.43
221.392	3.29
221.856	3.13
222.32	3
222.785	2.87
223.249	2.76
223.713	2.64
224.177	2.57
224.642	2.51
225.106	2.42
225.57	2.33
226.034	2.28
226.497	2.23
226.961	2.16
227.425	2.11
227.889	2.07
228.353	2.02
228.816	1.96
229.28	1.93
229.744	1.89
230.207	1.85
230.671	1.82
231.134	1.8
231.597	1.76
232.061	1.74
232.524	1.71
232.987	1.69
233.45	1.68
233.914	1.68
234.377	1.65
234.84	1.63
235.303	1.62
235.766	1.61
236.229	1.59
236.691	1.58
237.154	1.56
237.617	1.54
238.08	1.52
238.542	1.5
239.005	1.49
239.468	1.47
239.93	1.46
240.393	1.44
240.855	1.41
241.317	1.4
241.78	1.38
242.242	1.38
242.704	1.38
243.166	1.36
243.629	1.36
244.091	1.34
244.553	1.34
245.015	1.32
245.477	1.32
245.939	1.32
246.4	1.31
246.862	1.3
247.324	1.3
247.786	1.29
248.247	1.29
248.709	1.27
249.17	1.24
249.632	1.24
250.093	1.23
250.555	1.22
251.016	1.21
251.477	1.2
251.939	1.2
252.4	1.19
252.861	1.19
253.322	1.18
253.783	1.17
254.244	1.17
254.705	1.16
255.166	1.15
255.627	1.14
256.088	1.14
256.549	1.14
257.009	1.12
257.47	1.11
257.931	1.1
258.391	1.09
258.852	1.08
259.312	1.07
259.773	1.07
260.233	1.07
260.694	1.06
261.154	1.05
261.614	1.05
262.074	1.05
262.534	1.04
262.994	1.03
263.455	1.03
263.915	1.03
264.374	1.02
264.834	1.02
265.294	1.01
265.754	1.01
266.214	1
266.673	0.99
267.133	0.99
267.593	0.99
268.052	0.99
268.512	0.99
268.971	0.99
269.431	0.98
269.89	0.97
270.349	0.98
270.809	0.97
271.268	0.97
271.727	0.97
272.186	0.96
272.645	0.97
273.104	0.96
273.563	0.96
274.022	0.96
274.481	0.96
274.94	0.97
275.399	0.96
275.857	0.96
276.316	0.96
276.775	0.96
277.233	0.96
277.692	0.96
278.15	0.96
278.609	0.96
279.067	0.96
279.525	0.97
279.984	0.97
280.442	0.97
280.9	0.97
281.358	0.97
281.816	0.97
282.274	0.97
282.732	0.97
283.19	0.96
283.648	0.96
284.106	0.95
284.564	0.94
285.021	0.95
285.479	0.94
285.937	0.94
286.394	0.94
286.852	0.93
287.309	0.93
287.767	0.93
288.224	0.93
288.682	0.93
289.139	0.93
289.596	0.93
290.053	0.92
290.511	0.91
290.968	0.91
291.425	0.9
291.882	0.9
292.339	0.9
292.796	0.9
293.252	0.9
293.709	0.9
294.166	0.9
294.623	0.89
295.079	0.89
295.536	0.9
295.992	0.9
296.449	0.9
296.905	0.9
297.362	0.89
297.818	0.89
298.274	0.88
298.731	0.88
299.187	0.87
299.643	0.86
300.099	0.86
300.555	0.85
301.011	0.85
301.467	0.85
301.923	0.85
302.379	0.85
302.835	0.85
303.291	0.85
303.746	0.85
304.202	0.86
304.658	0.86
305.113	0.86
305.569	0.86
306.024	0.86
306.479	0.86
306.935	0.85
307.39	0.85
307.845	0.85
308.301	0.86
308.756	0.86
309.211	0.86
309.666	0.86
310.121	0.87
310.576	0.87
311.031	0.87
311.486	0.88
311.94	0.88
312.395	0.88
312.85	0.88
313.305	0.88
313.759	0.88
314.214	0.88
314.668	0.88
315.123	0.88
315.577	0.88
316.032	0.89
316.486	0.88
316.94	0.89
317.394	0.88
317.849	0.87
318.303	0.87
318.757	0.87
319.211	0.87
319.665	0.87
320.119	0.86
320.572	0.85
321.026	0.84
321.48	0.84
321.934	0.83
322.387	0.83
322.841	0.83
323.295	0.83
323.748	0.83
324.202	0.83
324.655	0.83
325.108	0.84
325.562	0.84
326.015	0.84
326.468	0.84
326.921	0.85
327.374	0.84
327.827	0.85
328.28	0.85
328.733	0.85
329.186	0.85
329.639	0.85
330.092	0.85
330.545	0.85
330.997	0.84
331.45	0.84
331.903	0.85
332.355	0.86
332.808	0.86
333.26	0.85
333.713	0.85
334.165	0.85
334.617	0.85
335.069	0.85
335.522	0.85
335.974	0.85
336.426	0.84
336.878	0.83
337.33	0.83
337.782	0.83
338.234	0.84
338.686	0.84
339.137	0.85
339.589	0.84
340.041	0.85
340.493	0.84
340.944	0.84
341.396	0.85
341.847	0.85
342.299	0.84
342.75	0.84
343.201	0.83
343.653	0.83
344.104	0.82
344.555	0.82
345.006	0.82
345.457	0.82
345.908	0.82
346.359	0.82
346.81	0.82
347.261	0.82
347.712	0.82
348.163	0.81
348.613	0.82
349.064	0.82
349.515	0.82
349.965	0.82
350.416	0.81
350.866	0.81
351.317	0.8
351.767	0.8
352.217	0.81
352.668	0.81
353.118	0.81
353.568	0.81
354.018	0.81
354.468	0.81
354.918	0.81
355.368	0.81
355.818	0.81
356.268	0.81
356.718	0.81
357.168	0.81
357.617	0.81
358.067	0.81
358.517	0.83
358.966	0.82
359.416	0.83
359.865	0.83
360.315	0.84
360.764	0.85
361.213	0.84
361.663	0.83
362.112	0.84
362.561	0.85
363.01	0.85
363.459	0.83
363.908	0.83
364.357	0.83
364.806	0.82
365.255	0.82
365.703	0.82
366.152	0.82
366.601	0.83
367.05	0.82
367.498	0.82
367.947	0.82
368.395	0.83
368.844	0.83
369.292	0.82
369.74	0.83
370.189	0.83
370.637	0.83
371.085	0.82
371.533	0.82
371.981	0.81
372.429	0.82
372.877	0.82
373.325	0.82
373.773	0.82
374.221	0.83
374.669	0.83
375.116	0.82
375.564	0.82
376.012	0.82
376.459	0.82
376.907	0.83
377.354	0.82
377.801	0.82
378.249	0.83
378.696	0.83
379.143	0.82
379.591	0.83
380.038	0.83
380.485	0.83
380.932	0.84
381.379	0.84
381.826	0.85
382.273	0.86
382.72	0.86
383.166	0.88
383.613	0.89
384.06	0.9
384.506	0.92
384.953	0.95
385.4	0.98
385.846	1.02
386.292	1.06
386.739	1.1
387.185	1.16
387.631	1.21
388.078	1.25
388.524	1.3
388.97	1.35
389.416	1.41
389.862	1.49
390.308	1.6
390.754	1.73
391.2	1.86
391.645	1.98
392.091	2.1
392.537	2.22
392.983	2.4
393.428	2.63
393.874	2.94
394.319	3.28
394.765	3.64
395.21	4.02
395.655	4.41
396.101	4.85
396.546	5.33
396.991	5.89
397.436	6.47
397.881	7.06
398.326	7.65
398.771	8.19
399.216	8.72
399.661	9.21
400.106	9.65
400.551	10.05
400.995	10.42
401.44	10.76
401.885	11.09
402.329	11.44
402.774	11.8
403.218	12.2
403.663	12.64
404.107	13.1
404.551	13.57
404.995	14.02
405.44	14.45
405.884	14.91
406.328	15.42
406.772	15.98
407.216	16.55
407.66	17.09
408.104	17.56
408.547	17.98
408.991	18.37
409.435	18.81
409.879	19.3
410.322	19.85
410.766	20.39
411.209	20.93
411.653	21.4
412.096	21.83
412.54	22.22
412.983	22.63
413.426	23.08
413.869	23.53
414.312	23.94
414.756	24.29
415.199	24.59
415.642	24.87
416.085	25.08
416.527	25.23
416.97	25.29
417.413	25.3
417.856	25.28
418.298	25.25
418.741	25.26
419.184	25.33
419.626	25.45
420.069	25.63
420.511	25.77
420.953	25.96
421.396	26.21
421.838	26.53
422.28	26.9
422.722	27.29
423.164	27.64
423.606	27.92
424.048	28.11
424.49	28.15
424.932	27.92
425.374	27.47
425.816	26.84
426.258	26.22
426.699	25.82
427.141	25.79
427.582	26.05
428.024	26.45
428.465	26.86
428.907	27.22
429.348	27.57
429.789	28.13
430.231	29.06
430.672	30.3
431.113	31.65
431.554	32.9
431.995	33.82
432.436	34.46
432.877	34.94
433.318	35.37
433.759	35.83
434.2	36.45
434.64	37.16
435.081	37.82
435.522	38.38
435.962	38.81
436.403	39.13
436.843	39.38
437.284	39.67
437.724	40.06
438.164	40.54
438.604	41.12
439.045	41.69
439.485	42.16
439.925	42.55
440.365	42.87
440.805	43.07
441.245	43.25
441.685	43.46
442.125	43.64
442.564	43.88
443.004	44.17
443.444	44.5
443.883	44.84
444.323	45.2
444.762	45.56
445.202	45.98
445.641	46.52
446.081	47.15
446.52	47.78
446.959	48.41
447.398	48.81
447.837	48.98
448.276	48.99
448.716	48.93
449.154	48.9
449.593	48.84
450.032	48.68
450.471	48.43
450.91	48.12
451.349	47.83
451.787	47.54
452.226	47.36
452.664	47.26
453.103	47.16
453.541	47.1
453.98	46.92
454.418	46.69
454.856	46.46
455.295	46.26
455.733	46.07
456.171	45.91
456.609	45.76
457.047	45.64
457.485	45.58
457.923	45.65
458.361	45.71
458.798	45.87
459.236	46.03
459.674	46.17
460.111	46.34
460.549	46.54
460.987	46.73
461.424	46.92
461.862	47.12
462.299	47.28
462.736	47.41
463.173	47.66
463.611	47.95
464.048	48.33
464.485	48.82
464.922	49.29
465.359	49.76
465.796	50.19
466.233	50.6
466.67	51.07
467.106	51.68
467.543	52.3
467.98	52.9
468.416	53.42
468.853	53.88
469.29	54.3
469.726	54.75
470.162	55.24
470.599	55.72
471.035	56.14
471.471	56.41
471.907	56.55
472.344	56.63
472.78	56.7
473.216	56.79
473.652	56.92
474.088	56.96
474.523	56.96
474.959	56.91
475.395	56.84
475.831	56.79
476.266	56.77
476.702	56.75
477.138	56.7
477.573	56.58
478.008	56.39
478.444	56.1
478.879	55.81
479.314	55.42
479.75	54.99
480.185	54.5
480.62	53.87
481.055	53.02
481.49	51.92
481.925	50.74
482.36	49.66
482.795	48.77
483.229	48.05
483.664	47.46
484.099	46.93
484.534	46.48
484.968	46.16
485.403	45.99
485.837	46.07
486.271	46.39
486.706	46.7
487.14	46.92
487.574	46.98
488.009	46.96
488.443	46.9
488.877	46.89
489.311	46.88
489.745	46.88
490.179	46.9
490.613	46.89
491.046	46.89
491.48	46.95
491.914	47.09
492.348	47.31
492.781	47.53
493.215	47.69
493.648	47.78
494.082	47.84
494.515	47.86
494.948	47.88
495.382	47.88
495.815	47.84
496.248	47.81
496.681	47.71
497.114	47.57
497.547	47.44
497.98	47.42
498.413	47.49
498.846	47.61
499.279	47.67
499.711	47.72
500.144	47.83
500.577	48.03
501.009	48.34
501.442	48.75
501.874	49.18
502.306	49.59
502.739	49.92
503.171	50.18
503.603	50.4
504.036	50.7
504.468	51.05
504.9	51.37
505.332	51.65
505.764	51.88
506.196	52.06
506.627	52.27
507.059	52.54
507.491	52.85
507.923	53.16
508.354	53.5
508.786	53.76
509.217	53.96
509.649	54.12
510.08	54.28
510.512	54.48
510.943	54.71
511.374	54.89
511.805	54.91
512.237	54.74
512.668	54.54
513.099	54.33
513.53	54.22
513.961	54.17
514.391	54.21
514.822	54.37
515.253	54.58
515.684	54.78
516.114	55.08
516.545	55.53
516.975	56.23
517.406	57
517.836	57.76
518.267	58.42
518.697	59.05
519.127	59.66
519.558	60.24
519.988	60.78
520.418	61.28
520.848	61.71
521.278	62.05
521.708	62.27
522.138	62.29
522.567	62.26
522.997	62.28
523.427	62.43
523.857	62.6
524.286	62.78
524.716	62.97
525.145	63.15
525.575	63.32
526.004	63.6
526.433	63.96
526.863	64.53
527.292	65.09
527.721	65.51
528.15	65.71
528.579	65.77
529.008	65.73
529.437	65.65
529.866	65.56
530.295	65.58
530.724	65.57
531.152	65.55
531.581	65.49
532.01	65.43
532.438	65.43
532.867	65.48
533.295	65.6
533.723	65.71
534.152	65.79
534.58	65.81
535.008	65.68
535.436	65.49
535.865	65.18
536.293	64.89
536.721	64.71
537.149	64.62
537.576	64.61
538.004	64.6
538.432	64.55
538.86	64.55
539.287	64.59
539.715	64.77
540.143	64.99
540.57	65.3
540.998	65.65
541.425	65.96
541.852	66.25
542.28	66.5
542.707	66.68
543.134	66.9
543.561	67.1
543.988	67.28
544.415	67.46
544.842	67.64
545.269	67.85
545.696	68.01
546.123	68.17
546.549	68.32
546.976	68.47
547.403	68.67
547.829	68.87
548.256	69.05
548.682	69.18
549.108	69.31
549.535	69.44
549.961	69.53
550.387	69.68
550.813	69.82
551.24	69.91
551.666	69.94
552.092	69.92
552.518	69.85
552.943	69.76
553.369	69.66
553.795	69.49
554.221	69.25
554.646	68.93
555.072	68.55
555.498	68.18
555.923	67.86
556.349	67.62
556.774	67.41
557.199	67.21
557.625	66.99
558.05	66.8
558.475	66.65
558.9	66.53
559.325	66.44
559.75	66.33
560.175	66.19
560.6	65.97
561.025	65.64
561.449	65.25
561.874	64.87
562.299	64.52
562.723	64.19
563.148	63.82
563.572	63.4
563.997	62.98
564.421	62.53
564.846	62.11
565.27	61.7
565.694	61.3
566.118	60.88
566.542	60.44
566.966	59.99
567.39	59.6
567.814	59.23
568.238	58.96
568.662	58.74
569.086	58.57
569.509	58.39
569.933	58.24
570.357	58.11
570.78	58.01
571.204	57.93
571.627	57.87
572.05	57.75
572.474	57.67
572.897	57.57
573.32	57.37
573.743	57.17
574.166	56.97
574.589	56.78
575.012	56.64
575.435	56.59
575.858	56.58
576.281	56.59
576.704	56.6
577.126	56.61
577.549	56.63
577.972	56.73
578.394	56.86
578.817	57.03
579.239	57.21
579.661	57.37
580.084	57.46
580.506	57.54
580.928	57.53
581.35	57.51
581.772	57.44
582.194	57.37
582.616	57.32
583.038	57.24
583.46	57.11
583.882	56.89
584.303	56.53
584.725	56.06
585.147	55.58
585.568	55.2
585.99	54.88
586.411	54.66
586.833	54.46
587.254	54.25
587.675	54.09
588.096	53.94
588.518	53.86
588.939	53.96
589.36	54.17
589.781	54.39
590.202	54.51
590.623	54.58
591.043	54.57
591.464	54.55
591.885	54.52
592.305	54.46
592.726	54.39
593.147	54.29
593.567	54.15
593.987	54.01
594.408	53.87
594.828	53.78
595.248	53.67
595.669	53.54
596.089	53.37
596.509	53.17
596.929	52.94
597.349	52.7
597.769	52.47
598.189	52.26
598.608	52.1
599.028	51.97
599.448	51.84
599.867	51.72
600.287	51.61
600.706	51.51
601.126	51.41
601.545	51.32
601.965	51.25
602.384	51.18
602.803	51.1
603.222	50.98
603.641	50.83
604.061	50.67
604.48	50.48
604.898	50.29
605.317	50.12
605.736	49.94
606.155	49.74
606.574	49.57
606.992	49.4
607.411	49.22
607.829	49.05
608.248	48.87
608.666	48.68
609.085	48.5
609.503	48.31
609.921	48.11
610.339	47.96
610.758	47.82
611.176	47.62
611.594	47.41
612.012	47.16
612.43	46.91
612.847	46.72
613.265	46.57
613.683	46.46
614.101	46.38
614.518	46.29
614.936	46.18
615.353	46.08
615.771	46.04
616.188	46.05
616.606	46.07
617.023	46.1
617.44	46.08
617.857	46.01
618.274	45.88
618.691	45.73
619.108	45.56
619.525	45.38
619.942	45.21
620.359	44.98
620.776	44.7
621.192	44.48
621.609	44.24
622.026	44.04
622.442	43.88
622.859	43.73
623.275	43.54
623.691	43.36
624.108	43.19
624.524	43.04
624.94	42.9
625.356	42.77
625.772	42.63
626.188	42.54
626.604	42.42
627.02	42.27
627.436	42.14
627.852	42.09
628.268	42.07
628.683	42.06
629.099	42.05
629.514	42.05
629.93	42.06
630.345	42.08
630.761	42.08
631.176	42.08
631.591	42.06
632.007	42.07
632.422	42.07
632.837	42.07
633.252	42.08
633.667	42.07
634.082	42.07
634.497	42.07
634.911	42.04
635.326	42
635.741	41.95
636.155	41.88
636.57	41.82
636.984	41.72
637.399	41.6
637.813	41.49
638.228	41.36
638.642	41.22
639.056	41.08
639.47	40.98
639.884	40.88
640.298	40.77
640.712	40.7
641.126	40.59
641.54	40.49
641.954	40.37
642.368	40.21
642.781	40.07
643.195	39.92
643.609	39.77
644.022	39.62
644.436	39.46
644.849	39.28
645.262	39.08
645.676	38.89
646.089	38.77
646.502	38.68
646.915	38.62
647.328	38.54
647.741	38.47
648.154	38.42
648.567	38.36
648.98	38.33
649.393	38.34
649.805	38.35
650.218	38.35
650.631	38.26
651.043	38.04
651.456	37.7
651.868	37.22
652.28	36.71
652.693	36.26
653.105	35.93
653.517	35.64
653.929	35.42
654.341	35.25
654.753	35.13
655.165	35.07
655.577	35.11
655.989	35.32
656.401	35.67
656.813	36.06
657.224	36.36
657.636	36.57
658.047	36.72
658.459	36.79
658.87	36.81
659.282	36.79
659.693	36.75
660.104	36.69
660.515	36.61
660.926	36.52
661.338	36.44
661.749	36.33
662.159	36.22
662.57	36.1
662.981	35.99
663.392	35.87
663.803	35.76
664.213	35.66
664.624	35.57
665.035	35.47
665.445	35.36
665.855	35.24
666.266	35.13
666.676	35.01
667.086	34.87
667.497	34.74
667.907	34.62
668.317	34.49
668.727	34.36
669.137	34.23
669.547	34.11
669.956	33.97
670.366	33.88
670.776	33.77
671.186	33.66
671.595	33.57
672.005	33.47
672.414	33.41
672.824	33.34
673.233	33.28
673.642	33.22
674.052	33.16
674.461	33.1
674.87	33.04
675.279	32.99
675.688	32.96
676.097	32.92
676.506	32.9
676.915	32.86
677.323	32.83
677.732	32.82
678.141	32.79
678.549	32.77
678.958	32.77
679.366	32.75
679.775	32.71
680.183	32.67
680.592	32.68
681	32.67
681.408	32.65
681.816	32.58
682.224	32.32
682.632	31.89
683.04	31.33
683.448	30.78
683.856	30.28
684.264	29.85
684.671	29.44
685.079	29.04
685.487	28.67
685.894	28.36
686.302	28.15
686.709	28.16
687.116	28.4
687.524	28.83
687.931	29.3
688.338	29.75
688.745	30.19
689.152	30.59
689.559	31
689.966	31.4
690.373	31.76
690.78	32.12
691.187	32.46
691.593	32.77
692	33.06
692.407	33.33
692.813	33.6
693.22	33.85
693.626	34.11
694.032	34.37
694.439	34.59
694.845	34.83
695.251	35.04
695.657	35.22
696.063	35.39
696.469	35.52
696.875	35.64
697.281	35.75
697.687	35.86
698.093	35.96
698.498	36.06
698.904	36.19
699.31	36.34
699.715	36.53
700.12	36.72
700.526	36.95
700.931	37.19
701.337	37.42
701.742	37.63
702.147	37.88
702.552	38.12
702.957	38.36
703.362	38.59
703.767	38.78
704.172	38.95
704.577	39.12
704.981	39.26
705.386	39.38
705.791	39.53
706.195	39.73
706.6	39.88
707.004	40.02
707.408	40.16
707.813	40.27
708.217	40.39
708.621	40.51
709.025	40.64
709.43	40.75
709.834	40.88
710.237	40.98
710.641	41.01
711.045	41.08
711.449	41.14
711.853	41.15
712.256	41.11
712.66	41
713.064	40.81
713.467	40.53
713.87	40.19
714.274	39.78
714.677	39.34
715.08	38.9
715.484	38.44
715.887	38.02
716.29	37.69
716.693	37.48
717.096	37.46
717.499	37.59
717.901	37.87
718.304	38.19
718.707	38.55
719.109	38.91
719.512	39.23
719.915	39.51
720.317	39.77
720.719	39.96
721.122	40.1
721.524	40.13
721.926	40.08
722.328	39.99
722.731	39.88
723.133	39.84
723.535	39.83
723.937	39.87
724.338	39.91
724.74	39.96
725.142	40.05
725.544	40.1
725.945	40.2
726.347	40.26
726.748	40.32
727.15	40.4
727.551	40.51
727.952	40.65
728.354	40.83
728.755	41.07
729.156	41.33
729.557	41.58
729.958	41.86
730.359	42.07
730.76	42.34
731.161	42.56
731.562	42.76
731.962	42.89
732.363	43.02
732.763	43.1
733.164	43.17
733.564	43.23
733.965	43.22
734.365	43.19
734.766	43.13
735.166	43.05
735.566	43.02
735.966	43.02
736.366	42.99
736.766	42.94
737.166	42.88
737.566	42.82
737.966	42.73
738.365	42.71
738.765	42.71
739.165	42.75
739.564	42.8
739.964	42.81
740.363	42.78
740.763	42.8
741.162	42.83
741.561	42.89
741.96	42.91
742.36	42.95
742.759	42.95
743.158	42.96
743.557	42.92
743.955	42.91
744.354	42.9
744.753	42.91
745.152	42.89
745.55	42.84
745.949	42.79
746.348	42.75
746.746	42.66
747.144	42.61
747.543	42.53
747.941	42.46
748.339	42.35
748.737	42.27
749.136	42.2
749.534	42.12
749.932	42.09
750.33	42.05
750.727	42.01
751.125	41.99
751.523	41.92
751.921	41.88
752.318	41.83
752.716	41.79
753.113	41.76
753.511	41.7
753.908	41.65
754.305	41.51
754.703	41.16
755.1	40.46
755.497	39.26
755.894	37.55
756.291	35.48
756.688	33.29
757.085	31.23
757.482	29.29
757.878	27.48
758.275	25.68
758.672	23.9
759.068	22.3
759.465	21.11
759.861	20.54
760.258	20.62
760.654	21.2
761.05	22.05
761.447	22.91
761.843	23.76
762.239	24.62
762.635	25.65
763.031	26.87
763.427	28.22
763.822	29.64
764.218	31.04
764.614	32.35
765.01	33.55
765.405	34.65
765.801	35.67
766.196	36.57
766.592	37.33
766.987	37.96
767.382	38.43
767.778	38.8
768.173	39.06
768.568	39.25
768.963	39.42
769.358	39.57
769.753	39.68
770.148	39.72
770.542	39.74
770.937	39.73
771.332	39.73
771.726	39.73
772.121	39.73
772.515	39.72
772.91	39.67
