Data from C_1_DIV_WI_4N_Splice17_12-54-47-588.txt Node
Date: Sat Mar 07 12:54:47 EST 2020
User: sa697716
Spectrometer: NQ5500242
Trigger mode: 0
Integration Time (sec): 1.450000E-1
Scans to average: 20
Nonlinearity correction enabled: false
Boxcar width: 5
Storing dark spectrum: false
XAxis mode: Wavelengths
Number of Pixels in Spectrum: 512
>>>>>Begin Spectral Data<<<<<
187.83	119.26
188.298	142.25
188.766	121.65
189.233	117.28
189.701	110.08
190.169	123.93
190.636	179.03
191.104	205.88
191.571	18.27
192.039	-131.59
192.506	-648.14
192.974	151.26
193.441	208.04
193.908	89.99
194.375	73.63
194.842	27.13
195.31	22.74
195.777	182.09
196.244	25.9
196.711	31.46
197.177	35.09
197.644	34.63
198.111	35.16
198.578	36.17
199.045	36.17
199.511	36.03
199.978	36.33
200.445	36.55
200.911	36.76
201.378	37.33
201.844	37.62
202.31	37.37
202.777	37.63
203.243	37.66
203.709	37.32
204.176	37.11
204.642	37.1
205.108	37.22
205.574	37.15
206.04	36.62
206.506	36.29
206.972	36.08
207.438	35.76
207.903	35.4
208.369	34.97
208.835	34.55
209.301	34.14
209.766	33.68
210.232	32.81
210.697	32.17
211.163	31.88
211.628	31.19
212.094	30.62
212.559	30.38
213.024	29.87
213.49	29.38
213.955	28.96
214.42	28.57
214.885	28.06
215.35	27.54
215.815	26.69
216.28	25.42
216.745	24.1
217.21	22.91
217.675	21.72
218.14	20.72
218.604	19.83
219.069	19.18
219.534	18.59
219.998	18.02
220.463	17.52
220.927	17.06
221.392	16.78
221.856	16.52
222.32	16.24
222.785	16.03
223.249	15.82
223.713	15.63
224.177	15.46
224.642	15.24
225.106	15.04
225.57	14.84
226.034	14.68
226.497	14.49
226.961	14.31
227.425	14.12
227.889	13.92
228.353	13.75
228.816	13.57
229.28	13.37
229.744	13.22
230.207	13.06
230.671	12.9
231.134	12.72
231.597	12.58
232.061	12.42
232.524	12.27
232.987	12.13
233.45	12
233.914	11.84
234.377	11.67
234.84	11.53
235.303	11.41
235.766	11.29
236.229	11.16
236.691	11.03
237.154	10.92
237.617	10.8
238.08	10.69
238.542	10.56
239.005	10.46
239.468	10.36
239.93	10.25
240.393	10.15
240.855	10.03
241.317	9.92
241.78	9.81
242.242	9.71
242.704	9.61
243.166	9.51
243.629	9.43
244.091	9.32
244.553	9.23
245.015	9.14
245.477	9.04
245.939	8.95
246.4	8.87
246.862	8.79
247.324	8.71
247.786	8.62
248.247	8.54
248.709	8.45
249.17	8.37
249.632	8.3
250.093	8.22
250.555	8.15
251.016	8.08
251.477	8.01
251.939	7.94
252.4	7.88
252.861	7.81
253.322	7.75
253.783	7.68
254.244	7.63
254.705	7.56
255.166	7.51
255.627	7.45
256.088	7.4
256.549	7.35
257.009	7.29
257.47	7.23
257.931	7.18
258.391	7.12
258.852	7.06
259.312	7.01
259.773	6.97
260.233	6.93
260.694	6.88
261.154	6.83
261.614	6.77
262.074	6.72
262.534	6.68
262.994	6.64
263.455	6.61
263.915	6.58
264.374	6.54
264.834	6.51
265.294	6.47
265.754	6.44
266.214	6.41
266.673	6.39
267.133	6.36
267.593	6.34
268.052	6.32
268.512	6.3
268.971	6.27
269.431	6.25
269.89	6.21
270.349	6.19
270.809	6.16
271.268	6.14
271.727	6.11
272.186	6.08
272.645	6.06
273.104	6.03
273.563	6
274.022	5.98
274.481	5.95
274.94	5.93
275.399	5.9
275.857	5.88
276.316	5.85
276.775	5.83
277.233	5.81
277.692	5.78
278.15	5.76
278.609	5.74
279.067	5.71
279.525	5.69
279.984	5.66
280.442	5.64
280.9	5.62
281.358	5.6
281.816	5.57
282.274	5.55
282.732	5.53
283.19	5.5
283.648	5.48
284.106	5.46
284.564	5.44
285.021	5.42
285.479	5.41
285.937	5.39
286.394	5.37
286.852	5.35
287.309	5.33
287.767	5.3
288.224	5.28
288.682	5.25
289.139	5.22
289.596	5.19
290.053	5.16
290.511	5.12
290.968	5.1
291.425	5.06
291.882	5.04
292.339	5
292.796	4.98
293.252	4.96
293.709	4.94
294.166	4.93
294.623	4.91
295.079	4.89
295.536	4.87
295.992	4.85
296.449	4.84
296.905	4.82
297.362	4.8
297.818	4.79
298.274	4.77
298.731	4.75
299.187	4.73
299.643	4.71
300.099	4.7
300.555	4.68
301.011	4.66
301.467	4.64
301.923	4.62
302.379	4.61
302.835	4.59
303.291	4.58
303.746	4.56
304.202	4.55
304.658	4.53
305.113	4.52
305.569	4.5
306.024	4.48
306.479	4.47
306.935	4.45
307.39	4.45
307.845	4.43
308.301	4.42
308.756	4.41
309.211	4.4
309.666	4.4
310.121	4.39
310.576	4.38
311.031	4.38
311.486	4.37
311.94	4.36
312.395	4.35
312.85	4.35
313.305	4.34
313.759	4.33
314.214	4.31
314.668	4.3
315.123	4.29
315.577	4.28
316.032	4.27
316.486	4.26
316.94	4.24
317.394	4.22
317.849	4.21
318.303	4.19
318.757	4.16
319.211	4.15
319.665	4.13
320.119	4.11
320.572	4.09
321.026	4.08
321.48	4.06
321.934	4.04
322.387	4.03
322.841	4
323.295	3.99
323.748	3.98
324.202	3.97
324.655	3.96
325.108	3.95
325.562	3.95
326.015	3.93
326.468	3.93
326.921	3.92
327.374	3.91
327.827	3.91
328.28	3.9
328.733	3.9
329.186	3.89
329.639	3.88
330.092	3.87
330.545	3.87
330.997	3.86
331.45	3.85
331.903	3.85
332.355	3.85
332.808	3.84
333.26	3.84
333.713	3.83
334.165	3.82
334.617	3.82
335.069	3.81
335.522	3.81
335.974	3.81
336.426	3.8
336.878	3.8
337.33	3.79
337.782	3.78
338.234	3.78
338.686	3.77
339.137	3.77
339.589	3.76
340.041	3.75
340.493	3.74
340.944	3.72
341.396	3.7
341.847	3.68
342.299	3.66
342.75	3.65
343.201	3.63
343.653	3.61
344.104	3.59
344.555	3.57
345.006	3.55
345.457	3.54
345.908	3.52
346.359	3.52
346.81	3.51
347.261	3.5
347.712	3.49
348.163	3.47
348.613	3.47
349.064	3.47
349.515	3.46
349.965	3.46
350.416	3.46
350.866	3.46
351.317	3.44
351.767	3.44
352.217	3.43
352.668	3.42
353.118	3.42
353.568	3.42
354.018	3.41
354.468	3.41
354.918	3.41
355.368	3.41
355.818	3.41
356.268	3.4
356.718	3.39
357.168	3.38
357.617	3.38
358.067	3.37
358.517	3.38
358.966	3.38
359.416	3.37
359.865	3.36
360.315	3.36
360.764	3.35
361.213	3.35
361.663	3.35
362.112	3.35
362.561	3.35
363.01	3.35
363.459	3.33
363.908	3.32
364.357	3.32
364.806	3.3
365.255	3.3
365.703	3.31
366.152	3.31
366.601	3.31
367.05	3.32
367.498	3.31
367.947	3.3
368.395	3.3
368.844	3.3
369.292	3.29
369.74	3.29
370.189	3.28
370.637	3.28
371.085	3.26
371.533	3.25
371.981	3.24
372.429	3.23
372.877	3.23
373.325	3.23
373.773	3.22
374.221	3.22
374.669	3.21
375.116	3.21
375.564	3.2
376.012	3.19
376.459	3.19
376.907	3.19
377.354	3.19
377.801	3.18
378.249	3.17
378.696	3.17
379.143	3.16
379.591	3.16
380.038	3.16
380.485	3.16
380.932	3.16
381.379	3.16
381.826	3.16
382.273	3.16
382.72	3.15
383.166	3.15
383.613	3.15
384.06	3.15
384.506	3.15
384.953	3.15
385.4	3.15
385.846	3.16
386.292	3.15
386.739	3.15
387.185	3.15
387.631	3.16
388.078	3.16
388.524	3.16
388.97	3.17
389.416	3.18
389.862	3.18
390.308	3.2
390.754	3.21
391.2	3.22
391.645	3.23
392.091	3.24
392.537	3.26
392.983	3.26
393.428	3.27
393.874	3.27
394.319	3.28
394.765	3.29
395.21	3.28
395.655	3.29
396.101	3.3
396.546	3.3
396.991	3.32
397.436	3.32
397.881	3.35
398.326	3.37
398.771	3.38
399.216	3.39
399.661	3.41
400.106	3.43
400.551	3.43
400.995	3.44
401.44	3.45
401.885	3.45
402.329	3.47
402.774	3.47
403.218	3.49
403.663	3.5
404.107	3.51
404.551	3.52
404.995	3.52
405.44	3.53
405.884	3.55
406.328	3.57
406.772	3.56
407.216	3.57
407.66	3.57
408.104	3.56
408.547	3.57
408.991	3.57
409.435	3.58
409.879	3.59
410.322	3.61
410.766	3.62
411.209	3.64
411.653	3.66
412.096	3.67
412.54	3.68
412.983	3.7
413.426	3.73
413.869	3.74
414.312	3.77
414.756	3.79
415.199	3.78
415.642	3.79
416.085	3.8
416.527	3.79
416.97	3.79
417.413	3.8
417.856	3.8
418.298	3.79
418.741	3.78
419.184	3.77
419.626	3.76
420.069	3.78
420.511	3.78
420.953	3.78
421.396	3.79
421.838	3.81
422.28	3.81
422.722	3.84
423.164	3.84
423.606	3.85
424.048	3.85
424.49	3.86
424.932	3.84
425.374	3.83
425.816	3.81
426.258	3.8
426.699	3.79
427.141	3.78
427.582	3.77
428.024	3.78
428.465	3.78
428.907	3.77
429.348	3.77
429.789	3.76
430.231	3.78
430.672	3.8
431.113	3.82
431.554	3.83
431.995	3.84
432.436	3.85
432.877	3.85
433.318	3.87
433.759	3.9
434.2	3.92
434.64	3.93
435.081	3.94
435.522	3.95
435.962	3.95
436.403	3.99
436.843	4
437.284	4
437.724	4
438.164	3.99
438.604	3.99
439.045	3.99
439.485	4
439.925	4.01
440.365	4.02
440.805	4.03
441.245	4.02
441.685	4.03
442.125	4.04
442.564	4.04
443.004	4.06
443.444	4.06
443.883	4.07
444.323	4.08
444.762	4.09
445.202	4.09
445.641	4.1
446.081	4.1
446.52	4.08
446.959	4.11
447.398	4.13
447.837	4.12
448.276	4.13
448.716	4.13
449.154	4.14
449.593	4.15
450.032	4.16
450.471	4.15
450.91	4.15
451.349	4.17
451.787	4.16
452.226	4.15
452.664	4.17
453.103	4.16
453.541	4.16
453.98	4.16
454.418	4.15
454.856	4.14
455.295	4.13
455.733	4.1
456.171	4.08
456.609	4.08
457.047	4.06
457.485	4.03
457.923	4.03
458.361	4.01
458.798	4.01
459.236	4
459.674	3.98
460.111	3.98
460.549	3.99
460.987	4
461.424	4.01
461.862	4.02
462.299	4.04
462.736	4.04
463.173	4.05
463.611	4.05
464.048	4.05
464.485	4.07
464.922	4.07
465.359	4.06
465.796	4.07
466.233	4.06
466.67	4.06
467.106	4.06
467.543	4.06
467.98	4.05
468.416	4.04
468.853	4.04
469.29	4.02
469.726	4.04
470.162	4.04
470.599	4.03
471.035	4.02
471.471	4.02
471.907	4.01
472.344	4
472.78	4
473.216	4
473.652	4
474.088	3.99
474.523	3.98
474.959	3.98
475.395	3.96
475.831	3.95
476.266	3.95
476.702	3.95
477.138	3.93
477.573	3.93
478.008	3.92
478.444	3.91
478.879	3.91
479.314	3.9
479.75	3.89
480.185	3.88
480.62	3.87
481.055	3.86
481.49	3.85
481.925	3.85
482.36	3.85
482.795	3.84
483.229	3.84
483.664	3.83
484.099	3.83
484.534	3.82
484.968	3.82
485.403	3.82
485.837	3.83
486.271	3.84
486.706	3.84
487.14	3.84
487.574	3.85
488.009	3.86
488.443	3.87
488.877	3.88
489.311	3.9
489.745	3.91
490.179	3.93
490.613	3.95
491.046	3.96
491.48	3.99
491.914	4.01
492.348	4.02
492.781	4.05
493.215	4.08
493.648	4.11
494.082	4.14
494.515	4.17
494.948	4.19
495.382	4.23
495.815	4.27
496.248	4.31
496.681	4.35
497.114	4.4
497.547	4.44
497.98	4.49
498.413	4.54
498.846	4.6
499.279	4.65
499.711	4.71
500.144	4.77
500.577	4.83
501.009	4.89
501.442	4.96
501.874	5.05
502.306	5.12
502.739	5.21
503.171	5.3
503.603	5.39
504.036	5.5
504.468	5.6
504.9	5.7
505.332	5.82
505.764	5.94
506.196	6.05
506.627	6.17
507.059	6.31
507.491	6.43
507.923	6.57
508.354	6.72
508.786	6.87
509.217	7.04
509.649	7.2
510.08	7.36
510.512	7.54
510.943	7.71
511.374	7.88
511.805	8.08
512.237	8.27
512.668	8.47
513.099	8.67
513.53	8.87
513.961	9.08
514.391	9.3
514.822	9.52
515.253	9.74
515.684	9.97
516.114	10.19
516.545	10.41
516.975	10.64
517.406	10.87
517.836	11.1
518.267	11.34
518.697	11.57
519.127	11.79
519.558	12.03
519.988	12.26
520.418	12.49
520.848	12.72
521.278	12.95
521.708	13.32
522.138	13.55
522.567	13.76
522.997	13.97
523.427	14.18
523.857	14.38
524.286	14.59
524.716	14.78
525.145	14.97
525.575	15.17
526.004	15.36
526.433	15.4
526.863	15.57
527.292	15.75
527.721	15.9
528.15	16.05
528.579	16.19
529.008	16.33
529.437	16.47
529.866	16.6
530.295	16.73
530.724	16.83
531.152	16.95
531.581	17.05
532.01	17.15
532.438	17.26
532.867	17.35
533.295	17.44
533.723	17.51
534.152	17.57
534.58	17.64
535.008	17.71
535.436	17.78
535.865	17.83
536.293	17.86
536.721	17.9
537.149	17.94
537.576	17.97
538.004	18.02
538.432	18.05
538.86	18.08
539.287	18.11
539.715	18.15
540.143	18.18
540.57	18.2
540.998	18.23
541.425	18.27
541.852	18.31
542.28	18.34
542.707	18.37
543.134	18.4
543.561	18.43
543.988	18.46
544.415	18.47
544.842	18.48
545.269	18.51
545.696	18.53
546.123	18.55
546.549	18.56
546.976	18.57
547.403	18.59
547.829	18.6
548.256	18.61
548.682	18.62
549.108	18.63
549.535	18.64
549.961	18.65
550.387	18.65
550.813	18.63
551.24	18.62
551.666	18.62
552.092	18.6
552.518	18.6
552.943	18.58
553.369	18.57
553.795	18.54
554.221	18.51
554.646	18.48
555.072	18.45
555.498	18.41
555.923	18.38
556.349	18.33
556.774	18.27
557.199	18.2
557.625	18.14
558.05	18.07
558.475	18
558.9	17.93
559.325	17.86
559.75	17.77
560.175	17.7
560.6	17.6
561.025	17.5
561.449	17.41
561.874	17.31
562.299	17.21
562.723	17.09
563.148	16.98
563.572	16.86
563.997	16.73
564.421	16.6
564.846	16.46
565.27	16.34
565.694	16.22
566.118	16.08
566.542	15.95
566.966	15.81
567.39	15.68
567.814	15.55
568.238	15.41
568.662	15.28
569.086	15.16
569.509	15.04
569.933	14.9
570.357	14.77
570.78	14.66
571.204	14.53
571.627	14.42
572.05	14.3
572.474	14.19
572.897	14.09
573.32	13.99
573.743	13.87
574.166	13.75
574.589	13.66
575.012	13.55
575.435	13.45
575.858	13.36
576.281	13.26
576.704	13.17
577.126	13.08
577.549	12.98
577.972	12.89
578.394	12.82
578.817	12.75
579.239	12.66
579.661	12.58
580.084	12.51
580.506	12.43
580.928	12.35
581.35	12.27
581.772	12.2
582.194	12.13
582.616	12.06
583.038	12
583.46	11.92
583.882	11.86
584.303	11.8
584.725	11.74
585.147	11.69
585.568	11.64
585.99	11.58
586.411	11.52
586.833	11.46
587.254	11.39
587.675	11.34
588.096	11.29
588.518	11.24
588.939	11.2
589.36	11.16
589.781	11.12
590.202	11.08
590.623	11.05
591.043	11.02
591.464	10.98
591.885	10.95
592.305	10.9
592.726	10.89
593.147	10.86
593.567	10.82
593.987	10.78
594.408	10.75
594.828	10.71
595.248	10.68
595.669	10.65
596.089	10.62
596.509	10.59
596.929	10.57
597.349	10.54
597.769	10.51
598.189	10.48
598.608	10.46
599.028	10.43
599.448	10.4
599.867	10.37
600.287	10.34
600.706	10.31
601.126	10.28
601.545	10.25
601.965	10.21
602.384	10.17
602.803	10.14
603.222	10.09
603.641	10.05
604.061	10.02
604.48	9.98
604.898	9.93
605.317	9.88
605.736	9.83
606.155	9.78
606.574	9.72
606.992	9.66
607.411	9.62
607.829	9.53
608.248	9.46
608.666	9.4
609.085	9.34
609.503	9.27
609.921	9.22
610.339	9.15
610.758	9.1
611.176	9.04
611.594	8.98
612.012	8.91
612.43	8.88
612.847	8.82
613.265	8.76
613.683	8.71
614.101	8.65
614.518	8.59
614.936	8.53
615.353	8.47
615.771	8.41
616.188	8.36
616.606	8.32
617.023	8.27
617.44	8.24
617.857	8.19
618.274	8.14
618.691	8.1
619.108	8.06
619.525	8.02
619.942	8
620.359	7.97
620.776	7.94
621.192	7.91
621.609	7.9
622.026	7.86
622.442	7.84
622.859	7.82
623.275	7.82
623.691	7.81
624.108	7.81
624.524	7.79
624.94	7.76
625.356	7.75
625.772	7.74
626.188	7.72
626.604	7.71
627.02	7.71
627.436	7.7
627.852	7.68
628.268	7.67
628.683	7.65
629.099	7.64
629.514	7.62
629.93	7.62
630.345	7.6
630.761	7.58
631.176	7.56
631.591	7.52
632.007	7.49
632.422	7.45
632.837	7.4
633.252	7.35
633.667	7.31
634.082	7.26
634.497	7.2
634.911	7.13
635.326	7.08
635.741	7.01
636.155	6.94
636.57	6.87
636.984	6.81
637.399	6.74
637.813	6.67
638.228	6.58
638.642	6.5
639.056	6.42
639.47	6.35
639.884	6.27
640.298	6.19
640.712	6.1
641.126	6.02
641.54	5.93
641.954	5.86
642.368	5.78
642.781	5.71
643.195	5.63
643.609	5.56
644.022	5.48
644.436	5.42
644.849	5.35
645.262	5.28
645.676	5.22
646.089	5.17
646.502	5.12
646.915	5.08
647.328	5.04
647.741	5
648.154	4.95
648.567	4.93
648.98	4.9
649.393	4.88
649.805	4.85
650.218	4.82
650.631	4.8
651.043	4.78
651.456	4.76
651.868	4.73
652.28	4.71
652.693	4.69
653.105	4.66
653.517	4.63
653.929	4.59
654.341	4.57
654.753	4.54
655.165	4.51
655.577	4.47
655.989	4.43
656.401	4.39
656.813	4.35
657.224	4.3
657.636	4.26
658.047	4.22
658.459	4.17
658.87	4.12
659.282	4.07
659.693	4.03
660.104	3.97
660.515	3.92
660.926	3.89
661.338	3.84
661.749	3.8
662.159	3.76
662.57	3.72
662.981	3.68
663.392	3.65
663.803	3.61
664.213	3.58
664.624	3.56
665.035	3.53
665.445	3.51
665.855	3.49
666.266	3.48
666.676	3.46
667.086	3.44
667.497	3.43
667.907	3.43
668.317	3.42
668.727	3.42
669.137	3.42
669.547	3.41
669.956	3.41
670.366	3.41
670.776	3.4
671.186	3.41
671.595	3.42
672.005	3.42
672.414	3.42
672.824	3.42
673.233	3.43
673.642	3.44
674.052	3.46
674.461	3.47
674.87	3.48
675.279	3.52
675.688	3.53
676.097	3.55
676.506	3.57
676.915	3.6
677.323	3.64
677.732	3.66
678.141	3.69
678.549	3.71
678.958	3.75
679.366	3.79
679.775	3.81
680.183	3.85
680.592	3.91
681	3.96
681.408	4.02
681.816	4.06
682.224	4.12
682.632	4.19
683.04	4.26
683.448	4.34
683.856	4.42
684.264	4.52
684.671	4.63
685.079	4.73
685.487	4.87
685.894	5.02
686.302	5.19
686.709	5.36
687.116	5.55
687.524	5.77
687.931	6
688.338	6.25
688.745	6.52
689.152	6.81
689.559	7.12
689.966	7.43
690.373	7.76
690.78	8.12
691.187	8.5
691.593	8.9
692	9.3
692.407	9.72
692.813	10.15
693.22	10.59
693.626	11.05
694.032	11.52
694.439	12
694.845	12.49
695.251	12.97
695.657	13.45
696.063	13.93
696.469	14.43
696.875	14.94
697.281	15.44
697.687	15.95
698.093	16.44
698.498	16.92
698.904	17.4
699.31	17.88
699.715	18.37
700.12	18.86
700.526	19.36
700.931	19.85
701.337	20.32
701.742	20.78
702.147	21.26
702.552	21.74
702.957	22.2
703.362	22.66
703.767	23.12
704.172	23.57
704.577	24
704.981	24.44
705.386	24.84
705.791	25.27
706.195	25.71
706.6	26.11
707.004	26.53
707.408	26.95
707.813	27.36
708.217	27.77
708.621	28.17
709.025	28.57
709.43	28.95
709.834	29.35
710.237	29.72
710.641	30.09
711.045	30.47
711.449	30.83
711.853	31.2
712.256	31.52
712.66	31.86
713.064	32.2
713.467	32.56
713.87	32.87
714.274	33.19
714.677	33.53
715.08	33.85
715.484	34.15
715.887	34.46
716.29	34.75
716.693	35.06
717.096	35.37
717.499	35.65
717.901	35.92
718.304	36.22
718.707	36.49
719.109	36.75
719.512	36.99
719.915	37.26
720.317	37.48
720.719	37.71
721.122	37.95
721.524	38.16
721.926	38.39
722.328	38.62
722.731	38.81
723.133	39.03
723.535	39.24
723.937	39.46
724.338	39.65
724.74	39.86
725.142	40.12
725.544	40.27
725.945	40.48
726.347	40.61
726.748	40.77
727.15	40.91
727.551	41.08
727.952	41.21
728.354	41.34
728.755	41.47
729.156	41.6
729.557	41.66
729.958	41.81
730.359	41.91
730.76	42.07
731.161	42.19
731.562	42.32
731.962	42.39
732.363	42.5
732.763	42.62
733.164	42.72
733.564	42.82
733.965	42.9
734.365	43.01
734.766	43.1
735.166	43.17
735.566	43.24
735.966	43.32
736.366	43.41
736.766	43.47
737.166	43.53
737.566	43.62
737.966	43.68
738.365	43.75
738.765	43.81
739.165	43.88
739.564	43.93
739.964	43.99
740.363	44.04
740.763	44.1
741.162	44.14
741.561	44.17
741.96	44.19
742.36	44.24
742.759	44.28
743.158	44.32
743.557	44.33
743.955	44.37
744.354	44.41
744.753	44.46
745.152	44.49
745.55	44.52
745.949	44.55
746.348	44.58
746.746	44.59
747.144	44.64
747.543	44.64
747.941	44.67
748.339	44.66
748.737	44.67
749.136	44.66
749.534	44.65
749.932	44.67
750.33	44.69
750.727	44.72
751.125	44.74
751.523	44.71
751.921	44.72
752.318	44.73
752.716	44.77
753.113	44.77
753.511	44.79
753.908	44.83
754.305	44.86
754.703	44.85
755.1	44.87
755.497	44.87
755.894	44.88
756.291	44.9
756.688	44.88
757.085	44.89
757.482	44.89
757.878	44.92
758.275	44.91
758.672	44.91
759.068	44.94
759.465	44.94
759.861	44.95
760.258	44.97
760.654	44.96
761.05	44.99
761.447	45.02
761.843	45.04
762.239	45.02
762.635	45.03
763.031	45.02
763.427	44.99
763.822	44.99
764.218	45
764.614	44.99
765.01	44.98
765.405	44.97
765.801	44.92
766.196	44.89
766.592	44.9
766.987	44.91
767.382	44.9
767.778	44.91
768.173	44.91
768.568	44.87
768.963	44.89
769.358	44.91
769.753	44.91
770.148	44.92
770.542	44.92
770.937	44.91
771.332	44.89
771.726	44.9
772.121	44.88
772.515	44.88
772.91	44.89
773.304	44.89
773.699	44.89
774.093	44.9
774.487	44.9
774.881	44.92
775.275	44.94
775.669	44.95
776.063	44.95
776.457	44.98
776.851	44.96
777.245	44.92
777.638	44.89
778.032	44.89
778.425	44.9
778.819	44.89
779.212	44.93
779.606	44.92
779.999	44.92
780.392	44.92
780.786	44.89
781.179	44.93
781.572	44.98
781.965	45
782.358	44.99
782.751	44.96
783.143	44.96
783.536	44.89
783.929	44.86
784.322	44.89
784.714	44.9
785.107	44.91
