Data from C_1_HIR_WI_4N_Splice17_13-00-25-262.txt Node
Date: Sat Mar 07 13:00:25 EST 2020
User: sa697716
Spectrometer: NQ5500242
Trigger mode: 0
Integration Time (sec): 1.450000E-1
Scans to average: 20
Nonlinearity correction enabled: false
Boxcar width: 5
Storing dark spectrum: false
XAxis mode: Wavelengths
Number of Pixels in Spectrum: 512
>>>>>Begin Spectral Data<<<<<
187.83	197.03
188.298	221.06
188.766	189.96
189.233	153.79
189.701	152.69
190.169	180.84
190.636	185.15
191.104	267.32
191.571	184.38
192.039	-45.32
192.506	-120.59
192.974	28.48
193.441	86.7
193.908	48.25
194.375	73.92
194.842	-1.32
195.31	64.78
195.777	197.37
196.244	53.26
196.711	41.42
197.177	40.86
197.644	39.78
198.111	39.91
198.578	39.84
199.045	40.07
199.511	39.79
199.978	40.11
200.445	40.16
200.911	40.14
201.378	40.32
201.844	40.62
202.31	40.41
202.777	40.53
203.243	40.79
203.709	40.6
204.176	40.09
204.642	39.86
205.108	39.66
205.574	39.38
206.04	38.9
206.506	38.51
206.972	38.2
207.438	37.96
207.903	37.56
208.369	36.74
208.835	36.25
209.301	35.6
209.766	34.27
210.232	33.19
210.697	32.25
211.163	31.41
211.628	30.63
212.094	29.68
212.559	29.24
213.024	28.47
213.49	27.67
213.955	26.99
214.42	26.36
214.885	25.86
215.35	25.01
215.815	23.64
216.28	21.89
216.745	19.98
217.21	18.18
217.675	16.41
218.14	14.94
218.604	13.69
219.069	12.55
219.534	11.66
219.998	10.87
220.463	10.26
220.927	9.71
221.392	9.29
221.856	8.96
222.32	8.68
222.785	8.42
223.249	8.17
223.713	7.95
224.177	7.78
224.642	7.6
225.106	7.45
225.57	7.26
226.034	7.13
226.497	7.01
226.961	6.88
227.425	6.73
227.889	6.61
228.353	6.5
228.816	6.4
229.28	6.29
229.744	6.19
230.207	6.09
230.671	6.02
231.134	5.92
231.597	5.85
232.061	5.76
232.524	5.69
232.987	5.62
233.45	5.56
233.914	5.51
234.377	5.44
234.84	5.38
235.303	5.33
235.766	5.27
236.229	5.21
236.691	5.14
237.154	5.1
237.617	5.06
238.08	5
238.542	4.94
239.005	4.9
239.468	4.85
239.93	4.8
240.393	4.74
240.855	4.69
241.317	4.65
241.78	4.61
242.242	4.56
242.704	4.53
243.166	4.49
243.629	4.46
244.091	4.41
244.553	4.37
245.015	4.33
245.477	4.29
245.939	4.26
246.4	4.23
246.862	4.2
247.324	4.16
247.786	4.12
248.247	4.08
248.709	4.03
249.17	3.99
249.632	3.97
250.093	3.94
250.555	3.91
251.016	3.88
251.477	3.84
251.939	3.81
252.4	3.79
252.861	3.76
253.322	3.74
253.783	3.72
254.244	3.7
254.705	3.67
255.166	3.64
255.627	3.62
256.088	3.6
256.549	3.58
257.009	3.56
257.47	3.53
257.931	3.49
258.391	3.46
258.852	3.43
259.312	3.4
259.773	3.38
260.233	3.37
260.694	3.34
261.154	3.31
261.614	3.3
262.074	3.27
262.534	3.25
262.994	3.23
263.455	3.21
263.915	3.19
264.374	3.18
264.834	3.16
265.294	3.14
265.754	3.13
266.214	3.11
266.673	3.09
267.133	3.09
267.593	3.07
268.052	3.06
268.512	3.05
268.971	3.05
269.431	3.04
269.89	3.02
270.349	3.01
270.809	3
271.268	3
271.727	2.99
272.186	2.98
272.645	2.97
273.104	2.96
273.563	2.95
274.022	2.94
274.481	2.94
274.94	2.93
275.399	2.92
275.857	2.92
276.316	2.91
276.775	2.91
277.233	2.91
277.692	2.9
278.15	2.9
278.609	2.9
279.067	2.89
279.525	2.89
279.984	2.88
280.442	2.89
280.9	2.88
281.358	2.88
281.816	2.88
282.274	2.87
282.732	2.86
283.19	2.86
283.648	2.86
284.106	2.85
284.564	2.84
285.021	2.84
285.479	2.83
285.937	2.82
286.394	2.82
286.852	2.8
287.309	2.79
287.767	2.77
288.224	2.76
288.682	2.75
289.139	2.74
289.596	2.73
290.053	2.71
290.511	2.69
290.968	2.68
291.425	2.66
291.882	2.66
292.339	2.65
292.796	2.64
293.252	2.64
293.709	2.63
294.166	2.62
294.623	2.62
295.079	2.61
295.536	2.61
295.992	2.6
296.449	2.6
296.905	2.59
297.362	2.58
297.818	2.58
298.274	2.57
298.731	2.56
299.187	2.55
299.643	2.54
300.099	2.54
300.555	2.54
301.011	2.53
301.467	2.53
301.923	2.52
302.379	2.52
302.835	2.52
303.291	2.51
303.746	2.51
304.202	2.52
304.658	2.52
305.113	2.51
305.569	2.52
306.024	2.52
306.479	2.52
306.935	2.52
307.39	2.52
307.845	2.52
308.301	2.53
308.756	2.54
309.211	2.53
309.666	2.54
310.121	2.55
310.576	2.54
311.031	2.54
311.486	2.54
311.94	2.54
312.395	2.54
312.85	2.53
313.305	2.52
313.759	2.53
314.214	2.52
314.668	2.51
315.123	2.51
315.577	2.5
316.032	2.51
316.486	2.5
316.94	2.5
317.394	2.5
317.849	2.49
318.303	2.48
318.757	2.46
319.211	2.46
319.665	2.45
320.119	2.44
320.572	2.43
321.026	2.42
321.48	2.41
321.934	2.39
322.387	2.38
322.841	2.39
323.295	2.39
323.748	2.39
324.202	2.39
324.655	2.39
325.108	2.4
325.562	2.41
326.015	2.41
326.468	2.41
326.921	2.42
327.374	2.43
327.827	2.42
328.28	2.42
328.733	2.42
329.186	2.42
329.639	2.41
330.092	2.41
330.545	2.41
330.997	2.41
331.45	2.41
331.903	2.42
332.355	2.42
332.808	2.42
333.26	2.42
333.713	2.41
334.165	2.41
334.617	2.42
335.069	2.4
335.522	2.4
335.974	2.39
336.426	2.39
336.878	2.38
337.33	2.38
337.782	2.37
338.234	2.38
338.686	2.38
339.137	2.38
339.589	2.38
340.041	2.38
340.493	2.38
340.944	2.36
341.396	2.36
341.847	2.35
342.299	2.34
342.75	2.34
343.201	2.32
343.653	2.32
344.104	2.3
344.555	2.29
345.006	2.28
345.457	2.28
345.908	2.27
346.359	2.28
346.81	2.27
347.261	2.27
347.712	2.27
348.163	2.26
348.613	2.26
349.064	2.26
349.515	2.26
349.965	2.26
350.416	2.26
350.866	2.26
351.317	2.26
351.767	2.26
352.217	2.25
352.668	2.25
353.118	2.26
353.568	2.25
354.018	2.25
354.468	2.26
354.918	2.26
355.368	2.27
355.818	2.27
356.268	2.27
356.718	2.27
357.168	2.26
357.617	2.25
358.067	2.25
358.517	2.25
358.966	2.26
359.416	2.25
359.865	2.25
360.315	2.25
360.764	2.24
361.213	2.24
361.663	2.24
362.112	2.25
362.561	2.26
363.01	2.27
363.459	2.26
363.908	2.25
364.357	2.25
364.806	2.24
365.255	2.24
365.703	2.25
366.152	2.26
366.601	2.26
367.05	2.27
367.498	2.26
367.947	2.25
368.395	2.26
368.844	2.26
369.292	2.25
369.74	2.26
370.189	2.25
370.637	2.24
371.085	2.22
371.533	2.22
371.981	2.21
372.429	2.21
372.877	2.2
373.325	2.2
373.773	2.2
374.221	2.19
374.669	2.18
375.116	2.18
375.564	2.17
376.012	2.17
376.459	2.17
376.907	2.16
377.354	2.16
377.801	2.17
378.249	2.16
378.696	2.15
379.143	2.16
379.591	2.16
380.038	2.16
380.485	2.17
380.932	2.17
381.379	2.18
381.826	2.18
382.273	2.17
382.72	2.17
383.166	2.17
383.613	2.17
384.06	2.17
384.506	2.18
384.953	2.18
385.4	2.18
385.846	2.19
386.292	2.19
386.739	2.19
387.185	2.18
387.631	2.19
388.078	2.19
388.524	2.19
388.97	2.19
389.416	2.19
389.862	2.19
390.308	2.2
390.754	2.2
391.2	2.2
391.645	2.2
392.091	2.22
392.537	2.23
392.983	2.24
393.428	2.25
393.874	2.26
394.319	2.27
394.765	2.28
395.21	2.28
395.655	2.29
396.101	2.3
396.546	2.31
396.991	2.32
397.436	2.33
397.881	2.35
398.326	2.35
398.771	2.35
399.216	2.35
399.661	2.37
400.106	2.38
400.551	2.38
400.995	2.38
401.44	2.39
401.885	2.39
402.329	2.4
402.774	2.41
403.218	2.44
403.663	2.45
404.107	2.47
404.551	2.47
404.995	2.48
405.44	2.49
405.884	2.5
406.328	2.51
406.772	2.51
407.216	2.53
407.66	2.53
408.104	2.51
408.547	2.52
408.991	2.52
409.435	2.52
409.879	2.54
410.322	2.55
410.766	2.57
411.209	2.59
411.653	2.62
412.096	2.63
412.54	2.64
412.983	2.66
413.426	2.69
413.869	2.7
414.312	2.74
414.756	2.76
415.199	2.76
415.642	2.76
416.085	2.77
416.527	2.76
416.97	2.74
417.413	2.75
417.856	2.75
418.298	2.74
418.741	2.74
419.184	2.73
419.626	2.72
420.069	2.73
420.511	2.73
420.953	2.74
421.396	2.75
421.838	2.76
422.28	2.77
422.722	2.8
423.164	2.81
423.606	2.81
424.048	2.82
424.49	2.82
424.932	2.81
425.374	2.8
425.816	2.78
426.258	2.78
426.699	2.78
427.141	2.78
427.582	2.77
428.024	2.79
428.465	2.8
428.907	2.8
429.348	2.8
429.789	2.81
430.231	2.84
430.672	2.86
431.113	2.88
431.554	2.89
431.995	2.89
432.436	2.88
432.877	2.89
433.318	2.91
433.759	2.94
434.2	2.97
434.64	2.98
435.081	2.98
435.522	3
435.962	3.01
436.403	3.04
436.843	3.06
437.284	3.07
437.724	3.06
438.164	3.05
438.604	3.06
439.045	3.06
439.485	3.07
439.925	3.07
440.365	3.08
440.805	3.07
441.245	3.07
441.685	3.08
442.125	3.09
442.564	3.1
443.004	3.11
443.444	3.1
443.883	3.12
444.323	3.11
444.762	3.12
445.202	3.12
445.641	3.14
446.081	3.15
446.52	3.13
446.959	3.15
447.398	3.15
447.837	3.15
448.276	3.14
448.716	3.14
449.154	3.17
449.593	3.18
450.032	3.18
450.471	3.17
450.91	3.16
451.349	3.17
451.787	3.15
452.226	3.14
452.664	3.14
453.103	3.13
453.541	3.14
453.98	3.12
454.418	3.09
454.856	3.08
455.295	3.07
455.733	3.06
456.171	3.05
456.609	3.06
457.047	3.05
457.485	3.04
457.923	3.06
458.361	3.04
458.798	3.05
459.236	3.05
459.674	3.05
460.111	3.06
460.549	3.07
460.987	3.08
461.424	3.09
461.862	3.1
462.299	3.12
462.736	3.11
463.173	3.11
463.611	3.11
464.048	3.13
464.485	3.13
464.922	3.13
465.359	3.14
465.796	3.15
466.233	3.15
466.67	3.15
467.106	3.15
467.543	3.16
467.98	3.16
468.416	3.14
468.853	3.14
469.29	3.13
469.726	3.14
470.162	3.14
470.599	3.13
471.035	3.12
471.471	3.11
471.907	3.1
472.344	3.09
472.78	3.1
473.216	3.09
473.652	3.08
474.088	3.07
474.523	3.06
474.959	3.04
475.395	3.03
475.831	3.02
476.266	3.02
476.702	3
477.138	3
477.573	3
478.008	3
478.444	2.99
478.879	2.99
479.314	2.98
479.75	2.98
480.185	2.97
480.62	2.97
481.055	2.96
481.49	2.96
481.925	2.95
482.36	2.95
482.795	2.94
483.229	2.94
483.664	2.93
484.099	2.92
484.534	2.91
484.968	2.92
485.403	2.91
485.837	2.91
486.271	2.92
486.706	2.92
487.14	2.91
487.574	2.92
488.009	2.92
488.443	2.93
488.877	2.95
489.311	2.97
489.745	2.98
490.179	3
490.613	3.02
491.046	3.04
491.48	3.06
491.914	3.08
492.348	3.1
492.781	3.12
493.215	3.15
493.648	3.18
494.082	3.2
494.515	3.23
494.948	3.26
495.382	3.28
495.815	3.32
496.248	3.35
496.681	3.39
497.114	3.44
497.547	3.48
497.98	3.53
498.413	3.57
498.846	3.63
499.279	3.68
499.711	3.73
500.144	3.8
500.577	3.87
501.009	3.94
501.442	4.01
501.874	4.09
502.306	4.17
502.739	4.27
503.171	4.35
503.603	4.45
504.036	4.54
504.468	4.64
504.9	4.74
505.332	4.85
505.764	4.97
506.196	5.1
506.627	5.22
507.059	5.35
507.491	5.47
507.923	5.62
508.354	5.77
508.786	5.93
509.217	6.1
509.649	6.27
510.08	6.44
510.512	6.63
510.943	6.81
511.374	7
511.805	7.21
512.237	7.41
512.668	7.62
513.099	7.83
513.53	8.04
513.961	8.27
514.391	8.51
514.822	8.75
515.253	8.98
515.684	9.23
516.114	9.49
516.545	9.73
516.975	9.99
517.406	10.25
517.836	10.5
518.267	10.77
518.697	11.01
519.127	11.26
519.558	11.51
519.988	11.76
520.418	12
520.848	12.25
521.278	12.48
521.708	12.93
522.138	13.18
522.567	13.42
522.997	13.65
523.427	13.87
523.857	14.1
524.286	14.31
524.716	14.54
525.145	14.76
525.575	14.96
526.004	15.17
526.433	15.14
526.863	15.32
527.292	15.51
527.721	15.69
528.15	15.87
528.579	16.03
529.008	16.19
529.437	16.33
529.866	16.46
530.295	16.61
530.724	16.74
531.152	16.88
531.581	17.01
532.01	17.12
532.438	17.23
532.867	17.33
533.295	17.43
533.723	17.53
534.152	17.61
534.58	17.71
535.008	17.78
535.436	17.85
535.865	17.92
536.293	17.99
536.721	18.04
537.149	18.1
537.576	18.15
538.004	18.21
538.432	18.27
538.86	18.33
539.287	18.36
539.715	18.42
540.143	18.48
540.57	18.51
540.998	18.54
541.425	18.58
541.852	18.63
542.28	18.68
542.707	18.71
543.134	18.73
543.561	18.77
543.988	18.81
544.415	18.82
544.842	18.84
545.269	18.87
545.696	18.9
546.123	18.93
546.549	18.95
546.976	18.97
547.403	18.99
547.829	19
548.256	19.02
548.682	19.05
549.108	19.08
549.535	19.09
549.961	19.09
550.387	19.1
550.813	19.1
551.24	19.09
551.666	19.08
552.092	19.07
552.518	19.08
552.943	19.05
553.369	19.02
553.795	18.98
554.221	18.95
554.646	18.92
555.072	18.87
555.498	18.83
555.923	18.78
556.349	18.73
556.774	18.66
557.199	18.58
557.625	18.52
558.05	18.44
558.475	18.37
558.9	18.29
559.325	18.22
559.75	18.14
560.175	18.05
560.6	17.96
561.025	17.86
561.449	17.77
561.874	17.68
562.299	17.57
562.723	17.45
563.148	17.33
563.572	17.2
563.997	17.06
564.421	16.93
564.846	16.8
565.27	16.65
565.694	16.53
566.118	16.38
566.542	16.24
566.966	16.1
567.39	15.96
567.814	15.83
568.238	15.69
568.662	15.57
569.086	15.44
569.509	15.32
569.933	15.19
570.357	15.06
570.78	14.92
571.204	14.81
571.627	14.67
572.05	14.56
572.474	14.44
572.897	14.33
573.32	14.2
573.743	14.07
574.166	13.95
574.589	13.84
575.012	13.73
575.435	13.64
575.858	13.52
576.281	13.42
576.704	13.31
577.126	13.2
577.549	13.1
577.972	13
578.394	12.92
578.817	12.83
579.239	12.75
579.661	12.66
580.084	12.57
580.506	12.5
580.928	12.42
581.35	12.34
581.772	12.27
582.194	12.21
582.616	12.14
583.038	12.07
583.46	12
583.882	11.93
584.303	11.86
584.725	11.79
585.147	11.74
585.568	11.68
585.99	11.63
586.411	11.57
586.833	11.5
587.254	11.44
587.675	11.39
588.096	11.35
588.518	11.29
588.939	11.25
589.36	11.2
589.781	11.15
590.202	11.12
590.623	11.08
591.043	11.03
591.464	11.01
591.885	10.97
592.305	10.94
592.726	10.92
593.147	10.9
593.567	10.87
593.987	10.84
594.408	10.8
594.828	10.77
595.248	10.75
595.669	10.74
596.089	10.71
596.509	10.69
596.929	10.66
597.349	10.63
597.769	10.6
598.189	10.57
598.608	10.54
599.028	10.52
599.448	10.49
599.867	10.44
600.287	10.41
600.706	10.37
601.126	10.33
601.545	10.29
601.965	10.26
602.384	10.21
602.803	10.16
603.222	10.11
603.641	10.05
604.061	10
604.48	9.95
604.898	9.89
605.317	9.83
605.736	9.78
606.155	9.72
606.574	9.66
606.992	9.59
607.411	9.54
607.829	9.44
608.248	9.37
608.666	9.3
609.085	9.24
609.503	9.17
609.921	9.1
610.339	9.03
610.758	8.96
611.176	8.88
611.594	8.82
612.012	8.75
612.43	8.7
612.847	8.64
613.265	8.58
613.683	8.52
614.101	8.45
614.518	8.38
614.936	8.33
615.353	8.26
615.771	8.2
616.188	8.14
616.606	8.1
617.023	8.06
617.44	8.01
617.857	7.95
618.274	7.9
618.691	7.86
619.108	7.82
619.525	7.78
619.942	7.75
620.359	7.72
620.776	7.67
621.192	7.64
621.609	7.61
622.026	7.58
622.442	7.57
622.859	7.55
623.275	7.53
623.691	7.5
624.108	7.49
624.524	7.47
624.94	7.46
625.356	7.46
625.772	7.45
626.188	7.44
626.604	7.44
627.02	7.43
627.436	7.42
627.852	7.41
628.268	7.41
628.683	7.4
629.099	7.39
629.514	7.37
629.93	7.36
630.345	7.35
630.761	7.32
631.176	7.3
631.591	7.27
632.007	7.24
632.422	7.21
632.837	7.19
633.252	7.15
633.667	7.11
634.082	7.07
634.497	7.03
634.911	6.97
635.326	6.92
635.741	6.87
636.155	6.81
636.57	6.76
636.984	6.7
637.399	6.64
637.813	6.58
638.228	6.51
638.642	6.43
639.056	6.34
639.47	6.28
639.884	6.21
640.298	6.13
640.712	6.06
641.126	5.98
641.54	5.88
641.954	5.8
642.368	5.72
642.781	5.65
643.195	5.58
643.609	5.5
644.022	5.42
644.436	5.35
644.849	5.27
645.262	5.2
645.676	5.13
646.089	5.08
646.502	5.03
646.915	4.99
647.328	4.94
647.741	4.89
648.154	4.85
648.567	4.81
648.98	4.78
649.393	4.75
649.805	4.72
650.218	4.69
650.631	4.67
651.043	4.63
651.456	4.59
651.868	4.56
652.28	4.53
652.693	4.49
653.105	4.47
653.517	4.43
653.929	4.4
654.341	4.36
654.753	4.32
655.165	4.27
655.577	4.24
655.989	4.19
656.401	4.15
656.813	4.1
657.224	4.05
657.636	3.99
658.047	3.95
658.459	3.88
658.87	3.83
659.282	3.78
659.693	3.73
660.104	3.67
660.515	3.63
660.926	3.58
661.338	3.53
661.749	3.49
662.159	3.44
662.57	3.4
662.981	3.36
663.392	3.33
663.803	3.3
664.213	3.27
664.624	3.23
665.035	3.2
665.445	3.18
665.855	3.16
666.266	3.15
666.676	3.14
667.086	3.11
667.497	3.1
667.907	3.09
668.317	3.08
668.727	3.07
669.137	3.06
669.547	3.06
669.956	3.05
670.366	3.05
670.776	3.05
671.186	3.05
671.595	3.06
672.005	3.06
672.414	3.06
672.824	3.07
673.233	3.08
673.642	3.09
674.052	3.1
674.461	3.12
674.87	3.13
675.279	3.15
675.688	3.17
676.097	3.18
676.506	3.2
676.915	3.22
677.323	3.24
677.732	3.26
678.141	3.29
678.549	3.31
678.958	3.33
679.366	3.37
679.775	3.39
680.183	3.42
680.592	3.47
681	3.51
681.408	3.54
681.816	3.6
682.224	3.65
682.632	3.71
683.04	3.77
683.448	3.84
683.856	3.92
684.264	4.01
684.671	4.11
685.079	4.21
685.487	4.35
685.894	4.5
686.302	4.65
686.709	4.83
687.116	5.03
687.524	5.25
687.931	5.49
688.338	5.74
688.745	6.02
689.152	6.31
689.559	6.63
689.966	6.96
690.373	7.31
690.78	7.68
691.187	8.07
691.593	8.48
692	8.89
692.407	9.32
692.813	9.78
693.22	10.24
693.626	10.71
694.032	11.18
694.439	11.68
694.845	12.19
695.251	12.7
695.657	13.2
696.063	13.72
696.469	14.24
696.875	14.78
697.281	15.3
697.687	15.82
698.093	16.35
698.498	16.86
698.904	17.38
699.31	17.89
699.715	18.4
700.12	18.9
700.526	19.4
700.931	19.92
701.337	20.42
701.742	20.91
702.147	21.39
702.552	21.87
702.957	22.33
703.362	22.78
703.767	23.23
704.172	23.69
704.577	24.14
704.981	24.59
705.386	25.02
705.791	25.44
706.195	25.87
706.6	26.29
707.004	26.71
707.408	27.14
707.813	27.56
708.217	27.96
708.621	28.37
709.025	28.76
709.43	29.14
709.834	29.53
710.237	29.91
710.641	30.28
711.045	30.63
711.449	31.01
711.853	31.38
712.256	31.71
712.66	32.06
713.064	32.39
713.467	32.74
713.87	33.08
714.274	33.39
714.677	33.72
715.08	34.02
715.484	34.34
715.887	34.64
716.29	34.93
716.693	35.24
717.096	35.54
717.499	35.84
717.901	36.11
718.304	36.37
718.707	36.65
719.109	36.92
719.512	37.18
719.915	37.43
720.317	37.66
720.719	37.88
721.122	38.11
721.524	38.34
721.926	38.57
722.328	38.78
722.731	38.99
723.133	39.21
723.535	39.38
723.937	39.59
724.338	39.78
724.74	39.99
725.142	40.3
725.544	40.47
725.945	40.66
726.347	40.78
726.748	40.93
727.15	41.07
727.551	41.24
727.952	41.38
728.354	41.54
728.755	41.69
729.156	41.81
729.557	41.82
729.958	41.93
730.359	42.05
730.76	42.2
731.161	42.32
731.562	42.45
731.962	42.51
732.363	42.65
732.763	42.73
733.164	42.82
733.564	42.93
733.965	43.02
734.365	43.13
734.766	43.21
735.166	43.3
735.566	43.35
735.966	43.45
736.366	43.54
736.766	43.57
737.166	43.64
737.566	43.7
737.966	43.75
738.365	43.81
738.765	43.88
739.165	43.92
739.564	43.97
739.964	44.01
740.363	44.03
740.763	44.06
741.162	44.11
741.561	44.15
741.96	44.17
742.36	44.21
742.759	44.23
743.158	44.25
743.557	44.27
743.955	44.3
744.354	44.37
744.753	44.42
745.152	44.48
745.55	44.52
745.949	44.55
746.348	44.59
746.746	44.58
747.144	44.62
747.543	44.63
747.941	44.66
748.339	44.64
748.737	44.63
749.136	44.63
749.534	44.59
749.932	44.6
750.33	44.58
750.727	44.62
751.125	44.64
751.523	44.65
751.921	44.66
752.318	44.68
752.716	44.72
753.113	44.74
753.511	44.77
753.908	44.82
754.305	44.87
754.703	44.89
755.1	44.89
755.497	44.9
755.894	44.91
756.291	44.94
756.688	44.94
757.085	44.96
757.482	44.96
757.878	44.97
758.275	44.97
758.672	44.96
759.068	44.99
759.465	44.97
759.861	44.99
760.258	45.02
760.654	45
761.05	45.02
761.447	45.01
761.843	44.99
762.239	45
762.635	45
763.031	45.01
763.427	45.01
763.822	45.02
764.218	45
764.614	45
765.01	44.99
765.405	44.98
765.801	44.99
766.196	45.04
766.592	45.03
766.987	45.02
767.382	44.99
767.778	44.99
768.173	45.01
768.568	45.01
768.963	45
769.358	45
769.753	45.03
770.148	45.02
770.542	45.01
770.937	45.01
771.332	45.01
771.726	45.04
772.121	45.01
772.515	45.01
772.91	45.03
773.304	45.04
773.699	45.07
774.093	45.04
774.487	45.03
774.881	45.04
775.275	45.03
775.669	45.02
776.063	45.01
776.457	45.04
776.851	45
777.245	44.95
777.638	44.95
778.032	44.95
778.425	44.98
778.819	44.99
779.212	44.97
779.606	45
779.999	44.97
780.392	44.99
780.786	44.99
781.179	45.02
781.572	45.06
781.965	45.08
782.358	45.05
782.751	45
783.143	45
783.536	45.01
783.929	44.97
784.322	45.01
784.714	45
785.107	45.03
785.499	45.02
785.891	45.02
786.284	45.02
786.676	45.05
