Data from C_1_DIV_OH_2N_Splice17_12-51-30-980.txt Node
Date: Sat Mar 07 12:51:30 EST 2020
User: sa697716
Spectrometer: NQ5500242
Trigger mode: 0
Integration Time (sec): 1.450000E-1
Scans to average: 20
Nonlinearity correction enabled: false
Boxcar width: 5
Storing dark spectrum: false
XAxis mode: Wavelengths
Number of Pixels in Spectrum: 512
>>>>>Begin Spectral Data<<<<<
187.83	127.59
188.298	152.03
188.766	127.78
189.233	107.05
189.701	111.92
190.169	123.1
190.636	162.16
191.104	273.13
191.571	301.48
192.039	416.2
192.506	554.37
192.974	-24.81
193.441	73.11
193.908	65.36
194.375	58.25
194.842	39
195.31	91.08
195.777	217.6
196.244	42.42
196.711	34.81
197.177	35.24
197.644	33.44
198.111	32.91
198.578	32.49
199.045	32.58
199.511	32.57
199.978	32.42
200.445	32.19
200.911	32.33
201.378	32.42
201.844	32.26
202.31	31.85
202.777	32.16
203.243	32.16
203.709	32.23
204.176	31.78
204.642	31.57
205.108	31.89
205.574	31.96
206.04	31.57
206.506	31.03
206.972	30.93
207.438	30.92
207.903	30.59
208.369	29.83
208.835	29.18
209.301	28.67
209.766	27.76
210.232	26.83
210.697	25.99
211.163	25.45
211.628	25.05
212.094	24.47
212.559	24.12
213.024	23.46
213.49	23.11
213.955	22.69
214.42	22.24
214.885	21.79
215.35	21.03
215.815	20.17
216.28	18.95
216.745	17.71
217.21	16.42
217.675	15.18
218.14	14.14
218.604	13.27
219.069	12.49
219.534	11.92
219.998	11.46
220.463	11.08
220.927	10.65
221.392	10.34
221.856	10.03
222.32	9.77
222.785	9.57
223.249	9.39
223.713	9.22
224.177	9.11
224.642	8.95
225.106	8.77
225.57	8.59
226.034	8.46
226.497	8.35
226.961	8.25
227.425	8.14
227.889	8.02
228.353	7.91
228.816	7.81
229.28	7.69
229.744	7.59
230.207	7.5
230.671	7.41
231.134	7.33
231.597	7.24
232.061	7.16
232.524	7.08
232.987	7.01
233.45	6.94
233.914	6.85
234.377	6.76
234.84	6.69
235.303	6.64
235.766	6.57
236.229	6.51
236.691	6.44
237.154	6.38
237.617	6.33
238.08	6.27
238.542	6.22
239.005	6.17
239.468	6.12
239.93	6.06
240.393	6
240.855	5.93
241.317	5.88
241.78	5.83
242.242	5.77
242.704	5.72
243.166	5.66
243.629	5.62
244.091	5.56
244.553	5.51
245.015	5.48
245.477	5.43
245.939	5.39
246.4	5.35
246.862	5.31
247.324	5.28
247.786	5.24
248.247	5.2
248.709	5.15
249.17	5.11
249.632	5.08
250.093	5.04
250.555	5.01
251.016	4.98
251.477	4.94
251.939	4.91
252.4	4.89
252.861	4.87
253.322	4.84
253.783	4.82
254.244	4.81
254.705	4.77
255.166	4.75
255.627	4.72
256.088	4.69
256.549	4.67
257.009	4.63
257.47	4.6
257.931	4.57
258.391	4.54
258.852	4.5
259.312	4.47
259.773	4.45
260.233	4.43
260.694	4.4
261.154	4.38
261.614	4.36
262.074	4.32
262.534	4.3
262.994	4.29
263.455	4.27
263.915	4.25
264.374	4.23
264.834	4.21
265.294	4.19
265.754	4.18
266.214	4.17
266.673	4.15
267.133	4.15
267.593	4.14
268.052	4.12
268.512	4.12
268.971	4.11
269.431	4.09
269.89	4.08
270.349	4.07
270.809	4.06
271.268	4.05
271.727	4.04
272.186	4.02
272.645	4.01
273.104	3.99
273.563	3.98
274.022	3.97
274.481	3.97
274.94	3.96
275.399	3.94
275.857	3.94
276.316	3.93
276.775	3.92
277.233	3.91
277.692	3.9
278.15	3.89
278.609	3.88
279.067	3.87
279.525	3.86
279.984	3.85
280.442	3.83
280.9	3.82
281.358	3.81
281.816	3.79
282.274	3.79
282.732	3.77
283.19	3.76
283.648	3.75
284.106	3.73
284.564	3.73
285.021	3.72
285.479	3.71
285.937	3.7
286.394	3.69
286.852	3.68
287.309	3.67
287.767	3.65
288.224	3.63
288.682	3.62
289.139	3.61
289.596	3.59
290.053	3.57
290.511	3.55
290.968	3.55
291.425	3.53
291.882	3.52
292.339	3.52
292.796	3.51
293.252	3.5
293.709	3.49
294.166	3.48
294.623	3.47
295.079	3.46
295.536	3.46
295.992	3.45
296.449	3.44
296.905	3.43
297.362	3.42
297.818	3.41
298.274	3.4
298.731	3.39
299.187	3.38
299.643	3.37
300.099	3.36
300.555	3.35
301.011	3.35
301.467	3.34
301.923	3.33
302.379	3.33
302.835	3.32
303.291	3.31
303.746	3.31
304.202	3.3
304.658	3.3
305.113	3.29
305.569	3.29
306.024	3.28
306.479	3.27
306.935	3.27
307.39	3.26
307.845	3.26
308.301	3.26
308.756	3.26
309.211	3.26
309.666	3.26
310.121	3.26
310.576	3.25
311.031	3.25
311.486	3.24
311.94	3.25
312.395	3.25
312.85	3.24
313.305	3.24
313.759	3.24
314.214	3.23
314.668	3.22
315.123	3.22
315.577	3.22
316.032	3.22
316.486	3.21
316.94	3.2
317.394	3.19
317.849	3.19
318.303	3.18
318.757	3.17
319.211	3.16
319.665	3.16
320.119	3.14
320.572	3.13
321.026	3.14
321.48	3.13
321.934	3.12
322.387	3.12
322.841	3.11
323.295	3.1
323.748	3.1
324.202	3.1
324.655	3.11
325.108	3.11
325.562	3.11
326.015	3.1
326.468	3.1
326.921	3.09
327.374	3.09
327.827	3.09
328.28	3.08
328.733	3.07
329.186	3.07
329.639	3.06
330.092	3.06
330.545	3.06
330.997	3.06
331.45	3.06
331.903	3.06
332.355	3.07
332.808	3.06
333.26	3.07
333.713	3.07
334.165	3.06
334.617	3.07
335.069	3.05
335.522	3.06
335.974	3.06
336.426	3.05
336.878	3.05
337.33	3.04
337.782	3.04
338.234	3.05
338.686	3.04
339.137	3.05
339.589	3.04
340.041	3.05
340.493	3.04
340.944	3.02
341.396	3.02
341.847	3.01
342.299	3
342.75	2.99
343.201	2.98
343.653	2.97
344.104	2.96
344.555	2.95
345.006	2.94
345.457	2.94
345.908	2.93
346.359	2.93
346.81	2.93
347.261	2.93
347.712	2.93
348.163	2.93
348.613	2.94
349.064	2.94
349.515	2.94
349.965	2.94
350.416	2.94
350.866	2.94
351.317	2.94
351.767	2.93
352.217	2.94
352.668	2.94
353.118	2.94
353.568	2.93
354.018	2.93
354.468	2.94
354.918	2.94
355.368	2.94
355.818	2.95
356.268	2.94
356.718	2.95
357.168	2.94
357.617	2.94
358.067	2.94
358.517	2.96
358.966	2.96
359.416	2.96
359.865	2.96
360.315	2.97
360.764	2.98
361.213	2.98
361.663	2.98
362.112	2.99
362.561	3.01
363.01	3.01
363.459	2.99
363.908	3
364.357	3
364.806	2.99
365.255	3
365.703	3.01
366.152	3.02
366.601	3.03
367.05	3.03
367.498	3.04
367.947	3.05
368.395	3.07
368.844	3.08
369.292	3.1
369.74	3.11
370.189	3.11
370.637	3.12
371.085	3.13
371.533	3.15
371.981	3.17
372.429	3.18
372.877	3.2
373.325	3.21
373.773	3.22
374.221	3.23
374.669	3.26
375.116	3.28
375.564	3.29
376.012	3.32
376.459	3.34
376.907	3.36
377.354	3.39
377.801	3.41
378.249	3.45
378.696	3.47
379.143	3.5
379.591	3.53
380.038	3.57
380.485	3.61
380.932	3.65
381.379	3.68
381.826	3.71
382.273	3.74
382.72	3.76
383.166	3.8
383.613	3.83
384.06	3.87
384.506	3.89
384.953	3.93
385.4	3.96
385.846	4
386.292	4.03
386.739	4.06
387.185	4.1
387.631	4.14
388.078	4.17
388.524	4.22
388.97	4.25
389.416	4.3
389.862	4.34
390.308	4.38
390.754	4.42
391.2	4.47
391.645	4.51
392.091	4.56
392.537	4.59
392.983	4.63
393.428	4.65
393.874	4.69
394.319	4.72
394.765	4.75
395.21	4.77
395.655	4.8
396.101	4.83
396.546	4.85
396.991	4.88
397.436	4.9
397.881	4.95
398.326	4.98
398.771	5.01
399.216	5.03
399.661	5.05
400.106	5.07
400.551	5.08
400.995	5.07
401.44	5.09
401.885	5.1
402.329	5.11
402.774	5.11
403.218	5.13
403.663	5.14
404.107	5.15
404.551	5.15
404.995	5.15
405.44	5.16
405.884	5.17
406.328	5.18
406.772	5.18
407.216	5.19
407.66	5.2
408.104	5.19
408.547	5.18
408.991	5.18
409.435	5.18
409.879	5.18
410.322	5.2
410.766	5.21
411.209	5.22
411.653	5.23
412.096	5.23
412.54	5.22
412.983	5.23
413.426	5.26
413.869	5.28
414.312	5.3
414.756	5.31
415.199	5.31
415.642	5.31
416.085	5.31
416.527	5.31
416.97	5.3
417.413	5.31
417.856	5.32
418.298	5.31
418.741	5.31
419.184	5.3
419.626	5.3
420.069	5.32
420.511	5.32
420.953	5.32
421.396	5.33
421.838	5.35
422.28	5.36
422.722	5.35
423.164	5.35
423.606	5.36
424.048	5.37
424.49	5.38
424.932	5.36
425.374	5.34
425.816	5.33
426.258	5.31
426.699	5.29
427.141	5.28
427.582	5.28
428.024	5.28
428.465	5.27
428.907	5.26
429.348	5.24
429.789	5.23
430.231	5.24
430.672	5.25
431.113	5.26
431.554	5.28
431.995	5.28
432.436	5.29
432.877	5.29
433.318	5.32
433.759	5.33
434.2	5.36
434.64	5.38
435.081	5.39
435.522	5.4
435.962	5.42
436.403	5.45
436.843	5.46
437.284	5.48
437.724	5.49
438.164	5.5
438.604	5.52
439.045	5.55
439.485	5.58
439.925	5.59
440.365	5.62
440.805	5.63
441.245	5.67
441.685	5.7
442.125	5.75
442.564	5.78
443.004	5.8
443.444	5.84
443.883	5.86
444.323	5.88
444.762	5.92
445.202	5.95
445.641	6
446.081	6.02
446.52	6.06
446.959	6.09
447.398	6.14
447.837	6.17
448.276	6.2
448.716	6.25
449.154	6.3
449.593	6.33
450.032	6.37
450.471	6.38
450.91	6.4
451.349	6.43
451.787	6.46
452.226	6.47
452.664	6.49
453.103	6.49
453.541	6.5
453.98	6.51
454.418	6.51
454.856	6.52
455.295	6.53
455.733	6.52
456.171	6.52
456.609	6.51
457.047	6.49
457.485	6.49
457.923	6.5
458.361	6.5
458.798	6.51
459.236	6.51
459.674	6.52
460.111	6.52
460.549	6.54
460.987	6.55
461.424	6.56
461.862	6.57
462.299	6.57
462.736	6.58
463.173	6.57
463.611	6.56
464.048	6.58
464.485	6.58
464.922	6.59
465.359	6.59
465.796	6.6
466.233	6.6
466.67	6.61
467.106	6.62
467.543	6.62
467.98	6.62
468.416	6.62
468.853	6.62
469.29	6.63
469.726	6.63
470.162	6.64
470.599	6.64
471.035	6.65
471.471	6.65
471.907	6.66
472.344	6.67
472.78	6.7
473.216	6.72
473.652	6.72
474.088	6.71
474.523	6.72
474.959	6.73
475.395	6.73
475.831	6.72
476.266	6.72
476.702	6.72
477.138	6.72
477.573	6.72
478.008	6.73
478.444	6.74
478.879	6.75
479.314	6.75
479.75	6.75
480.185	6.75
480.62	6.76
481.055	6.75
481.49	6.76
481.925	6.77
482.36	6.77
482.795	6.78
483.229	6.77
483.664	6.79
484.099	6.8
484.534	6.8
484.968	6.82
485.403	6.83
485.837	6.85
486.271	6.88
486.706	6.91
487.14	6.93
487.574	6.95
488.009	6.99
488.443	7.02
488.877	7.06
489.311	7.1
489.745	7.15
490.179	7.21
490.613	7.26
491.046	7.31
491.48	7.36
491.914	7.42
492.348	7.49
492.781	7.56
493.215	7.63
493.648	7.7
494.082	7.78
494.515	7.86
494.948	7.93
495.382	8.01
495.815	8.1
496.248	8.2
496.681	8.3
497.114	8.4
497.547	8.5
497.98	8.6
498.413	8.7
498.846	8.81
499.279	8.93
499.711	9.06
500.144	9.2
500.577	9.32
501.009	9.45
501.442	9.59
501.874	9.73
502.306	9.88
502.739	10.04
503.171	10.2
503.603	10.37
504.036	10.54
504.468	10.71
504.9	10.88
505.332	11.05
505.764	11.24
506.196	11.43
506.627	11.62
507.059	11.82
507.491	12.01
507.923	12.21
508.354	12.44
508.786	12.65
509.217	12.88
509.649	13.11
510.08	13.35
510.512	13.57
510.943	13.8
511.374	14.04
511.805	14.28
512.237	14.52
512.668	14.77
513.099	14.98
513.53	15.22
513.961	15.45
514.391	15.7
514.822	15.94
515.253	16.18
515.684	16.42
516.114	16.66
516.545	16.91
516.975	17.15
517.406	17.39
517.836	17.64
518.267	17.89
518.697	18.12
519.127	18.33
519.558	18.56
519.988	18.79
520.418	19.01
520.848	19.22
521.278	19.44
521.708	19.78
522.138	19.98
522.567	20.17
522.997	20.36
523.427	20.56
523.857	20.75
524.286	20.91
524.716	21.08
525.145	21.26
525.575	21.42
526.004	21.57
526.433	21.59
526.863	21.73
527.292	21.88
527.721	22.01
528.15	22.14
528.579	22.25
529.008	22.37
529.437	22.47
529.866	22.57
530.295	22.68
530.724	22.78
531.152	22.88
531.581	22.98
532.01	23.06
532.438	23.15
532.867	23.23
533.295	23.32
533.723	23.39
534.152	23.47
534.58	23.53
535.008	23.58
535.436	23.64
535.865	23.68
536.293	23.71
536.721	23.76
537.149	23.81
537.576	23.84
538.004	23.88
538.432	23.91
538.86	23.96
539.287	23.98
539.715	24.03
540.143	24.06
540.57	24.09
540.998	24.12
541.425	24.14
541.852	24.16
542.28	24.19
542.707	24.21
543.134	24.23
543.561	24.25
543.988	24.28
544.415	24.27
544.842	24.29
545.269	24.3
545.696	24.31
546.123	24.34
546.549	24.35
546.976	24.36
547.403	24.38
547.829	24.39
548.256	24.39
548.682	24.42
549.108	24.43
549.535	24.45
549.961	24.46
550.387	24.47
550.813	24.46
551.24	24.46
551.666	24.46
552.092	24.45
552.518	24.45
552.943	24.44
553.369	24.42
553.795	24.41
554.221	24.38
554.646	24.37
555.072	24.35
555.498	24.32
555.923	24.29
556.349	24.24
556.774	24.21
557.199	24.16
557.625	24.12
558.05	24.05
558.475	24
558.9	23.95
559.325	23.92
559.75	23.88
560.175	23.83
560.6	23.77
561.025	23.73
561.449	23.66
561.874	23.59
562.299	23.54
562.723	23.48
563.148	23.41
563.572	23.32
563.997	23.21
564.421	23.11
564.846	23.02
565.27	22.93
565.694	22.84
566.118	22.75
566.542	22.66
566.966	22.55
567.39	22.46
567.814	22.36
568.238	22.27
568.662	22.18
569.086	22.1
569.509	22.02
569.933	21.93
570.357	21.83
570.78	21.73
571.204	21.64
571.627	21.54
572.05	21.45
572.474	21.37
572.897	21.29
573.32	21.19
573.743	21.08
574.166	20.98
574.589	20.87
575.012	20.79
575.435	20.7
575.858	20.6
576.281	20.52
576.704	20.43
577.126	20.35
577.549	20.26
577.972	20.17
578.394	20.09
578.817	20.03
579.239	19.97
579.661	19.91
580.084	19.84
580.506	19.8
580.928	19.74
581.35	19.69
581.772	19.62
582.194	19.56
582.616	19.51
583.038	19.47
583.46	19.39
583.882	19.32
584.303	19.26
584.725	19.2
585.147	19.13
585.568	19.08
585.99	19.03
586.411	18.98
586.833	18.94
587.254	18.88
587.675	18.83
588.096	18.8
588.518	18.76
588.939	18.72
589.36	18.67
589.781	18.64
590.202	18.6
590.623	18.56
591.043	18.52
591.464	18.49
591.885	18.45
592.305	18.42
592.726	18.39
593.147	18.38
593.567	18.33
593.987	18.31
594.408	18.28
594.828	18.26
595.248	18.23
595.669	18.2
596.089	18.18
596.509	18.17
596.929	18.15
597.349	18.11
597.769	18.07
598.189	18.05
598.608	18.03
599.028	18
599.448	17.97
599.867	17.94
600.287	17.92
600.706	17.88
601.126	17.84
601.545	17.81
601.965	17.77
602.384	17.75
602.803	17.72
603.222	17.68
603.641	17.64
604.061	17.6
604.48	17.53
604.898	17.47
605.317	17.42
605.736	17.38
606.155	17.32
606.574	17.27
606.992	17.2
607.411	17.14
607.829	17.06
608.248	16.99
608.666	16.92
609.085	16.86
609.503	16.8
609.921	16.74
610.339	16.67
610.758	16.59
611.176	16.52
611.594	16.46
612.012	16.38
612.43	16.32
612.847	16.25
613.265	16.18
613.683	16.11
614.101	16.04
614.518	15.97
614.936	15.9
615.353	15.82
615.771	15.78
616.188	15.7
616.606	15.63
617.023	15.58
617.44	15.54
617.857	15.5
618.274	15.46
618.691	15.41
619.108	15.37
619.525	15.33
619.942	15.31
620.359	15.27
620.776	15.24
621.192	15.23
621.609	15.21
622.026	15.16
622.442	15.13
622.859	15.1
623.275	15.08
623.691	15.06
624.108	15.04
624.524	15.01
624.94	15
625.356	14.99
625.772	14.97
626.188	14.96
626.604	14.96
627.02	14.96
627.436	14.96
627.852	14.94
628.268	14.94
628.683	14.94
629.099	14.93
629.514	14.91
629.93	14.9
630.345	14.88
630.761	14.85
631.176	14.82
631.591	14.79
632.007	14.74
632.422	14.71
632.837	14.66
633.252	14.61
633.667	14.56
634.082	14.51
634.497	14.45
634.911	14.37
635.326	14.3
635.741	14.22
636.155	14.14
636.57	14.06
636.984	13.96
637.399	13.87
637.813	13.76
638.228	13.65
638.642	13.54
639.056	13.42
639.47	13.31
639.884	13.2
640.298	13.07
640.712	12.96
641.126	12.84
641.54	12.73
641.954	12.6
642.368	12.49
642.781	12.38
643.195	12.26
643.609	12.14
644.022	12.03
644.436	11.93
644.849	11.81
645.262	11.71
645.676	11.61
646.089	11.51
646.502	11.44
646.915	11.35
647.328	11.26
647.741	11.19
648.154	11.13
648.567	11.07
648.98	11.01
649.393	10.96
649.805	10.91
650.218	10.86
650.631	10.8
651.043	10.75
651.456	10.69
651.868	10.64
652.28	10.58
652.693	10.52
653.105	10.47
653.517	10.41
653.929	10.35
654.341	10.28
654.753	10.2
655.165	10.11
655.577	10.03
655.989	9.94
656.401	9.85
656.813	9.76
657.224	9.65
657.636	9.54
658.047	9.42
658.459	9.31
658.87	9.19
659.282	9.07
659.693	8.96
660.104	8.83
660.515	8.71
660.926	8.6
661.338	8.47
661.749	8.36
662.159	8.23
662.57	8.13
662.981	8.01
663.392	7.91
663.803	7.81
664.213	7.69
664.624	7.59
665.035	7.5
665.445	7.41
665.855	7.32
666.266	7.24
666.676	7.17
667.086	7.09
667.497	7.01
667.907	6.95
668.317	6.89
668.727	6.85
669.137	6.81
669.547	6.76
669.956	6.72
670.366	6.69
670.776	6.65
671.186	6.62
671.595	6.59
672.005	6.58
672.414	6.57
672.824	6.56
673.233	6.55
673.642	6.54
674.052	6.53
674.461	6.53
674.87	6.53
675.279	6.54
675.688	6.55
676.097	6.57
676.506	6.58
676.915	6.59
677.323	6.61
677.732	6.64
678.141	6.69
678.549	6.74
678.958	6.8
679.366	6.88
679.775	6.94
680.183	7.02
680.592	7.13
681	7.25
681.408	7.38
681.816	7.54
682.224	7.71
682.632	7.88
683.04	8.07
683.448	8.29
683.856	8.5
684.264	8.76
684.671	9.03
685.079	9.32
685.487	9.64
685.894	9.97
686.302	10.32
686.709	10.69
687.116	11.07
687.524	11.47
687.931	11.88
688.338	12.32
688.745	12.75
689.152	13.21
689.559	13.67
689.966	14.12
690.373	14.59
690.78	15.06
691.187	15.54
691.593	16.01
692	16.48
692.407	16.95
692.813	17.43
693.22	17.89
693.626	18.34
694.032	18.79
694.439	19.23
694.845	19.66
695.251	20.08
695.657	20.47
696.063	20.89
696.469	21.28
696.875	21.68
697.281	22.06
697.687	22.44
698.093	22.82
698.498	23.16
698.904	23.51
699.31	23.86
699.715	24.2
700.12	24.54
700.526	24.87
700.931	25.19
701.337	25.48
701.742	25.75
702.147	26.05
702.552	26.33
702.957	26.57
703.362	26.82
703.767	27.06
704.172	27.29
704.577	27.51
704.981	27.73
705.386	27.95
705.791	28.18
706.195	28.41
706.6	28.62
707.004	28.8
707.408	29.03
707.813	29.25
708.217	29.45
708.621	29.65
709.025	29.84
709.43	30.02
709.834	30.19
710.237	30.34
710.641	30.5
711.045	30.64
711.449	30.81
711.853	30.97
712.256	31.11
712.66	31.24
713.064	31.37
713.467	31.51
713.87	31.65
714.274	31.76
714.677	31.91
715.08	32.03
715.484	32.18
715.887	32.31
716.29	32.41
716.693	32.53
717.096	32.65
717.499	32.76
717.901	32.88
718.304	32.99
718.707	33.11
719.109	33.23
719.512	33.32
719.915	33.41
720.317	33.47
720.719	33.53
721.122	33.64
721.524	33.74
721.926	33.8
722.328	33.89
722.731	33.98
723.133	34.06
723.535	34.11
723.937	34.18
724.338	34.24
724.74	34.32
725.142	34.45
725.544	34.49
725.945	34.56
726.347	34.64
726.748	34.68
727.15	34.71
727.551	34.78
727.952	34.83
728.354	34.88
728.755	34.94
729.156	34.99
729.557	34.97
729.958	35
730.359	35.01
730.76	35.06
731.161	35.1
731.562	35.15
731.962	35.16
732.363	35.18
732.763	35.19
733.164	35.19
733.564	35.24
733.965	35.26
734.365	35.33
734.766	35.33
735.166	35.35
735.566	35.37
735.966	35.4
736.366	35.41
736.766	35.42
737.166	35.45
737.566	35.49
737.966	35.5
738.365	35.52
738.765	35.52
739.165	35.56
739.564	35.57
739.964	35.6
740.363	35.59
740.763	35.62
741.162	35.65
741.561	35.67
741.96	35.67
742.36	35.67
742.759	35.69
743.158	35.69
743.557	35.69
743.955	35.71
744.354	35.72
744.753	35.76
745.152	35.76
745.55	35.76
745.949	35.76
746.348	35.77
746.746	35.78
747.144	35.76
747.543	35.77
747.941	35.78
748.339	35.77
748.737	35.75
749.136	35.72
749.534	35.71
749.932	35.73
750.33	35.74
750.727	35.76
751.125	35.76
751.523	35.77
751.921	35.77
752.318	35.77
752.716	35.78
753.113	35.81
753.511	35.82
753.908	35.84
754.305	35.83
754.703	35.82
755.1	35.8
755.497	35.81
755.894	35.79
756.291	35.79
756.688	35.76
757.085	35.76
757.482	35.72
757.878	35.7
758.275	35.68
758.672	35.66
759.068	35.68
759.465	35.66
759.861	35.64
760.258	35.66
760.654	35.67
761.05	35.66
761.447	35.68
761.843	35.69
762.239	35.69
762.635	35.69
763.031	35.7
763.427	35.68
763.822	35.7
764.218	35.73
764.614	35.72
765.01	35.72
765.405	35.71
765.801	35.69
766.196	35.69
766.592	35.7
766.987	35.69
767.382	35.7
767.778	35.69
768.173	35.68
768.568	35.66
768.963	35.66
769.358	35.68
769.753	35.7
770.148	35.7
770.542	35.71
770.937	35.71
771.332	35.73
771.726	35.71
772.121	35.72
772.515	35.72
772.91	35.7
773.304	35.71
773.699	35.71
774.093	35.67
774.487	35.67
774.881	35.65
775.275	35.65
775.669	35.63
776.063	35.61
776.457	35.62
776.851	35.6
777.245	35.58
777.638	35.57
778.032	35.58
778.425	35.59
778.819	35.58
779.212	35.58
779.606	35.58
779.999	35.56
780.392	35.57
780.786	35.54
