Data from C_1_HIR_IL_4N_Splice17_12-49-42-848.txt Node
Date: Sat Mar 07 12:49:42 EST 2020
User: sa697716
Spectrometer: NQ5500242
Trigger mode: 0
Integration Time (sec): 1.450000E-1
Scans to average: 20
Nonlinearity correction enabled: false
Boxcar width: 5
Storing dark spectrum: false
XAxis mode: Wavelengths
Number of Pixels in Spectrum: 512
>>>>>Begin Spectral Data<<<<<
187.83	213.87
188.298	233.98
188.766	196.33
189.233	162.92
189.701	185.87
190.169	220.45
190.636	245.95
191.104	461.53
191.571	491.8
192.039	349.69
192.506	124.53
192.974	96
193.441	151.45
193.908	16.49
194.375	55.08
194.842	55.19
195.31	98.95
195.777	148.72
196.244	47.07
196.711	36.22
197.177	37.73
197.644	36.96
198.111	36.58
198.578	36.78
199.045	37.09
199.511	36.69
199.978	36.73
200.445	36.7
200.911	36.73
201.378	36.85
201.844	36.68
202.31	36.55
202.777	36.67
203.243	36.61
203.709	36.52
204.176	36.1
204.642	36.07
205.108	36.09
205.574	35.92
206.04	35.53
206.506	35.2
206.972	35.33
207.438	35.04
207.903	34.61
208.369	34.05
208.835	33.54
209.301	33.14
209.766	32.31
210.232	31.62
210.697	30.85
211.163	30.34
211.628	29.8
212.094	29.25
212.559	28.82
213.024	28.25
213.49	27.66
213.955	27
214.42	26.51
214.885	26.09
215.35	25.37
215.815	24.34
216.28	22.89
216.745	21.58
217.21	20.12
217.675	18.77
218.14	17.63
218.604	16.7
219.069	15.92
219.534	15.24
219.998	14.63
220.463	14.11
220.927	13.71
221.392	13.36
221.856	13.05
222.32	12.77
222.785	12.54
223.249	12.32
223.713	12.12
224.177	11.94
224.642	11.74
225.106	11.56
225.57	11.4
226.034	11.22
226.497	11.09
226.961	10.95
227.425	10.82
227.889	10.69
228.353	10.57
228.816	10.43
229.28	10.29
229.744	10.17
230.207	10.05
230.671	9.91
231.134	9.82
231.597	9.71
232.061	9.6
232.524	9.49
232.987	9.37
233.45	9.27
233.914	9.17
234.377	9.08
234.84	8.97
235.303	8.89
235.766	8.82
236.229	8.72
236.691	8.63
237.154	8.55
237.617	8.48
238.08	8.4
238.542	8.31
239.005	8.25
239.468	8.17
239.93	8.1
240.393	8.03
240.855	7.95
241.317	7.88
241.78	7.81
242.242	7.72
242.704	7.65
243.166	7.59
243.629	7.53
244.091	7.47
244.553	7.4
245.015	7.34
245.477	7.28
245.939	7.22
246.4	7.17
246.862	7.12
247.324	7.07
247.786	7.01
248.247	6.95
248.709	6.9
249.17	6.83
249.632	6.78
250.093	6.74
250.555	6.68
251.016	6.64
251.477	6.58
251.939	6.53
252.4	6.49
252.861	6.45
253.322	6.41
253.783	6.38
254.244	6.35
254.705	6.31
255.166	6.27
255.627	6.23
256.088	6.2
256.549	6.17
257.009	6.13
257.47	6.1
257.931	6.06
258.391	6.01
258.852	5.97
259.312	5.93
259.773	5.9
260.233	5.87
260.694	5.85
261.154	5.81
261.614	5.78
262.074	5.76
262.534	5.73
262.994	5.71
263.455	5.7
263.915	5.68
264.374	5.66
264.834	5.65
265.294	5.63
265.754	5.62
266.214	5.61
266.673	5.59
267.133	5.58
267.593	5.57
268.052	5.55
268.512	5.54
268.971	5.52
269.431	5.5
269.89	5.48
270.349	5.47
270.809	5.45
271.268	5.43
271.727	5.42
272.186	5.4
272.645	5.39
273.104	5.37
273.563	5.35
274.022	5.33
274.481	5.32
274.94	5.3
275.399	5.28
275.857	5.27
276.316	5.25
276.775	5.24
277.233	5.23
277.692	5.22
278.15	5.2
278.609	5.19
279.067	5.17
279.525	5.17
279.984	5.15
280.442	5.13
280.9	5.12
281.358	5.1
281.816	5.09
282.274	5.07
282.732	5.05
283.19	5.03
283.648	5.02
284.106	5
284.564	4.98
285.021	4.98
285.479	4.96
285.937	4.95
286.394	4.94
286.852	4.92
287.309	4.91
287.767	4.89
288.224	4.87
288.682	4.85
289.139	4.83
289.596	4.81
290.053	4.78
290.511	4.76
290.968	4.74
291.425	4.72
291.882	4.7
292.339	4.68
292.796	4.67
293.252	4.66
293.709	4.65
294.166	4.64
294.623	4.63
295.079	4.62
295.536	4.61
295.992	4.6
296.449	4.59
296.905	4.58
297.362	4.56
297.818	4.55
298.274	4.54
298.731	4.52
299.187	4.5
299.643	4.49
300.099	4.48
300.555	4.47
301.011	4.45
301.467	4.43
301.923	4.42
302.379	4.41
302.835	4.41
303.291	4.39
303.746	4.39
304.202	4.38
304.658	4.37
305.113	4.36
305.569	4.35
306.024	4.34
306.479	4.33
306.935	4.32
307.39	4.31
307.845	4.3
308.301	4.3
308.756	4.29
309.211	4.28
309.666	4.28
310.121	4.27
310.576	4.27
311.031	4.27
311.486	4.27
311.94	4.27
312.395	4.26
312.85	4.25
313.305	4.24
313.759	4.24
314.214	4.24
314.668	4.23
315.123	4.22
315.577	4.22
316.032	4.2
316.486	4.19
316.94	4.17
317.394	4.17
317.849	4.16
318.303	4.15
318.757	4.13
319.211	4.11
319.665	4.09
320.119	4.07
320.572	4.06
321.026	4.05
321.48	4.03
321.934	4.02
322.387	4.01
322.841	4
323.295	3.99
323.748	3.98
324.202	3.98
324.655	3.97
325.108	3.97
325.562	3.97
326.015	3.98
326.468	3.97
326.921	3.97
327.374	3.96
327.827	3.96
328.28	3.95
328.733	3.95
329.186	3.95
329.639	3.95
330.092	3.95
330.545	3.94
330.997	3.93
331.45	3.94
331.903	3.94
332.355	3.94
332.808	3.93
333.26	3.93
333.713	3.92
334.165	3.91
334.617	3.91
335.069	3.9
335.522	3.91
335.974	3.9
336.426	3.89
336.878	3.89
337.33	3.89
337.782	3.89
338.234	3.9
338.686	3.9
339.137	3.9
339.589	3.89
340.041	3.88
340.493	3.87
340.944	3.85
341.396	3.84
341.847	3.83
342.299	3.81
342.75	3.79
343.201	3.77
343.653	3.75
344.104	3.72
344.555	3.71
345.006	3.7
345.457	3.69
345.908	3.69
346.359	3.69
346.81	3.68
347.261	3.68
347.712	3.68
348.163	3.67
348.613	3.68
349.064	3.67
349.515	3.67
349.965	3.67
350.416	3.67
350.866	3.66
351.317	3.65
351.767	3.65
352.217	3.65
352.668	3.64
353.118	3.64
353.568	3.63
354.018	3.64
354.468	3.64
354.918	3.64
355.368	3.63
355.818	3.63
356.268	3.62
356.718	3.62
357.168	3.62
357.617	3.61
358.067	3.61
358.517	3.62
358.966	3.62
359.416	3.62
359.865	3.61
360.315	3.62
360.764	3.61
361.213	3.61
361.663	3.6
362.112	3.6
362.561	3.61
363.01	3.6
363.459	3.57
363.908	3.56
364.357	3.56
364.806	3.56
365.255	3.55
365.703	3.56
366.152	3.57
366.601	3.57
367.05	3.58
367.498	3.57
367.947	3.57
368.395	3.59
368.844	3.59
369.292	3.59
369.74	3.6
370.189	3.6
370.637	3.61
371.085	3.59
371.533	3.58
371.981	3.58
372.429	3.58
372.877	3.59
373.325	3.58
373.773	3.59
374.221	3.59
374.669	3.58
375.116	3.58
375.564	3.58
376.012	3.59
376.459	3.59
376.907	3.6
377.354	3.61
377.801	3.62
378.249	3.63
378.696	3.63
379.143	3.64
379.591	3.66
380.038	3.67
380.485	3.68
380.932	3.68
381.379	3.69
381.826	3.7
382.273	3.71
382.72	3.71
383.166	3.72
383.613	3.72
384.06	3.73
384.506	3.74
384.953	3.75
385.4	3.76
385.846	3.79
386.292	3.8
386.739	3.81
387.185	3.82
387.631	3.84
388.078	3.86
388.524	3.88
388.97	3.89
389.416	3.91
389.862	3.92
390.308	3.94
390.754	3.95
391.2	3.97
391.645	3.99
392.091	4.01
392.537	4.02
392.983	4.05
393.428	4.07
393.874	4.08
394.319	4.09
394.765	4.1
395.21	4.11
395.655	4.12
396.101	4.14
396.546	4.15
396.991	4.16
397.436	4.18
397.881	4.2
398.326	4.22
398.771	4.24
399.216	4.26
399.661	4.28
400.106	4.29
400.551	4.3
400.995	4.29
401.44	4.3
401.885	4.3
402.329	4.31
402.774	4.31
403.218	4.33
403.663	4.33
404.107	4.33
404.551	4.33
404.995	4.33
405.44	4.33
405.884	4.35
406.328	4.36
406.772	4.36
407.216	4.36
407.66	4.36
408.104	4.35
408.547	4.36
408.991	4.37
409.435	4.37
409.879	4.39
410.322	4.4
410.766	4.41
411.209	4.43
411.653	4.45
412.096	4.46
412.54	4.47
412.983	4.47
413.426	4.49
413.869	4.51
414.312	4.53
414.756	4.53
415.199	4.52
415.642	4.51
416.085	4.5
416.527	4.48
416.97	4.48
417.413	4.46
417.856	4.46
418.298	4.45
418.741	4.43
419.184	4.42
419.626	4.41
420.069	4.42
420.511	4.42
420.953	4.43
421.396	4.44
421.838	4.45
422.28	4.47
422.722	4.49
423.164	4.49
423.606	4.49
424.048	4.5
424.49	4.5
424.932	4.5
425.374	4.49
425.816	4.48
426.258	4.46
426.699	4.44
427.141	4.43
427.582	4.42
428.024	4.41
428.465	4.41
428.907	4.38
429.348	4.37
429.789	4.36
430.231	4.37
430.672	4.38
431.113	4.39
431.554	4.4
431.995	4.4
432.436	4.41
432.877	4.42
433.318	4.45
433.759	4.47
434.2	4.49
434.64	4.5
435.081	4.51
435.522	4.51
435.962	4.53
436.403	4.55
436.843	4.56
437.284	4.56
437.724	4.55
438.164	4.53
438.604	4.55
439.045	4.55
439.485	4.55
439.925	4.56
440.365	4.56
440.805	4.55
441.245	4.56
441.685	4.57
442.125	4.59
442.564	4.6
443.004	4.61
443.444	4.63
443.883	4.63
444.323	4.63
444.762	4.64
445.202	4.65
445.641	4.68
446.081	4.69
446.52	4.69
446.959	4.7
447.398	4.72
447.837	4.73
448.276	4.74
448.716	4.76
449.154	4.78
449.593	4.79
450.032	4.8
450.471	4.77
450.91	4.77
451.349	4.79
451.787	4.79
452.226	4.78
452.664	4.77
453.103	4.76
453.541	4.76
453.98	4.76
454.418	4.74
454.856	4.73
455.295	4.73
455.733	4.71
456.171	4.7
456.609	4.69
457.047	4.68
457.485	4.68
457.923	4.67
458.361	4.66
458.798	4.66
459.236	4.66
459.674	4.66
460.111	4.66
460.549	4.67
460.987	4.67
461.424	4.68
461.862	4.69
462.299	4.69
462.736	4.7
463.173	4.71
463.611	4.69
464.048	4.7
464.485	4.69
464.922	4.7
465.359	4.7
465.796	4.7
466.233	4.69
466.67	4.7
467.106	4.71
467.543	4.71
467.98	4.7
468.416	4.72
468.853	4.72
469.29	4.73
469.726	4.73
470.162	4.71
470.599	4.72
471.035	4.71
471.471	4.71
471.907	4.7
472.344	4.7
472.78	4.7
473.216	4.69
473.652	4.69
474.088	4.67
474.523	4.67
474.959	4.67
475.395	4.67
475.831	4.66
476.266	4.65
476.702	4.64
477.138	4.64
477.573	4.64
478.008	4.63
478.444	4.63
478.879	4.64
479.314	4.63
479.75	4.62
480.185	4.6
480.62	4.59
481.055	4.59
481.49	4.58
481.925	4.58
482.36	4.57
482.795	4.56
483.229	4.55
483.664	4.54
484.099	4.54
484.534	4.55
484.968	4.56
485.403	4.57
485.837	4.58
486.271	4.59
486.706	4.59
487.14	4.6
487.574	4.62
488.009	4.64
488.443	4.65
488.877	4.67
489.311	4.69
489.745	4.71
490.179	4.74
490.613	4.77
491.046	4.78
491.48	4.81
491.914	4.85
492.348	4.88
492.781	4.92
493.215	4.96
493.648	5
494.082	5.04
494.515	5.07
494.948	5.12
495.382	5.16
495.815	5.22
496.248	5.27
496.681	5.33
497.114	5.39
497.547	5.46
497.98	5.54
498.413	5.61
498.846	5.69
499.279	5.77
499.711	5.84
500.144	5.94
500.577	6.03
501.009	6.12
501.442	6.23
501.874	6.34
502.306	6.44
502.739	6.56
503.171	6.68
503.603	6.81
504.036	6.94
504.468	7.09
504.9	7.23
505.332	7.38
505.764	7.54
506.196	7.69
506.627	7.88
507.059	8.06
507.491	8.24
507.923	8.43
508.354	8.64
508.786	8.84
509.217	9.06
509.649	9.28
510.08	9.51
510.512	9.75
510.943	9.99
511.374	10.22
511.805	10.48
512.237	10.74
512.668	10.99
513.099	11.26
513.53	11.53
513.961	11.8
514.391	12.08
514.822	12.36
515.253	12.65
515.684	12.94
516.114	13.23
516.545	13.53
516.975	13.83
517.406	14.14
517.836	14.44
518.267	14.76
518.697	15.06
519.127	15.36
519.558	15.66
519.988	15.96
520.418	16.25
520.848	16.54
521.278	16.82
521.708	17.23
522.138	17.51
522.567	17.78
522.997	18.03
523.427	18.3
523.857	18.56
524.286	18.8
524.716	19.04
525.145	19.29
525.575	19.53
526.004	19.75
526.433	19.84
526.863	20.05
527.292	20.26
527.721	20.45
528.15	20.63
528.579	20.81
529.008	20.98
529.437	21.14
529.866	21.3
530.295	21.44
530.724	21.59
531.152	21.73
531.581	21.86
532.01	22
532.438	22.13
532.867	22.26
533.295	22.38
533.723	22.49
534.152	22.59
534.58	22.69
535.008	22.77
535.436	22.86
535.865	22.93
536.293	23
536.721	23.08
537.149	23.14
537.576	23.18
538.004	23.24
538.432	23.28
538.86	23.33
539.287	23.37
539.715	23.43
540.143	23.47
540.57	23.53
540.998	23.57
541.425	23.61
541.852	23.66
542.28	23.7
542.707	23.74
543.134	23.79
543.561	23.84
543.988	23.87
544.415	23.91
544.842	23.94
545.269	23.97
545.696	24
546.123	24.03
546.549	24.05
546.976	24.09
547.403	24.12
547.829	24.14
548.256	24.16
548.682	24.18
549.108	24.2
549.535	24.21
549.961	24.22
550.387	24.23
550.813	24.24
551.24	24.23
551.666	24.22
552.092	24.2
552.518	24.19
552.943	24.17
553.369	24.15
553.795	24.13
554.221	24.1
554.646	24.06
555.072	24.01
555.498	23.95
555.923	23.88
556.349	23.82
556.774	23.76
557.199	23.7
557.625	23.62
558.05	23.53
558.475	23.46
558.9	23.36
559.325	23.29
559.75	23.2
560.175	23.12
560.6	23.04
561.025	22.93
561.449	22.83
561.874	22.7
562.299	22.59
562.723	22.47
563.148	22.33
563.572	22.2
563.997	22.05
564.421	21.9
564.846	21.74
565.27	21.58
565.694	21.43
566.118	21.28
566.542	21.13
566.966	20.96
567.39	20.81
567.814	20.65
568.238	20.5
568.662	20.33
569.086	20.18
569.509	20.03
569.933	19.88
570.357	19.72
570.78	19.56
571.204	19.42
571.627	19.28
572.05	19.13
572.474	18.99
572.897	18.85
573.32	18.72
573.743	18.58
574.166	18.45
574.589	18.31
575.012	18.18
575.435	18.06
575.858	17.93
576.281	17.8
576.704	17.68
577.126	17.56
577.549	17.44
577.972	17.32
578.394	17.22
578.817	17.12
579.239	17.03
579.661	16.94
580.084	16.85
580.506	16.77
580.928	16.68
581.35	16.59
581.772	16.51
582.194	16.44
582.616	16.36
583.038	16.28
583.46	16.19
583.882	16.1
584.303	16.01
584.725	15.94
585.147	15.85
585.568	15.77
585.99	15.71
586.411	15.64
586.833	15.57
587.254	15.5
587.675	15.45
588.096	15.4
588.518	15.35
588.939	15.31
589.36	15.24
589.781	15.21
590.202	15.18
590.623	15.13
591.043	15.08
591.464	15.04
591.885	14.99
592.305	14.94
592.726	14.92
593.147	14.88
593.567	14.85
593.987	14.81
594.408	14.77
594.828	14.72
595.248	14.69
595.669	14.67
596.089	14.64
596.509	14.62
596.929	14.6
597.349	14.57
597.769	14.53
598.189	14.49
598.608	14.46
599.028	14.42
599.448	14.38
599.867	14.34
600.287	14.3
600.706	14.25
601.126	14.2
601.545	14.14
601.965	14.1
602.384	14.05
602.803	13.99
603.222	13.94
603.641	13.88
604.061	13.83
604.48	13.75
604.898	13.68
605.317	13.61
605.736	13.54
606.155	13.48
606.574	13.39
606.992	13.32
607.411	13.25
607.829	13.14
608.248	13.05
608.666	12.96
609.085	12.88
609.503	12.81
609.921	12.73
610.339	12.65
610.758	12.56
611.176	12.47
611.594	12.38
612.012	12.29
612.43	12.23
612.847	12.15
613.265	12.07
613.683	11.99
614.101	11.91
614.518	11.83
614.936	11.75
615.353	11.68
615.771	11.61
616.188	11.55
616.606	11.49
617.023	11.43
617.44	11.38
617.857	11.32
618.274	11.26
618.691	11.21
619.108	11.17
619.525	11.11
619.942	11.07
620.359	11.03
620.776	10.99
621.192	10.94
621.609	10.91
622.026	10.89
622.442	10.86
622.859	10.83
623.275	10.8
623.691	10.78
624.108	10.77
624.524	10.76
624.94	10.74
625.356	10.73
625.772	10.72
626.188	10.7
626.604	10.69
627.02	10.67
627.436	10.67
627.852	10.67
628.268	10.64
628.683	10.62
629.099	10.6
629.514	10.59
629.93	10.57
630.345	10.54
630.761	10.51
631.176	10.48
631.591	10.44
632.007	10.4
632.422	10.35
632.837	10.31
633.252	10.26
633.667	10.2
634.082	10.14
634.497	10.09
634.911	10.02
635.326	9.94
635.741	9.87
636.155	9.79
636.57	9.7
636.984	9.61
637.399	9.51
637.813	9.41
638.228	9.31
638.642	9.2
639.056	9.08
639.47	8.98
639.884	8.88
640.298	8.77
640.712	8.66
641.126	8.54
641.54	8.42
641.954	8.31
642.368	8.19
642.781	8.09
643.195	7.99
643.609	7.89
644.022	7.78
644.436	7.69
644.849	7.6
645.262	7.5
645.676	7.42
646.089	7.34
646.502	7.28
646.915	7.22
647.328	7.15
647.741	7.08
648.154	7.02
648.567	6.97
648.98	6.91
649.393	6.86
649.805	6.82
650.218	6.78
650.631	6.75
651.043	6.69
651.456	6.65
651.868	6.61
652.28	6.56
652.693	6.52
653.105	6.47
653.517	6.42
653.929	6.38
654.341	6.32
654.753	6.26
655.165	6.19
655.577	6.14
655.989	6.07
656.401	6
656.813	5.94
657.224	5.86
657.636	5.79
658.047	5.72
658.459	5.64
658.87	5.56
659.282	5.49
659.693	5.41
660.104	5.33
660.515	5.25
660.926	5.17
661.338	5.1
661.749	5.03
662.159	4.96
662.57	4.9
662.981	4.85
663.392	4.79
663.803	4.74
664.213	4.69
664.624	4.65
665.035	4.6
665.445	4.56
665.855	4.52
666.266	4.5
666.676	4.48
667.086	4.43
667.497	4.4
667.907	4.38
668.317	4.36
668.727	4.34
669.137	4.32
669.547	4.32
669.956	4.32
670.366	4.31
670.776	4.31
671.186	4.3
671.595	4.3
672.005	4.3
672.414	4.31
672.824	4.31
673.233	4.33
673.642	4.34
674.052	4.34
674.461	4.36
674.87	4.37
675.279	4.39
675.688	4.42
676.097	4.44
676.506	4.46
676.915	4.48
677.323	4.51
677.732	4.54
678.141	4.57
678.549	4.61
678.958	4.64
679.366	4.69
679.775	4.73
680.183	4.78
680.592	4.85
681	4.91
681.408	4.99
681.816	5.06
682.224	5.15
682.632	5.24
683.04	5.34
683.448	5.47
683.856	5.59
684.264	5.74
684.671	5.89
685.079	6.07
685.487	6.27
685.894	6.49
686.302	6.73
686.709	7
687.116	7.3
687.524	7.61
687.931	7.94
688.338	8.3
688.745	8.68
689.152	9.09
689.559	9.53
689.966	9.99
690.373	10.46
690.78	10.96
691.187	11.47
691.593	12
692	12.54
692.407	13.08
692.813	13.66
693.22	14.24
693.626	14.84
694.032	15.42
694.439	16.03
694.845	16.63
695.251	17.23
695.657	17.84
696.063	18.45
696.469	19.07
696.875	19.69
697.281	20.28
697.687	20.89
698.093	21.47
698.498	22.06
698.904	22.64
699.31	23.21
699.715	23.78
700.12	24.33
700.526	24.88
700.931	25.44
701.337	25.98
701.742	26.52
702.147	27.05
702.552	27.58
702.957	28.08
703.362	28.56
703.767	29.04
704.172	29.53
704.577	30.01
704.981	30.47
705.386	30.92
705.791	31.35
706.195	31.78
706.6	32.2
707.004	32.62
707.408	33.05
707.813	33.47
708.217	33.88
708.621	34.27
709.025	34.67
709.43	35.05
709.834	35.42
710.237	35.79
710.641	36.16
711.045	36.51
711.449	36.85
711.853	37.2
712.256	37.52
712.66	37.86
713.064	38.2
713.467	38.51
713.87	38.83
714.274	39.14
714.677	39.46
715.08	39.73
715.484	40.06
715.887	40.38
716.29	40.66
716.693	40.95
717.096	41.24
717.499	41.52
717.901	41.81
718.304	42.09
718.707	42.34
719.109	42.58
719.512	42.84
719.915	43.07
720.317	43.28
720.719	43.48
721.122	43.7
721.524	43.92
721.926	44.11
722.328	44.3
722.731	44.49
723.133	44.71
723.535	44.91
723.937	45.1
724.338	45.27
724.74	45.46
725.142	45.72
725.544	45.87
725.945	46.06
726.347	46.22
726.748	46.35
727.15	46.48
727.551	46.64
727.952	46.74
728.354	46.88
728.755	47.01
729.156	47.11
729.557	47.15
729.958	47.27
730.359	47.35
730.76	47.46
731.161	47.55
731.562	47.67
731.962	47.72
732.363	47.85
732.763	47.93
733.164	48.01
733.564	48.11
733.965	48.19
734.365	48.29
734.766	48.37
735.166	48.43
735.566	48.52
735.966	48.58
736.366	48.64
736.766	48.69
737.166	48.76
737.566	48.8
737.966	48.84
738.365	48.88
738.765	48.93
739.165	48.96
739.564	49.02
739.964	49.07
740.363	49.1
740.763	49.15
741.162	49.2
741.561	49.22
741.96	49.27
742.36	49.28
742.759	49.33
743.158	49.35
743.557	49.35
743.955	49.38
744.354	49.39
744.753	49.43
745.152	49.48
745.55	49.49
745.949	49.54
746.348	49.58
746.746	49.62
747.144	49.64
747.543	49.66
747.941	49.69
748.339	49.67
748.737	49.69
749.136	49.71
749.534	49.7
749.932	49.72
750.33	49.7
750.727	49.71
751.125	49.71
751.523	49.71
751.921	49.72
752.318	49.74
752.716	49.78
753.113	49.81
753.511	49.85
753.908	49.89
754.305	49.91
754.703	49.91
755.1	49.9
755.497	49.92
755.894	49.92
756.291	49.92
756.688	49.92
757.085	49.93
757.482	49.89
757.878	49.87
758.275	49.84
758.672	49.84
759.068	49.87
759.465	49.85
759.861	49.87
760.258	49.88
760.654	49.89
761.05	49.88
761.447	49.88
761.843	49.91
762.239	49.91
762.635	49.91
763.031	49.9
763.427	49.86
763.822	49.9
764.218	49.9
764.614	49.91
765.01	49.88
765.405	49.89
765.801	49.87
766.196	49.87
766.592	49.84
766.987	49.84
767.382	49.81
767.778	49.83
768.173	49.82
768.568	49.82
768.963	49.79
769.358	49.82
769.753	49.81
770.148	49.82
770.542	49.82
770.937	49.84
771.332	49.83
771.726	49.88
772.121	49.87
772.515	49.88
772.91	49.87
773.304	49.89
773.699	49.87
774.093	49.88
774.487	49.87
774.881	49.88
775.275	49.86
775.669	49.87
776.063	49.84
776.457	49.86
776.851	49.83
777.245	49.8
777.638	49.8
778.032	49.82
778.425	49.82
778.819	49.82
779.212	49.82
779.606	49.84
779.999	49.84
780.392	49.85
780.786	49.84
781.179	49.9
781.572	49.95
781.965	49.95
782.358	49.95
782.751	49.96
