Data from C_1_DEC_CT_2N_Splice17_12-56-36-283.txt Node
Date: Sat Mar 07 12:56:36 EST 2020
User: sa697716
Spectrometer: NQ5500242
Trigger mode: 0
Integration Time (sec): 1.450000E-1
Scans to average: 20
Nonlinearity correction enabled: false
Boxcar width: 5
Storing dark spectrum: false
XAxis mode: Wavelengths
Number of Pixels in Spectrum: 512
>>>>>Begin Spectral Data<<<<<
187.83	162.32
188.298	144.39
188.766	112.54
189.233	107.74
189.701	106.78
190.169	124.11
190.636	105.37
191.104	111.45
191.571	113.06
192.039	79.57
192.506	28.56
192.974	74.76
193.441	49.1
193.908	-23.09
194.375	-8.23
194.842	-42.49
195.31	-19.5
195.777	-229.05
196.244	23.73
196.711	38.72
197.177	40.69
197.644	40.18
198.111	39.41
198.578	39.01
199.045	39.2
199.511	38.99
199.978	38.58
200.445	38.61
200.911	38.63
201.378	38.82
201.844	38.53
202.31	38.22
202.777	38.22
203.243	38.34
203.709	38.09
204.176	37.85
204.642	37.69
205.108	37.86
205.574	37.9
206.04	37.8
206.506	37.35
206.972	37.21
207.438	36.9
207.903	36.46
208.369	35.63
208.835	35.08
209.301	34.31
209.766	33.49
210.232	32.56
210.697	31.43
211.163	30.54
211.628	29.9
212.094	29.17
212.559	28.56
213.024	27.74
213.49	27.3
213.955	26.61
214.42	26.13
214.885	25.45
215.35	24.66
215.815	23.51
216.28	21.88
216.745	20.08
217.21	18.43
217.675	16.75
218.14	15.46
218.604	14.28
219.069	13.33
219.534	12.49
219.998	11.87
220.463	11.3
220.927	10.8
221.392	10.4
221.856	10.11
222.32	9.82
222.785	9.63
223.249	9.4
223.713	9.21
224.177	9.04
224.642	8.88
225.106	8.66
225.57	8.48
226.034	8.35
226.497	8.21
226.961	8.07
227.425	7.94
227.889	7.81
228.353	7.69
228.816	7.56
229.28	7.43
229.744	7.31
230.207	7.22
230.671	7.1
231.134	7
231.597	6.93
232.061	6.83
232.524	6.73
232.987	6.64
233.45	6.58
233.914	6.5
234.377	6.42
234.84	6.35
235.303	6.29
235.766	6.25
236.229	6.18
236.691	6.11
237.154	6.04
237.617	6
238.08	5.93
238.542	5.86
239.005	5.81
239.468	5.76
239.93	5.7
240.393	5.64
240.855	5.56
241.317	5.51
241.78	5.45
242.242	5.4
242.704	5.37
243.166	5.31
243.629	5.27
244.091	5.21
244.553	5.16
245.015	5.12
245.477	5.07
245.939	5.04
246.4	4.99
246.862	4.95
247.324	4.9
247.786	4.85
248.247	4.81
248.709	4.76
249.17	4.71
249.632	4.69
250.093	4.65
250.555	4.61
251.016	4.58
251.477	4.55
251.939	4.52
252.4	4.49
252.861	4.46
253.322	4.43
253.783	4.41
254.244	4.39
254.705	4.35
255.166	4.32
255.627	4.3
256.088	4.29
256.549	4.27
257.009	4.24
257.47	4.21
257.931	4.17
258.391	4.15
258.852	4.12
259.312	4.09
259.773	4.06
260.233	4.04
260.694	4.01
261.154	3.98
261.614	3.95
262.074	3.92
262.534	3.9
262.994	3.88
263.455	3.85
263.915	3.84
264.374	3.82
264.834	3.81
265.294	3.79
265.754	3.78
266.214	3.76
266.673	3.75
267.133	3.74
267.593	3.73
268.052	3.72
268.512	3.7
268.971	3.69
269.431	3.68
269.89	3.66
270.349	3.66
270.809	3.64
271.268	3.63
271.727	3.62
272.186	3.6
272.645	3.6
273.104	3.58
273.563	3.57
274.022	3.56
274.481	3.55
274.94	3.55
275.399	3.53
275.857	3.52
276.316	3.52
276.775	3.51
277.233	3.51
277.692	3.49
278.15	3.49
278.609	3.49
279.067	3.48
279.525	3.47
279.984	3.47
280.442	3.46
280.9	3.46
281.358	3.45
281.816	3.45
282.274	3.44
282.732	3.43
283.19	3.42
283.648	3.41
284.106	3.41
284.564	3.4
285.021	3.38
285.479	3.37
285.937	3.36
286.394	3.35
286.852	3.34
287.309	3.34
287.767	3.32
288.224	3.31
288.682	3.3
289.139	3.28
289.596	3.27
290.053	3.25
290.511	3.24
290.968	3.23
291.425	3.21
291.882	3.21
292.339	3.19
292.796	3.19
293.252	3.18
293.709	3.17
294.166	3.16
294.623	3.16
295.079	3.15
295.536	3.15
295.992	3.14
296.449	3.13
296.905	3.12
297.362	3.12
297.818	3.11
298.274	3.11
298.731	3.1
299.187	3.09
299.643	3.08
300.099	3.09
300.555	3.08
301.011	3.08
301.467	3.08
301.923	3.08
302.379	3.08
302.835	3.07
303.291	3.07
303.746	3.06
304.202	3.06
304.658	3.06
305.113	3.05
305.569	3.05
306.024	3.04
306.479	3.04
306.935	3.03
307.39	3.03
307.845	3.03
308.301	3.03
308.756	3.03
309.211	3.02
309.666	3.03
310.121	3.03
310.576	3.03
311.031	3.04
311.486	3.04
311.94	3.04
312.395	3.04
312.85	3.04
313.305	3.04
313.759	3.04
314.214	3.04
314.668	3.03
315.123	3.03
315.577	3.02
316.032	3.01
316.486	3.01
316.94	3.01
317.394	3
317.849	2.99
318.303	2.98
318.757	2.96
319.211	2.95
319.665	2.94
320.119	2.94
320.572	2.93
321.026	2.93
321.48	2.92
321.934	2.9
322.387	2.89
322.841	2.88
323.295	2.89
323.748	2.89
324.202	2.88
324.655	2.88
325.108	2.88
325.562	2.88
326.015	2.87
326.468	2.87
326.921	2.87
327.374	2.87
327.827	2.87
328.28	2.87
328.733	2.87
329.186	2.87
329.639	2.87
330.092	2.87
330.545	2.86
330.997	2.86
331.45	2.87
331.903	2.88
332.355	2.88
332.808	2.88
333.26	2.88
333.713	2.88
334.165	2.88
334.617	2.88
335.069	2.87
335.522	2.88
335.974	2.88
336.426	2.87
336.878	2.86
337.33	2.86
337.782	2.85
338.234	2.86
338.686	2.86
339.137	2.86
339.589	2.86
340.041	2.86
340.493	2.86
340.944	2.84
341.396	2.83
341.847	2.83
342.299	2.82
342.75	2.82
343.201	2.81
343.653	2.79
344.104	2.78
344.555	2.77
345.006	2.76
345.457	2.75
345.908	2.74
346.359	2.75
346.81	2.74
347.261	2.75
347.712	2.73
348.163	2.72
348.613	2.73
349.064	2.73
349.515	2.74
349.965	2.75
350.416	2.74
350.866	2.74
351.317	2.74
351.767	2.74
352.217	2.73
352.668	2.73
353.118	2.74
353.568	2.73
354.018	2.72
354.468	2.72
354.918	2.73
355.368	2.73
355.818	2.73
356.268	2.73
356.718	2.73
357.168	2.72
357.617	2.72
358.067	2.72
358.517	2.73
358.966	2.73
359.416	2.74
359.865	2.73
360.315	2.73
360.764	2.74
361.213	2.73
361.663	2.73
362.112	2.74
362.561	2.76
363.01	2.76
363.459	2.74
363.908	2.74
364.357	2.75
364.806	2.74
365.255	2.74
365.703	2.74
366.152	2.74
366.601	2.75
367.05	2.75
367.498	2.74
367.947	2.75
368.395	2.76
368.844	2.76
369.292	2.76
369.74	2.77
370.189	2.77
370.637	2.76
371.085	2.76
371.533	2.75
371.981	2.75
372.429	2.75
372.877	2.74
373.325	2.73
373.773	2.73
374.221	2.72
374.669	2.72
375.116	2.71
375.564	2.71
376.012	2.71
376.459	2.7
376.907	2.7
377.354	2.69
377.801	2.69
378.249	2.69
378.696	2.69
379.143	2.69
379.591	2.7
380.038	2.7
380.485	2.7
380.932	2.7
381.379	2.71
381.826	2.71
382.273	2.72
382.72	2.7
383.166	2.7
383.613	2.7
384.06	2.69
384.506	2.68
384.953	2.69
385.4	2.69
385.846	2.7
386.292	2.69
386.739	2.69
387.185	2.69
387.631	2.7
388.078	2.69
388.524	2.7
388.97	2.7
389.416	2.7
389.862	2.7
390.308	2.71
390.754	2.71
391.2	2.72
391.645	2.73
392.091	2.74
392.537	2.75
392.983	2.76
393.428	2.76
393.874	2.77
394.319	2.78
394.765	2.78
395.21	2.78
395.655	2.8
396.101	2.81
396.546	2.81
396.991	2.82
397.436	2.83
397.881	2.86
398.326	2.87
398.771	2.9
399.216	2.92
399.661	2.93
400.106	2.95
400.551	2.94
400.995	2.94
401.44	2.96
401.885	2.97
402.329	2.98
402.774	2.98
403.218	3.01
403.663	3.02
404.107	3.03
404.551	3.04
404.995	3.05
405.44	3.06
405.884	3.07
406.328	3.08
406.772	3.08
407.216	3.09
407.66	3.1
408.104	3.1
408.547	3.1
408.991	3.12
409.435	3.13
409.879	3.15
410.322	3.17
410.766	3.19
411.209	3.21
411.653	3.23
412.096	3.24
412.54	3.25
412.983	3.26
413.426	3.3
413.869	3.31
414.312	3.32
414.756	3.33
415.199	3.32
415.642	3.33
416.085	3.34
416.527	3.34
416.97	3.33
417.413	3.33
417.856	3.34
418.298	3.32
418.741	3.33
419.184	3.33
419.626	3.33
420.069	3.35
420.511	3.36
420.953	3.37
421.396	3.38
421.838	3.4
422.28	3.4
422.722	3.42
423.164	3.43
423.606	3.43
424.048	3.44
424.49	3.43
424.932	3.42
425.374	3.4
425.816	3.37
426.258	3.36
426.699	3.35
427.141	3.35
427.582	3.34
428.024	3.36
428.465	3.36
428.907	3.35
429.348	3.35
429.789	3.36
430.231	3.38
430.672	3.4
431.113	3.42
431.554	3.43
431.995	3.44
432.436	3.45
432.877	3.45
433.318	3.47
433.759	3.49
434.2	3.5
434.64	3.51
435.081	3.52
435.522	3.53
435.962	3.55
436.403	3.58
436.843	3.59
437.284	3.59
437.724	3.59
438.164	3.58
438.604	3.6
439.045	3.61
439.485	3.6
439.925	3.6
440.365	3.62
440.805	3.61
441.245	3.62
441.685	3.63
442.125	3.65
442.564	3.65
443.004	3.66
443.444	3.66
443.883	3.66
444.323	3.66
444.762	3.65
445.202	3.64
445.641	3.65
446.081	3.65
446.52	3.64
446.959	3.65
447.398	3.67
447.837	3.67
448.276	3.66
448.716	3.67
449.154	3.7
449.593	3.73
450.032	3.73
450.471	3.71
450.91	3.71
451.349	3.71
451.787	3.69
452.226	3.68
452.664	3.68
453.103	3.67
453.541	3.67
453.98	3.67
454.418	3.64
454.856	3.64
455.295	3.63
455.733	3.61
456.171	3.6
456.609	3.59
457.047	3.59
457.485	3.59
457.923	3.59
458.361	3.59
458.798	3.58
459.236	3.58
459.674	3.58
460.111	3.57
460.549	3.58
460.987	3.6
461.424	3.61
461.862	3.62
462.299	3.62
462.736	3.61
463.173	3.61
463.611	3.62
464.048	3.63
464.485	3.65
464.922	3.65
465.359	3.65
465.796	3.66
466.233	3.66
466.67	3.66
467.106	3.67
467.543	3.68
467.98	3.67
468.416	3.67
468.853	3.66
469.29	3.66
469.726	3.66
470.162	3.65
470.599	3.64
471.035	3.63
471.471	3.62
471.907	3.61
472.344	3.61
472.78	3.61
473.216	3.6
473.652	3.6
474.088	3.58
474.523	3.58
474.959	3.58
475.395	3.56
475.831	3.55
476.266	3.55
476.702	3.54
477.138	3.52
477.573	3.52
478.008	3.52
478.444	3.5
478.879	3.5
479.314	3.49
479.75	3.48
480.185	3.46
480.62	3.46
481.055	3.44
481.49	3.44
481.925	3.44
482.36	3.43
482.795	3.42
483.229	3.43
483.664	3.43
484.099	3.43
484.534	3.43
484.968	3.45
485.403	3.45
485.837	3.46
486.271	3.47
486.706	3.47
487.14	3.48
487.574	3.49
488.009	3.5
488.443	3.51
488.877	3.52
489.311	3.53
489.745	3.55
490.179	3.56
490.613	3.58
491.046	3.6
491.48	3.63
491.914	3.65
492.348	3.67
492.781	3.7
493.215	3.72
493.648	3.75
494.082	3.77
494.515	3.79
494.948	3.82
495.382	3.86
495.815	3.9
496.248	3.94
496.681	3.99
497.114	4.04
497.547	4.08
497.98	4.13
498.413	4.18
498.846	4.25
499.279	4.31
499.711	4.37
500.144	4.43
500.577	4.5
501.009	4.56
501.442	4.63
501.874	4.71
502.306	4.79
502.739	4.89
503.171	4.98
503.603	5.08
504.036	5.18
504.468	5.28
504.9	5.38
505.332	5.5
505.764	5.62
506.196	5.74
506.627	5.88
507.059	6.02
507.491	6.14
507.923	6.29
508.354	6.45
508.786	6.61
509.217	6.78
509.649	6.95
510.08	7.13
510.512	7.32
510.943	7.49
511.374	7.68
511.805	7.87
512.237	8.07
512.668	8.28
513.099	8.49
513.53	8.7
513.961	8.92
514.391	9.15
514.822	9.37
515.253	9.59
515.684	9.83
516.114	10.07
516.545	10.31
516.975	10.56
517.406	10.8
517.836	11.04
518.267	11.28
518.697	11.51
519.127	11.74
519.558	11.99
519.988	12.24
520.418	12.47
520.848	12.7
521.278	12.92
521.708	13.22
522.138	13.43
522.567	13.65
522.997	13.87
523.427	14.09
523.857	14.29
524.286	14.48
524.716	14.67
525.145	14.87
525.575	15.06
526.004	15.26
526.433	15.38
526.863	15.56
527.292	15.74
527.721	15.89
528.15	16.04
528.579	16.2
529.008	16.33
529.437	16.47
529.866	16.58
530.295	16.7
530.724	16.81
531.152	16.91
531.581	17.03
532.01	17.12
532.438	17.23
532.867	17.32
533.295	17.41
533.723	17.5
534.152	17.59
534.58	17.68
535.008	17.75
535.436	17.82
535.865	17.87
536.293	17.91
536.721	17.96
537.149	18.01
537.576	18.04
538.004	18.08
538.432	18.12
538.86	18.14
539.287	18.15
539.715	18.2
540.143	18.24
540.57	18.29
540.998	18.32
541.425	18.35
541.852	18.37
542.28	18.41
542.707	18.44
543.134	18.46
543.561	18.5
543.988	18.53
544.415	18.54
544.842	18.54
545.269	18.57
545.696	18.6
546.123	18.61
546.549	18.65
546.976	18.67
547.403	18.68
547.829	18.7
548.256	18.71
548.682	18.72
549.108	18.74
549.535	18.76
549.961	18.76
550.387	18.76
550.813	18.77
551.24	18.75
551.666	18.75
552.092	18.75
552.518	18.75
552.943	18.73
553.369	18.73
553.795	18.7
554.221	18.67
554.646	18.64
555.072	18.6
555.498	18.57
555.923	18.53
556.349	18.46
556.774	18.4
557.199	18.33
557.625	18.28
558.05	18.2
558.475	18.14
558.9	18.07
559.325	18
559.75	17.92
560.175	17.83
560.6	17.74
561.025	17.66
561.449	17.58
561.874	17.48
562.299	17.39
562.723	17.28
563.148	17.16
563.572	17.04
563.997	16.93
564.421	16.81
564.846	16.69
565.27	16.57
565.694	16.44
566.118	16.31
566.542	16.19
566.966	16.05
567.39	15.93
567.814	15.8
568.238	15.67
568.662	15.54
569.086	15.42
569.509	15.3
569.933	15.18
570.357	15.06
570.78	14.94
571.204	14.82
571.627	14.71
572.05	14.6
572.474	14.49
572.897	14.4
573.32	14.29
573.743	14.18
574.166	14.07
574.589	13.98
575.012	13.86
575.435	13.77
575.858	13.67
576.281	13.57
576.704	13.46
577.126	13.38
577.549	13.28
577.972	13.19
578.394	13.11
578.817	13.03
579.239	12.93
579.661	12.86
580.084	12.77
580.506	12.71
580.928	12.64
581.35	12.58
581.772	12.51
582.194	12.44
582.616	12.39
583.038	12.33
583.46	12.26
583.882	12.2
584.303	12.13
584.725	12.08
585.147	12.02
585.568	11.97
585.99	11.91
586.411	11.84
586.833	11.8
587.254	11.73
587.675	11.67
588.096	11.63
588.518	11.59
588.939	11.56
589.36	11.52
589.781	11.48
590.202	11.44
590.623	11.4
591.043	11.36
591.464	11.33
591.885	11.29
592.305	11.26
592.726	11.23
593.147	11.19
593.567	11.15
593.987	11.11
594.408	11.07
594.828	11.04
595.248	11.02
595.669	11
596.089	10.98
596.509	10.95
596.929	10.92
597.349	10.89
597.769	10.87
598.189	10.83
598.608	10.82
599.028	10.79
599.448	10.76
599.867	10.72
600.287	10.68
600.706	10.65
601.126	10.62
601.545	10.6
601.965	10.58
602.384	10.54
602.803	10.49
603.222	10.44
603.641	10.4
604.061	10.36
604.48	10.31
604.898	10.25
605.317	10.19
605.736	10.14
606.155	10.07
606.574	10
606.992	9.94
607.411	9.89
607.829	9.81
608.248	9.74
608.666	9.68
609.085	9.62
609.503	9.57
609.921	9.51
610.339	9.45
610.758	9.39
611.176	9.33
611.594	9.27
612.012	9.21
612.43	9.17
612.847	9.1
613.265	9.04
613.683	8.98
614.101	8.92
614.518	8.86
614.936	8.79
615.353	8.73
615.771	8.68
616.188	8.61
616.606	8.57
617.023	8.52
617.44	8.48
617.857	8.44
618.274	8.39
618.691	8.36
619.108	8.31
619.525	8.28
619.942	8.25
620.359	8.22
620.776	8.19
621.192	8.16
621.609	8.14
622.026	8.12
622.442	8.11
622.859	8.09
623.275	8.06
623.691	8.04
624.108	8.04
624.524	8.02
624.94	7.99
625.356	7.99
625.772	7.97
626.188	7.96
626.604	7.94
627.02	7.92
627.436	7.91
627.852	7.91
628.268	7.9
628.683	7.89
629.099	7.88
629.514	7.87
629.93	7.86
630.345	7.85
630.761	7.83
631.176	7.81
631.591	7.79
632.007	7.76
632.422	7.73
632.837	7.69
633.252	7.65
633.667	7.6
634.082	7.56
634.497	7.51
634.911	7.45
635.326	7.39
635.741	7.34
636.155	7.26
636.57	7.2
636.984	7.13
637.399	7.06
637.813	6.98
638.228	6.91
638.642	6.81
639.056	6.72
639.47	6.64
639.884	6.56
640.298	6.47
640.712	6.39
641.126	6.3
641.54	6.22
641.954	6.13
642.368	6.05
642.781	5.98
643.195	5.9
643.609	5.82
644.022	5.75
644.436	5.67
644.849	5.6
645.262	5.53
645.676	5.47
646.089	5.41
646.502	5.36
646.915	5.31
647.328	5.26
647.741	5.21
648.154	5.17
648.567	5.13
648.98	5.1
649.393	5.07
649.805	5.05
650.218	5.02
650.631	4.99
651.043	4.96
651.456	4.94
651.868	4.9
652.28	4.88
652.693	4.84
653.105	4.82
653.517	4.78
653.929	4.75
654.341	4.71
654.753	4.67
655.165	4.63
655.577	4.59
655.989	4.54
656.401	4.5
656.813	4.47
657.224	4.42
657.636	4.37
658.047	4.32
658.459	4.26
658.87	4.21
659.282	4.15
659.693	4.1
660.104	4.04
660.515	3.99
660.926	3.93
661.338	3.88
661.749	3.83
662.159	3.78
662.57	3.74
662.981	3.7
663.392	3.66
663.803	3.63
664.213	3.59
664.624	3.56
665.035	3.52
665.445	3.5
665.855	3.46
666.266	3.44
666.676	3.44
667.086	3.41
667.497	3.39
667.907	3.38
668.317	3.38
668.727	3.36
669.137	3.36
669.547	3.36
669.956	3.35
670.366	3.35
670.776	3.34
671.186	3.34
671.595	3.35
672.005	3.34
672.414	3.36
672.824	3.35
673.233	3.36
673.642	3.36
674.052	3.37
674.461	3.39
674.87	3.4
675.279	3.42
675.688	3.44
676.097	3.46
676.506	3.48
676.915	3.49
677.323	3.52
677.732	3.53
678.141	3.56
678.549	3.58
678.958	3.61
679.366	3.65
679.775	3.67
680.183	3.7
680.592	3.74
681	3.79
681.408	3.84
681.816	3.89
682.224	3.96
682.632	4.03
683.04	4.11
683.448	4.19
683.856	4.26
684.264	4.37
684.671	4.48
685.079	4.61
685.487	4.74
685.894	4.9
686.302	5.08
686.709	5.27
687.116	5.47
687.524	5.71
687.931	5.97
688.338	6.25
688.745	6.53
689.152	6.83
689.559	7.18
689.966	7.52
690.373	7.88
690.78	8.26
691.187	8.65
691.593	9.06
692	9.49
692.407	9.92
692.813	10.36
693.22	10.82
693.626	11.3
694.032	11.76
694.439	12.24
694.845	12.73
695.251	13.22
695.657	13.7
696.063	14.21
696.469	14.68
696.875	15.19
697.281	15.69
697.687	16.18
698.093	16.66
698.498	17.13
698.904	17.61
699.31	18.07
699.715	18.54
700.12	19.02
700.526	19.46
700.931	19.92
701.337	20.36
701.742	20.78
702.147	21.21
702.552	21.65
702.957	22.06
703.362	22.47
703.767	22.87
704.172	23.28
704.577	23.66
704.981	24.05
705.386	24.43
705.791	24.8
706.195	25.18
706.6	25.56
707.004	25.9
707.408	26.28
707.813	26.63
708.217	26.99
708.621	27.33
709.025	27.67
709.43	28
709.834	28.35
710.237	28.68
710.641	28.99
711.045	29.29
711.449	29.63
711.853	29.95
712.256	30.25
712.66	30.54
713.064	30.82
713.467	31.11
713.87	31.39
714.274	31.64
714.677	31.91
715.08	32.18
715.484	32.45
715.887	32.7
716.29	32.94
716.693	33.2
717.096	33.43
717.499	33.67
717.901	33.9
718.304	34.13
718.707	34.36
719.109	34.57
719.512	34.79
719.915	34.99
720.317	35.16
720.719	35.34
721.122	35.52
721.524	35.72
721.926	35.91
722.328	36.12
722.731	36.3
723.133	36.46
723.535	36.64
723.937	36.79
724.338	36.95
724.74	37.12
725.142	37.36
725.544	37.5
725.945	37.66
726.347	37.76
726.748	37.86
727.15	37.98
727.551	38.13
727.952	38.24
728.354	38.35
728.755	38.44
729.156	38.53
729.557	38.54
729.958	38.63
730.359	38.7
730.76	38.83
731.161	38.9
731.562	38.99
731.962	39.03
732.363	39.13
732.763	39.21
733.164	39.28
733.564	39.36
733.965	39.45
734.365	39.53
734.766	39.59
735.166	39.63
735.566	39.69
735.966	39.75
736.366	39.81
736.766	39.85
737.166	39.91
737.566	39.95
737.966	40
738.365	40.02
738.765	40.07
739.165	40.12
739.564	40.17
739.964	40.2
740.363	40.22
740.763	40.25
741.162	40.29
741.561	40.31
741.96	40.34
742.36	40.38
742.759	40.42
743.158	40.45
743.557	40.45
743.955	40.47
744.354	40.5
744.753	40.54
745.152	40.59
745.55	40.62
745.949	40.66
746.348	40.71
746.746	40.72
747.144	40.74
747.543	40.77
747.941	40.8
748.339	40.8
748.737	40.83
749.136	40.84
749.534	40.83
749.932	40.83
750.33	40.84
750.727	40.84
751.125	40.85
751.523	40.84
751.921	40.84
752.318	40.84
752.716	40.87
753.113	40.87
753.511	40.87
753.908	40.91
754.305	40.93
754.703	40.93
755.1	40.95
755.497	40.95
755.894	40.98
756.291	41
756.688	41
757.085	41
757.482	41.02
757.878	41.06
758.275	41.04
758.672	41.03
759.068	41.05
759.465	41.06
759.861	41.07
760.258	41.05
760.654	41.06
761.05	41.09
761.447	41.09
761.843	41.07
762.239	41.04
762.635	41.04
763.031	41.05
763.427	41.03
763.822	41.04
764.218	41.05
764.614	41.06
765.01	41.02
765.405	41.01
765.801	41.01
766.196	41.01
766.592	40.99
766.987	40.98
767.382	40.99
767.778	41
768.173	40.98
768.568	40.97
768.963	40.98
769.358	41
769.753	40.98
770.148	40.99
770.542	40.99
770.937	41.03
771.332	41.04
771.726	41.02
772.121	41.02
772.515	41.02
772.91	41.01
773.304	41
773.699	40.99
774.093	41
774.487	41
774.881	41
775.275	40.98
775.669	40.97
776.063	40.95
776.457	40.94
776.851	40.93
777.245	40.88
777.638	40.87
778.032	40.89
778.425	40.88
778.819	40.89
779.212	40.91
779.606	40.93
779.999	40.94
780.392	40.97
780.786	40.97
781.179	40.99
781.572	41.04
781.965	41.08
782.358	41.08
782.751	41.07
783.143	41.08
783.536	41.04
783.929	41.05
784.322	41.05
784.714	41.04
785.107	41.07
785.499	41.09
785.891	41.09
