Data from C_1_HIR_WI_4N_Splice17_13-00-17-046.txt Node
Date: Sat Mar 07 13:00:17 EST 2020
User: sa697716
Spectrometer: NQ5500242
Trigger mode: 0
Integration Time (sec): 1.450000E-1
Scans to average: 20
Nonlinearity correction enabled: false
Boxcar width: 5
Storing dark spectrum: false
XAxis mode: Wavelengths
Number of Pixels in Spectrum: 512
>>>>>Begin Spectral Data<<<<<
187.83	133.93
188.298	150.24
188.766	134.22
189.233	120.78
189.701	121.3
190.169	144.15
190.636	145.74
191.104	119.59
191.571	-70.37
192.039	-249.07
192.506	-304.88
192.974	-48.79
193.441	-111.34
193.908	-75.51
194.375	24.44
194.842	-7.41
195.31	49.72
195.777	20.8
196.244	37.08
196.711	37.83
197.177	39.44
197.644	40.82
198.111	40.49
198.578	40.96
199.045	41.24
199.511	40.82
199.978	40.84
200.445	40.74
200.911	40.69
201.378	40.36
201.844	40.47
202.31	40.31
202.777	40.23
203.243	40.37
203.709	40.13
204.176	39.34
204.642	39.17
205.108	39.02
205.574	38.71
206.04	38.29
206.506	37.89
206.972	37.62
207.438	37.44
207.903	36.62
208.369	35.86
208.835	35.01
209.301	34.68
209.766	33.56
210.232	32.51
210.697	31.5
211.163	30.75
211.628	30.05
212.094	29.16
212.559	28.48
213.024	28.01
213.49	27.55
213.955	26.91
214.42	26.05
214.885	25.35
215.35	24.41
215.815	23.44
216.28	21.7
216.745	19.94
217.21	18.23
217.675	16.48
218.14	15.06
218.604	13.69
219.069	12.66
219.534	11.84
219.998	11.1
220.463	10.51
220.927	9.88
221.392	9.46
221.856	9.13
222.32	8.81
222.785	8.54
223.249	8.28
223.713	8.11
224.177	7.93
224.642	7.75
225.106	7.57
225.57	7.39
226.034	7.28
226.497	7.18
226.961	7.05
227.425	6.94
227.889	6.83
228.353	6.71
228.816	6.6
229.28	6.48
229.744	6.38
230.207	6.29
230.671	6.21
231.134	6.1
231.597	6.02
232.061	5.93
232.524	5.84
232.987	5.77
233.45	5.72
233.914	5.66
234.377	5.58
234.84	5.51
235.303	5.45
235.766	5.39
236.229	5.35
236.691	5.27
237.154	5.22
237.617	5.18
238.08	5.12
238.542	5.07
239.005	5.03
239.468	4.99
239.93	4.95
240.393	4.91
240.855	4.85
241.317	4.81
241.78	4.76
242.242	4.71
242.704	4.67
243.166	4.63
243.629	4.6
244.091	4.54
244.553	4.49
245.015	4.45
245.477	4.4
245.939	4.36
246.4	4.33
246.862	4.29
247.324	4.25
247.786	4.21
248.247	4.17
248.709	4.12
249.17	4.08
249.632	4.07
250.093	4.04
250.555	4.01
251.016	3.99
251.477	3.95
251.939	3.94
252.4	3.92
252.861	3.89
253.322	3.87
253.783	3.86
254.244	3.84
254.705	3.81
255.166	3.78
255.627	3.75
256.088	3.74
256.549	3.72
257.009	3.68
257.47	3.65
257.931	3.62
258.391	3.59
258.852	3.56
259.312	3.53
259.773	3.51
260.233	3.49
260.694	3.47
261.154	3.44
261.614	3.42
262.074	3.39
262.534	3.37
262.994	3.35
263.455	3.34
263.915	3.32
264.374	3.29
264.834	3.27
265.294	3.25
265.754	3.23
266.214	3.21
266.673	3.2
267.133	3.18
267.593	3.17
268.052	3.17
268.512	3.16
268.971	3.15
269.431	3.15
269.89	3.13
270.349	3.13
270.809	3.12
271.268	3.11
271.727	3.1
272.186	3.09
272.645	3.09
273.104	3.07
273.563	3.06
274.022	3.05
274.481	3.05
274.94	3.04
275.399	3.03
275.857	3.02
276.316	3.02
276.775	3.01
277.233	3.01
277.692	3.01
278.15	3.01
278.609	3
279.067	3
279.525	2.99
279.984	2.98
280.442	2.97
280.9	2.97
281.358	2.97
281.816	2.97
282.274	2.96
282.732	2.95
283.19	2.94
283.648	2.93
284.106	2.93
284.564	2.92
285.021	2.92
285.479	2.91
285.937	2.89
286.394	2.89
286.852	2.87
287.309	2.87
287.767	2.85
288.224	2.84
288.682	2.83
289.139	2.82
289.596	2.8
290.053	2.79
290.511	2.78
290.968	2.77
291.425	2.75
291.882	2.74
292.339	2.73
292.796	2.72
293.252	2.72
293.709	2.71
294.166	2.7
294.623	2.7
295.079	2.69
295.536	2.68
295.992	2.67
296.449	2.67
296.905	2.67
297.362	2.67
297.818	2.66
298.274	2.65
298.731	2.65
299.187	2.64
299.643	2.63
300.099	2.63
300.555	2.62
301.011	2.62
301.467	2.61
301.923	2.6
302.379	2.6
302.835	2.6
303.291	2.59
303.746	2.59
304.202	2.59
304.658	2.6
305.113	2.59
305.569	2.59
306.024	2.59
306.479	2.58
306.935	2.58
307.39	2.58
307.845	2.58
308.301	2.58
308.756	2.58
309.211	2.58
309.666	2.59
310.121	2.59
310.576	2.59
311.031	2.59
311.486	2.59
311.94	2.59
312.395	2.59
312.85	2.6
313.305	2.6
313.759	2.6
314.214	2.6
314.668	2.6
315.123	2.6
315.577	2.59
316.032	2.59
316.486	2.58
316.94	2.58
317.394	2.57
317.849	2.55
318.303	2.54
318.757	2.53
319.211	2.52
319.665	2.5
320.119	2.49
320.572	2.48
321.026	2.48
321.48	2.47
321.934	2.46
322.387	2.46
322.841	2.46
323.295	2.47
323.748	2.47
324.202	2.47
324.655	2.47
325.108	2.48
325.562	2.48
326.015	2.48
326.468	2.48
326.921	2.48
327.374	2.48
327.827	2.48
328.28	2.47
328.733	2.46
329.186	2.46
329.639	2.47
330.092	2.47
330.545	2.47
330.997	2.47
331.45	2.48
331.903	2.49
332.355	2.5
332.808	2.49
333.26	2.49
333.713	2.49
334.165	2.49
334.617	2.48
335.069	2.48
335.522	2.48
335.974	2.48
336.426	2.48
336.878	2.47
337.33	2.46
337.782	2.46
338.234	2.47
338.686	2.47
339.137	2.47
339.589	2.47
340.041	2.47
340.493	2.46
340.944	2.44
341.396	2.44
341.847	2.43
342.299	2.42
342.75	2.42
343.201	2.4
343.653	2.39
344.104	2.38
344.555	2.37
345.006	2.37
345.457	2.37
345.908	2.36
346.359	2.37
346.81	2.36
347.261	2.36
347.712	2.34
348.163	2.34
348.613	2.35
349.064	2.35
349.515	2.35
349.965	2.35
350.416	2.34
350.866	2.34
351.317	2.33
351.767	2.33
352.217	2.32
352.668	2.32
353.118	2.33
353.568	2.32
354.018	2.33
354.468	2.33
354.918	2.33
355.368	2.34
355.818	2.34
356.268	2.34
356.718	2.34
357.168	2.34
357.617	2.34
358.067	2.33
358.517	2.33
358.966	2.34
359.416	2.33
359.865	2.33
360.315	2.34
360.764	2.34
361.213	2.34
361.663	2.33
362.112	2.34
362.561	2.35
363.01	2.36
363.459	2.34
363.908	2.33
364.357	2.33
364.806	2.32
365.255	2.31
365.703	2.32
366.152	2.33
366.601	2.34
367.05	2.33
367.498	2.32
367.947	2.31
368.395	2.33
368.844	2.33
369.292	2.33
369.74	2.34
370.189	2.34
370.637	2.32
371.085	2.31
371.533	2.3
371.981	2.3
372.429	2.31
372.877	2.31
373.325	2.3
373.773	2.29
374.221	2.29
374.669	2.28
375.116	2.27
375.564	2.28
376.012	2.27
376.459	2.26
376.907	2.26
377.354	2.26
377.801	2.26
378.249	2.26
378.696	2.25
379.143	2.25
379.591	2.26
380.038	2.26
380.485	2.26
380.932	2.27
381.379	2.27
381.826	2.27
382.273	2.26
382.72	2.25
383.166	2.25
383.613	2.26
384.06	2.26
384.506	2.24
384.953	2.24
385.4	2.25
385.846	2.26
386.292	2.25
386.739	2.25
387.185	2.25
387.631	2.25
388.078	2.25
388.524	2.25
388.97	2.26
389.416	2.27
389.862	2.28
390.308	2.29
390.754	2.29
391.2	2.3
391.645	2.31
392.091	2.33
392.537	2.34
392.983	2.35
393.428	2.36
393.874	2.36
394.319	2.38
394.765	2.37
395.21	2.37
395.655	2.38
396.101	2.38
396.546	2.38
396.991	2.38
397.436	2.39
397.881	2.4
398.326	2.41
398.771	2.42
399.216	2.41
399.661	2.43
400.106	2.44
400.551	2.45
400.995	2.44
401.44	2.46
401.885	2.47
402.329	2.48
402.774	2.5
403.218	2.52
403.663	2.53
404.107	2.54
404.551	2.54
404.995	2.55
405.44	2.55
405.884	2.56
406.328	2.58
406.772	2.58
407.216	2.59
407.66	2.59
408.104	2.58
408.547	2.59
408.991	2.6
409.435	2.61
409.879	2.62
410.322	2.64
410.766	2.65
411.209	2.66
411.653	2.67
412.096	2.68
412.54	2.69
412.983	2.7
413.426	2.72
413.869	2.73
414.312	2.76
414.756	2.77
415.199	2.77
415.642	2.78
416.085	2.8
416.527	2.79
416.97	2.8
417.413	2.8
417.856	2.8
418.298	2.79
418.741	2.79
419.184	2.79
419.626	2.79
420.069	2.81
420.511	2.8
420.953	2.8
421.396	2.82
421.838	2.82
422.28	2.83
422.722	2.85
423.164	2.87
423.606	2.88
424.048	2.9
424.49	2.9
424.932	2.9
425.374	2.9
425.816	2.89
426.258	2.88
426.699	2.89
427.141	2.89
427.582	2.89
428.024	2.89
428.465	2.89
428.907	2.88
429.348	2.86
429.789	2.87
430.231	2.89
430.672	2.92
431.113	2.94
431.554	2.95
431.995	2.96
432.436	2.97
432.877	2.97
433.318	2.99
433.759	3
434.2	3.03
434.64	3.04
435.081	3.04
435.522	3.05
435.962	3.06
436.403	3.07
436.843	3.08
437.284	3.09
437.724	3.1
438.164	3.08
438.604	3.1
439.045	3.11
439.485	3.11
439.925	3.11
440.365	3.11
440.805	3.1
441.245	3.12
441.685	3.13
442.125	3.14
442.564	3.15
443.004	3.15
443.444	3.14
443.883	3.16
444.323	3.15
444.762	3.17
445.202	3.17
445.641	3.18
446.081	3.18
446.52	3.16
446.959	3.18
447.398	3.18
447.837	3.19
448.276	3.19
448.716	3.2
449.154	3.22
449.593	3.23
450.032	3.23
450.471	3.22
450.91	3.2
451.349	3.21
451.787	3.18
452.226	3.17
452.664	3.16
453.103	3.15
453.541	3.13
453.98	3.13
454.418	3.1
454.856	3.1
455.295	3.1
455.733	3.08
456.171	3.08
456.609	3.08
457.047	3.07
457.485	3.07
457.923	3.08
458.361	3.07
458.798	3.07
459.236	3.06
459.674	3.05
460.111	3.05
460.549	3.07
460.987	3.08
461.424	3.09
461.862	3.1
462.299	3.11
462.736	3.09
463.173	3.11
463.611	3.11
464.048	3.13
464.485	3.13
464.922	3.14
465.359	3.14
465.796	3.16
466.233	3.17
466.67	3.17
467.106	3.18
467.543	3.19
467.98	3.19
468.416	3.19
468.853	3.18
469.29	3.17
469.726	3.17
470.162	3.17
470.599	3.14
471.035	3.12
471.471	3.11
471.907	3.09
472.344	3.09
472.78	3.09
473.216	3.09
473.652	3.09
474.088	3.08
474.523	3.07
474.959	3.07
475.395	3.05
475.831	3.04
476.266	3.04
476.702	3.04
477.138	3.02
477.573	3.02
478.008	3.01
478.444	2.99
478.879	2.99
479.314	2.99
479.75	2.98
480.185	2.98
480.62	2.97
481.055	2.97
481.49	2.96
481.925	2.95
482.36	2.95
482.795	2.94
483.229	2.95
483.664	2.95
484.099	2.94
484.534	2.95
484.968	2.95
485.403	2.95
485.837	2.95
486.271	2.97
486.706	2.97
487.14	2.97
487.574	2.97
488.009	2.97
488.443	2.98
488.877	2.99
489.311	3
489.745	3.01
490.179	3.03
490.613	3.05
491.046	3.06
491.48	3.08
491.914	3.1
492.348	3.12
492.781	3.16
493.215	3.19
493.648	3.21
494.082	3.24
494.515	3.27
494.948	3.3
495.382	3.33
495.815	3.37
496.248	3.42
496.681	3.46
497.114	3.5
497.547	3.54
497.98	3.59
498.413	3.63
498.846	3.68
499.279	3.74
499.711	3.79
500.144	3.85
500.577	3.92
501.009	3.98
501.442	4.06
501.874	4.14
502.306	4.21
502.739	4.3
503.171	4.4
503.603	4.49
504.036	4.6
504.468	4.69
504.9	4.79
505.332	4.91
505.764	5.02
506.196	5.14
506.627	5.27
507.059	5.4
507.491	5.53
507.923	5.67
508.354	5.82
508.786	5.98
509.217	6.15
509.649	6.33
510.08	6.5
510.512	6.69
510.943	6.88
511.374	7.07
511.805	7.27
512.237	7.47
512.668	7.67
513.099	7.89
513.53	8.11
513.961	8.35
514.391	8.59
514.822	8.83
515.253	9.05
515.684	9.3
516.114	9.55
516.545	9.81
516.975	10.08
517.406	10.35
517.836	10.6
518.267	10.87
518.697	11.12
519.127	11.36
519.558	11.62
519.988	11.88
520.418	12.13
520.848	12.38
521.278	12.63
521.708	13.07
522.138	13.33
522.567	13.57
522.997	13.81
523.427	14.04
523.857	14.27
524.286	14.49
524.716	14.72
525.145	14.94
525.575	15.14
526.004	15.36
526.433	15.35
526.863	15.53
527.292	15.71
527.721	15.87
528.15	16.04
528.579	16.21
529.008	16.37
529.437	16.51
529.866	16.65
530.295	16.79
530.724	16.91
531.152	17.04
531.581	17.16
532.01	17.28
532.438	17.41
532.867	17.51
533.295	17.61
533.723	17.7
534.152	17.79
534.58	17.88
535.008	17.95
535.436	18.03
535.865	18.09
536.293	18.16
536.721	18.23
537.149	18.29
537.576	18.34
538.004	18.39
538.432	18.44
538.86	18.49
539.287	18.53
539.715	18.6
540.143	18.63
540.57	18.66
540.998	18.69
541.425	18.72
541.852	18.76
542.28	18.82
542.707	18.85
543.134	18.89
543.561	18.93
543.988	18.97
544.415	18.98
544.842	19.01
545.269	19.06
545.696	19.09
546.123	19.12
546.549	19.14
546.976	19.16
547.403	19.2
547.829	19.21
548.256	19.23
548.682	19.25
549.108	19.29
549.535	19.31
549.961	19.31
550.387	19.33
550.813	19.32
551.24	19.3
551.666	19.28
552.092	19.27
552.518	19.26
552.943	19.23
553.369	19.21
553.795	19.16
554.221	19.13
554.646	19.09
555.072	19.06
555.498	19.02
555.923	18.99
556.349	18.94
556.774	18.87
557.199	18.82
557.625	18.75
558.05	18.68
558.475	18.62
558.9	18.54
559.325	18.46
559.75	18.37
560.175	18.28
560.6	18.18
561.025	18.08
561.449	17.98
561.874	17.87
562.299	17.77
562.723	17.65
563.148	17.52
563.572	17.39
563.997	17.25
564.421	17.11
564.846	16.98
565.27	16.84
565.694	16.71
566.118	16.57
566.542	16.43
566.966	16.28
567.39	16.14
567.814	16.01
568.238	15.87
568.662	15.74
569.086	15.6
569.509	15.48
569.933	15.35
570.357	15.22
570.78	15.09
571.204	14.95
571.627	14.81
572.05	14.68
572.474	14.55
572.897	14.44
573.32	14.32
573.743	14.2
574.166	14.09
574.589	13.96
575.012	13.85
575.435	13.73
575.858	13.64
576.281	13.53
576.704	13.43
577.126	13.32
577.549	13.22
577.972	13.11
578.394	13.02
578.817	12.92
579.239	12.84
579.661	12.77
580.084	12.69
580.506	12.61
580.928	12.54
581.35	12.46
581.772	12.39
582.194	12.32
582.616	12.26
583.038	12.18
583.46	12.11
583.882	12.04
584.303	11.97
584.725	11.9
585.147	11.85
585.568	11.79
585.99	11.73
586.411	11.67
586.833	11.61
587.254	11.56
587.675	11.51
588.096	11.45
588.518	11.4
588.939	11.36
589.36	11.3
589.781	11.25
590.202	11.22
590.623	11.19
591.043	11.14
591.464	11.12
591.885	11.07
592.305	11.06
592.726	11.04
593.147	11.01
593.567	10.99
593.987	10.97
594.408	10.93
594.828	10.9
595.248	10.88
595.669	10.86
596.089	10.83
596.509	10.81
596.929	10.78
597.349	10.74
597.769	10.71
598.189	10.68
598.608	10.65
599.028	10.64
599.448	10.6
599.867	10.57
600.287	10.53
600.706	10.49
601.126	10.45
601.545	10.41
601.965	10.37
602.384	10.33
602.803	10.29
603.222	10.23
603.641	10.17
604.061	10.12
604.48	10.07
604.898	10.01
605.317	9.95
605.736	9.89
606.155	9.83
606.574	9.77
606.992	9.69
607.411	9.62
607.829	9.53
608.248	9.46
608.666	9.38
609.085	9.31
609.503	9.24
609.921	9.18
610.339	9.1
610.758	9.04
611.176	8.96
611.594	8.9
612.012	8.83
612.43	8.78
612.847	8.71
613.265	8.64
613.683	8.58
614.101	8.52
614.518	8.45
614.936	8.39
615.353	8.33
615.771	8.28
616.188	8.22
616.606	8.17
617.023	8.12
617.44	8.07
617.857	8.03
618.274	7.98
618.691	7.94
619.108	7.89
619.525	7.85
619.942	7.82
620.359	7.78
620.776	7.75
621.192	7.72
621.609	7.69
622.026	7.66
622.442	7.64
622.859	7.62
623.275	7.61
623.691	7.6
624.108	7.58
624.524	7.55
624.94	7.55
625.356	7.54
625.772	7.53
626.188	7.51
626.604	7.51
627.02	7.5
627.436	7.5
627.852	7.49
628.268	7.48
628.683	7.48
629.099	7.47
629.514	7.45
629.93	7.44
630.345	7.43
630.761	7.41
631.176	7.39
631.591	7.37
632.007	7.35
632.422	7.32
632.837	7.28
633.252	7.24
633.667	7.21
634.082	7.16
634.497	7.12
634.911	7.06
635.326	7.02
635.741	6.97
636.155	6.92
636.57	6.85
636.984	6.79
637.399	6.73
637.813	6.66
638.228	6.59
638.642	6.51
639.056	6.42
639.47	6.36
639.884	6.27
640.298	6.18
640.712	6.09
641.126	6.01
641.54	5.92
641.954	5.83
642.368	5.75
642.781	5.67
643.195	5.6
643.609	5.53
644.022	5.45
644.436	5.39
644.849	5.32
645.262	5.26
645.676	5.19
646.089	5.14
646.502	5.09
646.915	5.05
647.328	5
647.741	4.95
648.154	4.9
648.567	4.87
648.98	4.83
649.393	4.8
649.805	4.76
650.218	4.73
650.631	4.7
651.043	4.67
651.456	4.64
651.868	4.61
652.28	4.57
652.693	4.55
653.105	4.52
653.517	4.48
653.929	4.45
654.341	4.41
654.753	4.36
655.165	4.32
655.577	4.27
655.989	4.22
656.401	4.16
656.813	4.12
657.224	4.07
657.636	4.01
658.047	3.97
658.459	3.91
658.87	3.87
659.282	3.81
659.693	3.76
660.104	3.71
660.515	3.66
660.926	3.61
661.338	3.56
661.749	3.51
662.159	3.47
662.57	3.43
662.981	3.39
663.392	3.35
663.803	3.31
664.213	3.27
664.624	3.25
665.035	3.22
665.445	3.2
665.855	3.18
666.266	3.16
666.676	3.15
667.086	3.12
667.497	3.11
667.907	3.11
668.317	3.1
668.727	3.1
669.137	3.1
669.547	3.1
669.956	3.09
670.366	3.08
670.776	3.08
671.186	3.08
671.595	3.08
672.005	3.08
672.414	3.07
672.824	3.08
673.233	3.08
673.642	3.09
674.052	3.1
674.461	3.11
674.87	3.13
675.279	3.15
675.688	3.17
676.097	3.19
676.506	3.21
676.915	3.24
677.323	3.27
677.732	3.29
678.141	3.32
678.549	3.33
678.958	3.36
679.366	3.39
679.775	3.41
680.183	3.45
680.592	3.49
681	3.53
681.408	3.58
681.816	3.63
682.224	3.67
682.632	3.73
683.04	3.81
683.448	3.88
683.856	3.95
684.264	4.05
684.671	4.15
685.079	4.26
685.487	4.39
685.894	4.54
686.302	4.71
686.709	4.89
687.116	5.08
687.524	5.3
687.931	5.54
688.338	5.8
688.745	6.07
689.152	6.37
689.559	6.7
689.966	7.03
690.373	7.38
690.78	7.75
691.187	8.16
691.593	8.58
692	9.01
692.407	9.43
692.813	9.9
693.22	10.37
693.626	10.84
694.032	11.33
694.439	11.82
694.845	12.33
695.251	12.84
695.657	13.35
696.063	13.86
696.469	14.4
696.875	14.94
697.281	15.45
697.687	15.98
698.093	16.51
698.498	17.04
698.904	17.56
699.31	18.08
699.715	18.6
700.12	19.1
700.526	19.61
700.931	20.11
701.337	20.6
701.742	21.11
702.147	21.58
702.552	22.06
702.957	22.52
703.362	22.99
703.767	23.43
704.172	23.87
704.577	24.32
704.981	24.77
705.386	25.19
705.791	25.63
706.195	26.05
706.6	26.48
707.004	26.92
707.408	27.33
707.813	27.76
708.217	28.17
708.621	28.57
709.025	28.96
709.43	29.33
709.834	29.72
710.237	30.1
710.641	30.47
711.045	30.82
711.449	31.17
711.853	31.54
712.256	31.88
712.66	32.23
713.064	32.56
713.467	32.92
713.87	33.25
714.274	33.56
714.677	33.87
715.08	34.18
715.484	34.49
715.887	34.82
716.29	35.1
716.693	35.41
717.096	35.7
717.499	36
717.901	36.29
718.304	36.59
718.707	36.88
719.109	37.16
719.512	37.4
719.915	37.67
720.317	37.9
720.719	38.11
721.122	38.33
721.524	38.56
721.926	38.8
722.328	39.01
722.731	39.21
723.133	39.42
723.535	39.63
723.937	39.84
724.338	40.04
724.74	40.23
725.142	40.54
725.544	40.71
725.945	40.93
726.347	41.06
726.748	41.22
727.15	41.36
727.551	41.52
727.952	41.67
728.354	41.8
728.755	41.93
729.156	42.06
729.557	42.09
729.958	42.2
730.359	42.27
730.76	42.41
731.161	42.49
731.562	42.63
731.962	42.7
732.363	42.79
732.763	42.9
733.164	42.99
733.564	43.08
733.965	43.17
734.365	43.27
734.766	43.37
735.166	43.47
735.566	43.55
735.966	43.61
736.366	43.68
736.766	43.76
737.166	43.81
737.566	43.87
737.966	43.93
738.365	43.99
738.765	44.06
739.165	44.09
739.564	44.12
739.964	44.19
740.363	44.23
740.763	44.28
741.162	44.34
741.561	44.38
741.96	44.4
742.36	44.45
742.759	44.49
743.158	44.52
743.557	44.57
743.955	44.61
744.354	44.66
744.753	44.71
745.152	44.77
745.55	44.79
745.949	44.84
746.348	44.88
746.746	44.88
747.144	44.91
747.543	44.92
747.941	44.92
748.339	44.93
748.737	44.94
749.136	44.93
749.534	44.92
749.932	44.92
750.33	44.92
750.727	44.95
751.125	44.96
751.523	44.96
751.921	44.96
752.318	44.97
752.716	44.99
753.113	45.01
753.511	45.03
753.908	45.08
754.305	45.12
754.703	45.12
755.1	45.13
755.497	45.15
755.894	45.17
756.291	45.19
756.688	45.2
757.085	45.23
757.482	45.23
757.878	45.25
758.275	45.23
758.672	45.22
759.068	45.24
759.465	45.25
759.861	45.27
760.258	45.28
760.654	45.28
761.05	45.28
761.447	45.29
761.843	45.28
762.239	45.27
762.635	45.27
763.031	45.26
763.427	45.26
763.822	45.26
764.218	45.27
764.614	45.27
765.01	45.26
765.405	45.26
765.801	45.22
766.196	45.23
766.592	45.25
766.987	45.26
767.382	45.28
767.778	45.27
768.173	45.28
768.568	45.28
768.963	45.26
769.358	45.29
769.753	45.31
770.148	45.33
770.542	45.33
770.937	45.31
771.332	45.31
771.726	45.28
772.121	45.26
772.515	45.26
772.91	45.23
773.304	45.25
773.699	45.26
774.093	45.23
774.487	45.23
774.881	45.26
775.275	45.25
775.669	45.24
776.063	45.25
776.457	45.23
776.851	45.21
777.245	45.18
777.638	45.13
778.032	45.14
778.425	45.19
778.819	45.18
779.212	45.18
779.606	45.19
779.999	45.19
780.392	45.2
780.786	45.23
781.179	45.26
781.572	45.31
781.965	45.36
782.358	45.37
782.751	45.34
783.143	45.35
783.536	45.34
783.929	45.33
784.322	45.34
784.714	45.34
