Data from C_1_DEC_NC_4N_Splice17_12-58-21-288.txt Node
Date: Sat Mar 07 12:58:21 EST 2020
User: sa697716
Spectrometer: NQ5500242
Trigger mode: 0
Integration Time (sec): 1.450000E-1
Scans to average: 20
Nonlinearity correction enabled: false
Boxcar width: 5
Storing dark spectrum: false
XAxis mode: Wavelengths
Number of Pixels in Spectrum: 512
>>>>>Begin Spectral Data<<<<<
187.83	170.58
188.298	189.51
188.766	163.63
189.233	139.12
189.701	162.68
190.169	206.49
190.636	227.31
191.104	409.2
191.571	442.76
192.039	246.62
192.506	194.16
192.974	68.32
193.441	194.34
193.908	104.98
194.375	70.48
194.842	81.66
195.31	213.16
195.777	328.59
196.244	61.75
196.711	50.29
197.177	51.31
197.644	50.79
198.111	49.25
198.578	49.02
199.045	49.16
199.511	49.36
199.978	49.18
200.445	49.29
200.911	49.34
201.378	49.57
201.844	49.48
202.31	49.13
202.777	48.9
203.243	49.19
203.709	48.68
204.176	48.39
204.642	48.16
205.108	48.49
205.574	48.09
206.04	47.7
206.506	47.47
206.972	47.16
207.438	46.77
207.903	46.35
208.369	45.73
208.835	45.4
209.301	44.56
209.766	43.33
210.232	41.9
210.697	40.95
211.163	40.16
211.628	39.13
212.094	38.3
212.559	38.13
213.024	37.42
213.49	36.62
213.955	35.91
214.42	35.39
214.885	34.79
215.35	33.85
215.815	32.6
216.28	30.85
216.745	29.05
217.21	27.26
217.675	25.38
218.14	23.97
218.604	22.76
219.069	21.74
219.534	20.89
219.998	20.2
220.463	19.65
220.927	19.06
221.392	18.61
221.856	18.28
222.32	17.93
222.785	17.65
223.249	17.37
223.713	17.1
224.177	16.86
224.642	16.58
225.106	16.31
225.57	16.05
226.034	15.86
226.497	15.66
226.961	15.41
227.425	15.23
227.889	15.01
228.353	14.82
228.816	14.62
229.28	14.42
229.744	14.23
230.207	14.05
230.671	13.86
231.134	13.67
231.597	13.52
232.061	13.37
232.524	13.2
232.987	13.04
233.45	12.9
233.914	12.74
234.377	12.6
234.84	12.44
235.303	12.33
235.766	12.2
236.229	12.08
236.691	11.94
237.154	11.82
237.617	11.71
238.08	11.58
238.542	11.45
239.005	11.34
239.468	11.22
239.93	11.12
240.393	11.02
240.855	10.89
241.317	10.78
241.78	10.66
242.242	10.54
242.704	10.45
243.166	10.34
243.629	10.24
244.091	10.15
244.553	10.05
245.015	9.95
245.477	9.86
245.939	9.77
246.4	9.69
246.862	9.61
247.324	9.53
247.786	9.44
248.247	9.37
248.709	9.27
249.17	9.18
249.632	9.13
250.093	9.06
250.555	8.98
251.016	8.91
251.477	8.84
251.939	8.79
252.4	8.73
252.861	8.66
253.322	8.6
253.783	8.55
254.244	8.51
254.705	8.44
255.166	8.38
255.627	8.33
256.088	8.29
256.549	8.24
257.009	8.18
257.47	8.12
257.931	8.06
258.391	8
258.852	7.94
259.312	7.89
259.773	7.84
260.233	7.8
260.694	7.75
261.154	7.69
261.614	7.64
262.074	7.6
262.534	7.56
262.994	7.52
263.455	7.49
263.915	7.46
264.374	7.42
264.834	7.4
265.294	7.37
265.754	7.35
266.214	7.32
266.673	7.3
267.133	7.27
267.593	7.26
268.052	7.25
268.512	7.24
268.971	7.22
269.431	7.21
269.89	7.19
270.349	7.17
270.809	7.15
271.268	7.13
271.727	7.12
272.186	7.11
272.645	7.09
273.104	7.07
273.563	7.05
274.022	7.03
274.481	7.02
274.94	6.99
275.399	6.97
275.857	6.96
276.316	6.94
276.775	6.92
277.233	6.9
277.692	6.87
278.15	6.86
278.609	6.84
279.067	6.82
279.525	6.8
279.984	6.77
280.442	6.76
280.9	6.75
281.358	6.74
281.816	6.73
282.274	6.71
282.732	6.7
283.19	6.68
283.648	6.66
284.106	6.64
284.564	6.62
285.021	6.6
285.479	6.58
285.937	6.55
286.394	6.52
286.852	6.48
287.309	6.46
287.767	6.42
288.224	6.39
288.682	6.35
289.139	6.33
289.596	6.3
290.053	6.27
290.511	6.24
290.968	6.22
291.425	6.19
291.882	6.18
292.339	6.15
292.796	6.14
293.252	6.13
293.709	6.12
294.166	6.11
294.623	6.09
295.079	6.08
295.536	6.06
295.992	6.04
296.449	6.03
296.905	6.01
297.362	5.99
297.818	5.97
298.274	5.96
298.731	5.94
299.187	5.92
299.643	5.91
300.099	5.89
300.555	5.88
301.011	5.87
301.467	5.85
301.923	5.84
302.379	5.83
302.835	5.83
303.291	5.82
303.746	5.8
304.202	5.79
304.658	5.79
305.113	5.78
305.569	5.77
306.024	5.76
306.479	5.75
306.935	5.73
307.39	5.71
307.845	5.7
308.301	5.69
308.756	5.68
309.211	5.67
309.666	5.67
310.121	5.66
310.576	5.65
311.031	5.64
311.486	5.64
311.94	5.63
312.395	5.62
312.85	5.61
313.305	5.6
313.759	5.6
314.214	5.58
314.668	5.57
315.123	5.56
315.577	5.54
316.032	5.53
316.486	5.5
316.94	5.49
317.394	5.47
317.849	5.45
318.303	5.43
318.757	5.4
319.211	5.39
319.665	5.38
320.119	5.35
320.572	5.34
321.026	5.33
321.48	5.32
321.934	5.3
322.387	5.29
322.841	5.29
323.295	5.29
323.748	5.29
324.202	5.28
324.655	5.26
325.108	5.26
325.562	5.25
326.015	5.23
326.468	5.23
326.921	5.22
327.374	5.21
327.827	5.21
328.28	5.19
328.733	5.18
329.186	5.17
329.639	5.17
330.092	5.17
330.545	5.17
330.997	5.17
331.45	5.17
331.903	5.17
332.355	5.18
332.808	5.18
333.26	5.18
333.713	5.18
334.165	5.18
334.617	5.17
335.069	5.16
335.522	5.16
335.974	5.16
336.426	5.14
336.878	5.13
337.33	5.12
337.782	5.11
338.234	5.11
338.686	5.1
339.137	5.1
339.589	5.09
340.041	5.08
340.493	5.06
340.944	5.05
341.396	5.04
341.847	5.03
342.299	5.02
342.75	5
343.201	4.97
343.653	4.96
344.104	4.93
344.555	4.91
345.006	4.9
345.457	4.89
345.908	4.88
346.359	4.87
346.81	4.86
347.261	4.85
347.712	4.85
348.163	4.85
348.613	4.85
349.064	4.85
349.515	4.85
349.965	4.85
350.416	4.84
350.866	4.84
351.317	4.84
351.767	4.83
352.217	4.82
352.668	4.82
353.118	4.83
353.568	4.82
354.018	4.83
354.468	4.83
354.918	4.83
355.368	4.83
355.818	4.83
356.268	4.83
356.718	4.83
357.168	4.84
357.617	4.83
358.067	4.82
358.517	4.83
358.966	4.84
359.416	4.83
359.865	4.82
360.315	4.82
360.764	4.82
361.213	4.82
361.663	4.82
362.112	4.82
362.561	4.82
363.01	4.82
363.459	4.8
363.908	4.79
364.357	4.79
364.806	4.79
365.255	4.8
365.703	4.8
366.152	4.8
366.601	4.8
367.05	4.8
367.498	4.79
367.947	4.8
368.395	4.8
368.844	4.82
369.292	4.81
369.74	4.81
370.189	4.81
370.637	4.81
371.085	4.8
371.533	4.8
371.981	4.8
372.429	4.81
372.877	4.8
373.325	4.8
373.773	4.79
374.221	4.8
374.669	4.79
375.116	4.79
375.564	4.79
376.012	4.79
376.459	4.79
376.907	4.8
377.354	4.8
377.801	4.81
378.249	4.81
378.696	4.82
379.143	4.83
379.591	4.84
380.038	4.85
380.485	4.87
380.932	4.88
381.379	4.9
381.826	4.92
382.273	4.93
382.72	4.94
383.166	4.96
383.613	4.97
384.06	4.97
384.506	4.98
384.953	5.01
385.4	5.02
385.846	5.04
386.292	5.06
386.739	5.07
387.185	5.09
387.631	5.11
388.078	5.13
388.524	5.16
388.97	5.2
389.416	5.24
389.862	5.27
390.308	5.31
390.754	5.35
391.2	5.39
391.645	5.43
392.091	5.48
392.537	5.52
392.983	5.56
393.428	5.59
393.874	5.63
394.319	5.66
394.765	5.69
395.21	5.71
395.655	5.74
396.101	5.78
396.546	5.82
396.991	5.84
397.436	5.88
397.881	5.93
398.326	5.97
398.771	6.01
399.216	6.05
399.661	6.08
400.106	6.12
400.551	6.14
400.995	6.16
401.44	6.19
401.885	6.22
402.329	6.24
402.774	6.26
403.218	6.3
403.663	6.32
404.107	6.35
404.551	6.37
404.995	6.39
405.44	6.42
405.884	6.44
406.328	6.46
406.772	6.46
407.216	6.48
407.66	6.48
408.104	6.47
408.547	6.47
408.991	6.48
409.435	6.49
409.879	6.51
410.322	6.52
410.766	6.55
411.209	6.56
411.653	6.59
412.096	6.61
412.54	6.62
412.983	6.64
413.426	6.68
413.869	6.69
414.312	6.73
414.756	6.74
415.199	6.74
415.642	6.74
416.085	6.73
416.527	6.72
416.97	6.71
417.413	6.71
417.856	6.73
418.298	6.71
418.741	6.72
419.184	6.7
419.626	6.69
420.069	6.69
420.511	6.69
420.953	6.69
421.396	6.7
421.838	6.71
422.28	6.72
422.722	6.71
423.164	6.71
423.606	6.7
424.048	6.7
424.49	6.69
424.932	6.69
425.374	6.66
425.816	6.63
426.258	6.62
426.699	6.6
427.141	6.58
427.582	6.59
428.024	6.6
428.465	6.6
428.907	6.59
429.348	6.58
429.789	6.57
430.231	6.6
430.672	6.63
431.113	6.64
431.554	6.65
431.995	6.68
432.436	6.67
432.877	6.66
433.318	6.69
433.759	6.72
434.2	6.73
434.64	6.75
435.081	6.76
435.522	6.77
435.962	6.79
436.403	6.8
436.843	6.8
437.284	6.83
437.724	6.86
438.164	6.86
438.604	6.87
439.045	6.89
439.485	6.91
439.925	6.92
440.365	6.95
440.805	6.95
441.245	7
441.685	7.04
442.125	7.07
442.564	7.1
443.004	7.13
443.444	7.16
443.883	7.2
444.323	7.23
444.762	7.27
445.202	7.31
445.641	7.38
446.081	7.41
446.52	7.44
446.959	7.5
447.398	7.55
447.837	7.57
448.276	7.61
448.716	7.65
449.154	7.7
449.593	7.74
450.032	7.76
450.471	7.76
450.91	7.78
451.349	7.81
451.787	7.81
452.226	7.82
452.664	7.84
453.103	7.85
453.541	7.87
453.98	7.88
454.418	7.88
454.856	7.89
455.295	7.89
455.733	7.88
456.171	7.87
456.609	7.87
457.047	7.87
457.485	7.86
457.923	7.86
458.361	7.85
458.798	7.84
459.236	7.84
459.674	7.84
460.111	7.84
460.549	7.86
460.987	7.87
461.424	7.87
461.862	7.88
462.299	7.89
462.736	7.9
463.173	7.9
463.611	7.91
464.048	7.91
464.485	7.92
464.922	7.92
465.359	7.93
465.796	7.95
466.233	7.96
466.67	7.98
467.106	7.99
467.543	7.99
467.98	7.99
468.416	7.99
468.853	8
469.29	8
469.726	8.02
470.162	8.01
470.599	8
471.035	8.01
471.471	7.99
471.907	8
472.344	8.01
472.78	8.03
473.216	8.03
473.652	8.05
474.088	8.05
474.523	8.06
474.959	8.07
475.395	8.07
475.831	8.07
476.266	8.09
476.702	8.08
477.138	8.09
477.573	8.1
478.008	8.11
478.444	8.1
478.879	8.12
479.314	8.12
479.75	8.13
480.185	8.13
480.62	8.14
481.055	8.14
481.49	8.14
481.925	8.15
482.36	8.16
482.795	8.18
483.229	8.19
483.664	8.21
484.099	8.22
484.534	8.23
484.968	8.26
485.403	8.29
485.837	8.31
486.271	8.35
486.706	8.38
487.14	8.41
487.574	8.44
488.009	8.49
488.443	8.52
488.877	8.58
489.311	8.64
489.745	8.69
490.179	8.76
490.613	8.83
491.046	8.91
491.48	8.98
491.914	9.06
492.348	9.14
492.781	9.23
493.215	9.33
493.648	9.43
494.082	9.52
494.515	9.62
494.948	9.72
495.382	9.83
495.815	9.95
496.248	10.08
496.681	10.2
497.114	10.34
497.547	10.48
497.98	10.61
498.413	10.75
498.846	10.9
499.279	11.06
499.711	11.23
500.144	11.4
500.577	11.58
501.009	11.74
501.442	11.93
501.874	12.13
502.306	12.32
502.739	12.55
503.171	12.78
503.603	13
504.036	13.23
504.468	13.47
504.9	13.71
505.332	13.96
505.764	14.23
506.196	14.48
506.627	14.76
507.059	15.05
507.491	15.33
507.923	15.63
508.354	15.95
508.786	16.27
509.217	16.59
509.649	16.93
510.08	17.27
510.512	17.6
510.943	17.95
511.374	18.3
511.805	18.66
512.237	19.01
512.668	19.37
513.099	19.72
513.53	20.08
513.961	20.46
514.391	20.83
514.822	21.21
515.253	21.58
515.684	21.95
516.114	22.33
516.545	22.72
516.975	23.1
517.406	23.47
517.836	23.85
518.267	24.23
518.697	24.59
519.127	24.95
519.558	25.31
519.988	25.66
520.418	26.01
520.848	26.34
521.278	26.65
521.708	27.17
522.138	27.49
522.567	27.8
522.997	28.09
523.427	28.39
523.857	28.69
524.286	28.95
524.716	29.22
525.145	29.49
525.575	29.75
526.004	30.02
526.433	30.06
526.863	30.29
527.292	30.5
527.721	30.71
528.15	30.89
528.579	31.07
529.008	31.28
529.437	31.44
529.866	31.6
530.295	31.76
530.724	31.91
531.152	32.06
531.581	32.22
532.01	32.36
532.438	32.51
532.867	32.64
533.295	32.77
533.723	32.87
534.152	32.99
534.58	33.11
535.008	33.18
535.436	33.28
535.865	33.36
536.293	33.43
536.721	33.52
537.149	33.59
537.576	33.67
538.004	33.73
538.432	33.82
538.86	33.87
539.287	33.91
539.715	34
540.143	34.06
540.57	34.11
540.998	34.16
541.425	34.19
541.852	34.24
542.28	34.29
542.707	34.33
543.134	34.36
543.561	34.41
543.988	34.45
544.415	34.48
544.842	34.49
545.269	34.54
545.696	34.56
546.123	34.6
546.549	34.62
546.976	34.65
547.403	34.67
547.829	34.67
548.256	34.69
548.682	34.7
549.108	34.72
549.535	34.76
549.961	34.75
550.387	34.75
550.813	34.77
551.24	34.77
551.666	34.77
552.092	34.76
552.518	34.78
552.943	34.77
553.369	34.76
553.795	34.74
554.221	34.71
554.646	34.7
555.072	34.68
555.498	34.63
555.923	34.56
556.349	34.52
556.774	34.46
557.199	34.38
557.625	34.31
558.05	34.26
558.475	34.18
558.9	34.11
559.325	34.05
559.75	33.98
560.175	33.89
560.6	33.81
561.025	33.72
561.449	33.63
561.874	33.52
562.299	33.42
562.723	33.31
563.148	33.18
563.572	33.06
563.997	32.92
564.421	32.77
564.846	32.65
565.27	32.51
565.694	32.38
566.118	32.24
566.542	32.12
566.966	31.97
567.39	31.83
567.814	31.7
568.238	31.56
568.662	31.42
569.086	31.28
569.509	31.14
569.933	31.01
570.357	30.86
570.78	30.71
571.204	30.56
571.627	30.41
572.05	30.27
572.474	30.15
572.897	30.01
573.32	29.87
573.743	29.74
574.166	29.61
574.589	29.47
575.012	29.34
575.435	29.23
575.858	29.11
576.281	29.01
576.704	28.88
577.126	28.74
577.549	28.63
577.972	28.52
578.394	28.41
578.817	28.3
579.239	28.2
579.661	28.09
580.084	27.98
580.506	27.87
580.928	27.77
581.35	27.68
581.772	27.6
582.194	27.49
582.616	27.4
583.038	27.31
583.46	27.21
583.882	27.14
584.303	27.05
584.725	26.97
585.147	26.89
585.568	26.82
585.99	26.76
586.411	26.66
586.833	26.6
587.254	26.51
587.675	26.44
588.096	26.38
588.518	26.31
588.939	26.26
589.36	26.21
589.781	26.15
590.202	26.08
590.623	26.02
591.043	25.97
591.464	25.91
591.885	25.86
592.305	25.81
592.726	25.77
593.147	25.72
593.567	25.67
593.987	25.61
594.408	25.57
594.828	25.53
595.248	25.5
595.669	25.47
596.089	25.44
596.509	25.42
596.929	25.38
597.349	25.35
597.769	25.31
598.189	25.26
598.608	25.24
599.028	25.2
599.448	25.14
599.867	25.08
600.287	25.02
600.706	24.98
601.126	24.92
601.545	24.86
601.965	24.82
602.384	24.76
602.803	24.71
603.222	24.65
603.641	24.56
604.061	24.51
604.48	24.44
604.898	24.35
605.317	24.28
605.736	24.2
606.155	24.13
606.574	24.02
606.992	23.93
607.411	23.84
607.829	23.71
608.248	23.62
608.666	23.52
609.085	23.43
609.503	23.35
609.921	23.24
610.339	23.14
610.758	23.04
611.176	22.95
611.594	22.86
612.012	22.76
612.43	22.68
612.847	22.59
613.265	22.5
613.683	22.41
614.101	22.32
614.518	22.21
614.936	22.13
615.353	22.04
615.771	21.94
616.188	21.84
616.606	21.77
617.023	21.69
617.44	21.62
617.857	21.55
618.274	21.47
618.691	21.39
619.108	21.34
619.525	21.28
619.942	21.23
620.359	21.18
620.776	21.14
621.192	21.08
621.609	21.05
622.026	21
622.442	20.97
622.859	20.94
623.275	20.92
623.691	20.9
624.108	20.89
624.524	20.86
624.94	20.86
625.356	20.84
625.772	20.84
626.188	20.81
626.604	20.8
627.02	20.79
627.436	20.78
627.852	20.76
628.268	20.76
628.683	20.74
629.099	20.71
629.514	20.68
629.93	20.66
630.345	20.63
630.761	20.6
631.176	20.55
631.591	20.5
632.007	20.44
632.422	20.38
632.837	20.29
633.252	20.21
633.667	20.11
634.082	20.02
634.497	19.92
634.911	19.8
635.326	19.67
635.741	19.55
636.155	19.41
636.57	19.28
636.984	19.12
637.399	18.97
637.813	18.8
638.228	18.64
638.642	18.46
639.056	18.27
639.47	18.1
639.884	17.91
640.298	17.73
640.712	17.54
641.126	17.34
641.54	17.16
641.954	16.95
642.368	16.77
642.781	16.58
643.195	16.38
643.609	16.19
644.022	16.01
644.436	15.83
644.849	15.65
645.262	15.48
645.676	15.31
646.089	15.17
646.502	15.04
646.915	14.92
647.328	14.8
647.741	14.7
648.154	14.59
648.567	14.51
648.98	14.42
649.393	14.34
649.805	14.28
650.218	14.21
650.631	14.13
651.043	14.06
651.456	13.98
651.868	13.91
652.28	13.83
652.693	13.75
653.105	13.67
653.517	13.58
653.929	13.5
654.341	13.39
654.753	13.29
655.165	13.16
655.577	13.05
655.989	12.93
656.401	12.81
656.813	12.68
657.224	12.53
657.636	12.38
658.047	12.24
658.459	12.06
658.87	11.91
659.282	11.75
659.693	11.6
660.104	11.42
660.515	11.25
660.926	11.08
661.338	10.91
661.749	10.75
662.159	10.59
662.57	10.45
662.981	10.31
663.392	10.16
663.803	10.02
664.213	9.88
664.624	9.76
665.035	9.65
665.445	9.53
665.855	9.42
666.266	9.32
666.676	9.22
667.086	9.11
667.497	9.01
667.907	8.94
668.317	8.86
668.727	8.8
669.137	8.74
669.547	8.69
669.956	8.63
670.366	8.59
670.776	8.56
671.186	8.53
671.595	8.51
672.005	8.49
672.414	8.47
672.824	8.46
673.233	8.45
673.642	8.45
674.052	8.45
674.461	8.46
674.87	8.47
675.279	8.49
675.688	8.51
676.097	8.54
676.506	8.58
676.915	8.63
677.323	8.68
677.732	8.72
678.141	8.79
678.549	8.85
678.958	8.94
679.366	9.05
679.775	9.16
680.183	9.29
680.592	9.45
681	9.63
681.408	9.82
681.816	10.04
682.224	10.29
682.632	10.58
683.04	10.88
683.448	11.21
683.856	11.56
684.264	11.94
684.671	12.35
685.079	12.79
685.487	13.27
685.894	13.79
686.302	14.34
686.709	14.91
687.116	15.5
687.524	16.13
687.931	16.76
688.338	17.43
688.745	18.12
689.152	18.83
689.559	19.56
689.966	20.3
690.373	21.06
690.78	21.83
691.187	22.59
691.593	23.35
692	24.11
692.407	24.87
692.813	25.64
693.22	26.39
693.626	27.13
694.032	27.86
694.439	28.57
694.845	29.27
695.251	29.95
695.657	30.61
696.063	31.28
696.469	31.94
696.875	32.59
697.281	33.21
697.687	33.84
698.093	34.43
698.498	35.01
698.904	35.56
699.31	36.1
699.715	36.63
700.12	37.16
700.526	37.66
700.931	38.14
701.337	38.61
701.742	39.07
702.147	39.5
702.552	39.94
702.957	40.35
703.362	40.76
703.767	41.13
704.172	41.53
704.577	41.88
704.981	42.23
705.386	42.58
705.791	42.92
706.195	43.26
706.6	43.58
707.004	43.88
707.408	44.18
707.813	44.51
708.217	44.79
708.621	45.09
709.025	45.37
709.43	45.62
709.834	45.9
710.237	46.15
710.641	46.37
711.045	46.61
711.449	46.87
711.853	47.14
712.256	47.36
712.66	47.57
713.064	47.8
713.467	48
713.87	48.23
714.274	48.43
714.677	48.64
715.08	48.85
715.484	49.06
715.887	49.25
716.29	49.39
716.693	49.59
717.096	49.78
717.499	49.91
717.901	50.08
718.304	50.24
718.707	50.41
719.109	50.54
719.512	50.69
719.915	50.83
720.317	50.93
720.719	51.06
721.122	51.17
721.524	51.31
721.926	51.46
722.328	51.6
722.731	51.7
723.133	51.8
723.535	51.93
723.937	52.03
724.338	52.11
724.74	52.23
725.142	52.43
725.544	52.52
725.945	52.64
726.347	52.71
726.748	52.76
727.15	52.82
727.551	52.91
727.952	52.97
728.354	53.03
728.755	53.1
729.156	53.16
729.557	53.14
729.958	53.2
730.359	53.25
730.76	53.33
731.161	53.4
731.562	53.48
731.962	53.49
732.363	53.55
732.763	53.58
733.164	53.62
733.564	53.66
733.965	53.68
734.365	53.74
734.766	53.76
735.166	53.78
735.566	53.82
735.966	53.86
736.366	53.92
736.766	53.94
737.166	54
737.566	54.02
737.966	54.04
738.365	54.07
738.765	54.12
739.165	54.13
739.564	54.16
739.964	54.17
740.363	54.16
740.763	54.18
741.162	54.18
741.561	54.18
741.96	54.21
742.36	54.24
742.759	54.24
743.158	54.22
743.557	54.24
743.955	54.25
744.354	54.27
744.753	54.31
745.152	54.33
745.55	54.38
745.949	54.4
746.348	54.43
746.746	54.43
747.144	54.47
747.543	54.49
747.941	54.48
748.339	54.48
748.737	54.46
749.136	54.44
749.534	54.45
749.932	54.43
750.33	54.42
750.727	54.43
751.125	54.45
751.523	54.43
751.921	54.42
752.318	54.43
752.716	54.45
753.113	54.46
753.511	54.49
753.908	54.53
754.305	54.55
754.703	54.55
755.1	54.54
755.497	54.56
755.894	54.6
756.291	54.61
756.688	54.6
757.085	54.62
757.482	54.65
757.878	54.65
758.275	54.61
758.672	54.62
759.068	54.66
759.465	54.67
759.861	54.67
760.258	54.67
760.654	54.7
761.05	54.73
761.447	54.74
761.843	54.74
762.239	54.73
762.635	54.74
763.031	54.74
763.427	54.7
763.822	54.69
764.218	54.7
764.614	54.68
765.01	54.66
765.405	54.65
765.801	54.62
766.196	54.61
766.592	54.59
766.987	54.58
767.382	54.55
767.778	54.56
768.173	54.55
768.568	54.52
768.963	54.48
769.358	54.49
769.753	54.48
770.148	54.52
770.542	54.51
770.937	54.55
771.332	54.54
771.726	54.57
772.121	54.58
772.515	54.59
772.91	54.59
773.304	54.64
773.699	54.63
774.093	54.62
774.487	54.58
774.881	54.6
775.275	54.58
775.669	54.58
776.063	54.55
776.457	54.53
776.851	54.51
777.245	54.48
777.638	54.46
778.032	54.46
778.425	54.49
778.819	54.49
