Data from C_1_DEC_VA_2N_Splice17_12-41-46-911.txt Node
Date: Sat Mar 07 12:41:46 EST 2020
User: sa697716
Spectrometer: NQ5500242
Trigger mode: 0
Integration Time (sec): 1.450000E-1
Scans to average: 20
Nonlinearity correction enabled: false
Boxcar width: 5
Storing dark spectrum: false
XAxis mode: Wavelengths
Number of Pixels in Spectrum: 512
>>>>>Begin Spectral Data<<<<<
187.83	74.28
188.298	80.91
188.766	80.93
189.233	80.32
189.701	70.43
190.169	65.74
190.636	87.72
191.104	126.85
191.571	219.99
192.039	121.13
192.506	191.01
192.974	51.5
193.441	129.62
193.908	62.61
194.375	69.29
194.842	45.41
195.31	46.74
195.777	130.11
196.244	40.52
196.711	38.61
197.177	41.1
197.644	40.48
198.111	39.77
198.578	39.65
199.045	40.03
199.511	40.21
199.978	39.79
200.445	39.99
200.911	40.12
201.378	40.33
201.844	40.77
202.31	40.29
202.777	40.53
203.243	40.5
203.709	40.28
204.176	40.06
204.642	39.65
205.108	39.61
205.574	39.27
206.04	38.69
206.506	38.07
206.972	37.62
207.438	37.33
207.903	36.8
208.369	36.32
208.835	35.74
209.301	34.94
209.766	34.11
210.232	33.14
210.697	32.32
211.163	31.7
211.628	31.16
212.094	30.52
212.559	30.04
213.024	29.43
213.49	28.88
213.955	28.32
214.42	27.86
214.885	27.27
215.35	26.66
215.815	25.43
216.28	23.94
216.745	22.27
217.21	20.63
217.675	19.11
218.14	17.87
218.604	16.76
219.069	15.83
219.534	15.04
219.998	14.37
220.463	13.79
220.927	13.31
221.392	12.95
221.856	12.64
222.32	12.35
222.785	12.14
223.249	11.85
223.713	11.61
224.177	11.42
224.642	11.24
225.106	11.05
225.57	10.87
226.034	10.72
226.497	10.55
226.961	10.39
227.425	10.24
227.889	10.08
228.353	9.96
228.816	9.84
229.28	9.69
229.744	9.57
230.207	9.45
230.671	9.32
231.134	9.22
231.597	9.12
232.061	9
232.524	8.88
232.987	8.78
233.45	8.69
233.914	8.57
234.377	8.47
234.84	8.38
235.303	8.3
235.766	8.22
236.229	8.11
236.691	8.02
237.154	7.96
237.617	7.89
238.08	7.81
238.542	7.71
239.005	7.66
239.468	7.58
239.93	7.5
240.393	7.43
240.855	7.34
241.317	7.28
241.78	7.22
242.242	7.13
242.704	7.07
243.166	7
243.629	6.95
244.091	6.88
244.553	6.81
245.015	6.75
245.477	6.68
245.939	6.62
246.4	6.57
246.862	6.51
247.324	6.46
247.786	6.39
248.247	6.33
248.709	6.27
249.17	6.21
249.632	6.18
250.093	6.13
250.555	6.08
251.016	6.05
251.477	5.99
251.939	5.95
252.4	5.9
252.861	5.87
253.322	5.83
253.783	5.8
254.244	5.77
254.705	5.73
255.166	5.7
255.627	5.67
256.088	5.64
256.549	5.62
257.009	5.59
257.47	5.56
257.931	5.52
258.391	5.48
258.852	5.44
259.312	5.4
259.773	5.38
260.233	5.34
260.694	5.31
261.154	5.26
261.614	5.23
262.074	5.2
262.534	5.17
262.994	5.14
263.455	5.12
263.915	5.1
264.374	5.09
264.834	5.07
265.294	5.05
265.754	5.03
266.214	5.01
266.673	5
267.133	4.99
267.593	4.98
268.052	4.97
268.512	4.96
268.971	4.94
269.431	4.92
269.89	4.9
270.349	4.89
270.809	4.88
271.268	4.87
271.727	4.85
272.186	4.84
272.645	4.82
273.104	4.81
273.563	4.8
274.022	4.79
274.481	4.78
274.94	4.77
275.399	4.76
275.857	4.75
276.316	4.74
276.775	4.73
277.233	4.72
277.692	4.7
278.15	4.69
278.609	4.67
279.067	4.66
279.525	4.65
279.984	4.63
280.442	4.62
280.9	4.61
281.358	4.6
281.816	4.59
282.274	4.58
282.732	4.57
283.19	4.56
283.648	4.55
284.106	4.54
284.564	4.52
285.021	4.52
285.479	4.51
285.937	4.5
286.394	4.48
286.852	4.46
287.309	4.45
287.767	4.44
288.224	4.42
288.682	4.4
289.139	4.38
289.596	4.37
290.053	4.35
290.511	4.33
290.968	4.31
291.425	4.3
291.882	4.28
292.339	4.26
292.796	4.25
293.252	4.24
293.709	4.23
294.166	4.23
294.623	4.22
295.079	4.21
295.536	4.2
295.992	4.19
296.449	4.18
296.905	4.18
297.362	4.17
297.818	4.16
298.274	4.15
298.731	4.14
299.187	4.13
299.643	4.12
300.099	4.11
300.555	4.1
301.011	4.1
301.467	4.08
301.923	4.07
302.379	4.06
302.835	4.05
303.291	4.05
303.746	4.05
304.202	4.05
304.658	4.04
305.113	4.03
305.569	4.02
306.024	4.02
306.479	4.02
306.935	4.01
307.39	4
307.845	4
308.301	4
308.756	4
309.211	3.99
309.666	3.99
310.121	3.98
310.576	3.99
311.031	3.98
311.486	3.98
311.94	3.98
312.395	3.98
312.85	3.98
313.305	3.97
313.759	3.97
314.214	3.96
314.668	3.96
315.123	3.96
315.577	3.95
316.032	3.95
316.486	3.94
316.94	3.93
317.394	3.92
317.849	3.9
318.303	3.89
318.757	3.87
319.211	3.86
319.665	3.85
320.119	3.84
320.572	3.83
321.026	3.81
321.48	3.8
321.934	3.78
322.387	3.77
322.841	3.77
323.295	3.76
323.748	3.76
324.202	3.75
324.655	3.74
325.108	3.74
325.562	3.74
326.015	3.74
326.468	3.73
326.921	3.73
327.374	3.73
327.827	3.74
328.28	3.73
328.733	3.73
329.186	3.72
329.639	3.72
330.092	3.71
330.545	3.7
330.997	3.7
331.45	3.71
331.903	3.71
332.355	3.71
332.808	3.7
333.26	3.7
333.713	3.7
334.165	3.7
334.617	3.7
335.069	3.69
335.522	3.69
335.974	3.7
336.426	3.69
336.878	3.68
337.33	3.67
337.782	3.67
338.234	3.67
338.686	3.67
339.137	3.67
339.589	3.66
340.041	3.66
340.493	3.65
340.944	3.63
341.396	3.62
341.847	3.61
342.299	3.59
342.75	3.58
343.201	3.56
343.653	3.56
344.104	3.54
344.555	3.54
345.006	3.53
345.457	3.52
345.908	3.51
346.359	3.51
346.81	3.5
347.261	3.49
347.712	3.48
348.163	3.47
348.613	3.47
349.064	3.48
349.515	3.47
349.965	3.46
350.416	3.46
350.866	3.47
351.317	3.46
351.767	3.47
352.217	3.47
352.668	3.47
353.118	3.47
353.568	3.47
354.018	3.46
354.468	3.47
354.918	3.47
355.368	3.48
355.818	3.48
356.268	3.48
356.718	3.48
357.168	3.47
357.617	3.46
358.067	3.47
358.517	3.48
358.966	3.48
359.416	3.48
359.865	3.47
360.315	3.47
360.764	3.47
361.213	3.46
361.663	3.45
362.112	3.47
362.561	3.47
363.01	3.47
363.459	3.45
363.908	3.45
364.357	3.45
364.806	3.44
365.255	3.44
365.703	3.45
366.152	3.46
366.601	3.46
367.05	3.46
367.498	3.46
367.947	3.47
368.395	3.48
368.844	3.48
369.292	3.48
369.74	3.49
370.189	3.5
370.637	3.51
371.085	3.5
371.533	3.51
371.981	3.51
372.429	3.51
372.877	3.51
373.325	3.52
373.773	3.51
374.221	3.51
374.669	3.52
375.116	3.5
375.564	3.5
376.012	3.51
376.459	3.51
376.907	3.52
377.354	3.52
377.801	3.54
378.249	3.55
378.696	3.57
379.143	3.58
379.591	3.6
380.038	3.62
380.485	3.64
380.932	3.65
381.379	3.67
381.826	3.68
382.273	3.69
382.72	3.69
383.166	3.71
383.613	3.73
384.06	3.73
384.506	3.75
384.953	3.77
385.4	3.8
385.846	3.83
386.292	3.86
386.739	3.88
387.185	3.91
387.631	3.94
388.078	3.97
388.524	3.99
388.97	4.02
389.416	4.05
389.862	4.08
390.308	4.12
390.754	4.15
391.2	4.18
391.645	4.22
392.091	4.27
392.537	4.31
392.983	4.34
393.428	4.38
393.874	4.41
394.319	4.44
394.765	4.46
395.21	4.47
395.655	4.49
396.101	4.52
396.546	4.54
396.991	4.56
397.436	4.59
397.881	4.61
398.326	4.65
398.771	4.68
399.216	4.71
399.661	4.74
400.106	4.76
400.551	4.78
400.995	4.79
401.44	4.81
401.885	4.83
402.329	4.84
402.774	4.85
403.218	4.86
403.663	4.87
404.107	4.89
404.551	4.9
404.995	4.91
405.44	4.91
405.884	4.93
406.328	4.94
406.772	4.94
407.216	4.94
407.66	4.93
408.104	4.92
408.547	4.92
408.991	4.92
409.435	4.91
409.879	4.92
410.322	4.93
410.766	4.94
411.209	4.94
411.653	4.95
412.096	4.96
412.54	4.98
412.983	4.99
413.426	5.01
413.869	5.01
414.312	5.04
414.756	5.04
415.199	5.04
415.642	5.03
416.085	5.04
416.527	5.04
416.97	5.03
417.413	5.03
417.856	5.02
418.298	5.02
418.741	5.03
419.184	5.01
419.626	5.02
420.069	5.02
420.511	5.02
420.953	5.01
421.396	5
421.838	5.02
422.28	5.02
422.722	5.03
423.164	5.03
423.606	5.02
424.048	5.02
424.49	5.02
424.932	5.01
425.374	5
425.816	4.98
426.258	4.97
426.699	4.95
427.141	4.93
427.582	4.93
428.024	4.93
428.465	4.92
428.907	4.91
429.348	4.9
429.789	4.89
430.231	4.9
430.672	4.91
431.113	4.93
431.554	4.94
431.995	4.95
432.436	4.95
432.877	4.95
433.318	4.96
433.759	4.99
434.2	5.02
434.64	5.06
435.081	5.06
435.522	5.08
435.962	5.11
436.403	5.13
436.843	5.14
437.284	5.13
437.724	5.15
438.164	5.15
438.604	5.16
439.045	5.17
439.485	5.17
439.925	5.17
440.365	5.19
440.805	5.2
441.245	5.22
441.685	5.26
442.125	5.31
442.564	5.33
443.004	5.36
443.444	5.38
443.883	5.41
444.323	5.43
444.762	5.47
445.202	5.49
445.641	5.53
446.081	5.56
446.52	5.57
446.959	5.61
447.398	5.64
447.837	5.67
448.276	5.69
448.716	5.73
449.154	5.78
449.593	5.81
450.032	5.84
450.471	5.85
450.91	5.86
451.349	5.88
451.787	5.86
452.226	5.88
452.664	5.89
453.103	5.88
453.541	5.89
453.98	5.89
454.418	5.89
454.856	5.89
455.295	5.88
455.733	5.87
456.171	5.87
456.609	5.87
457.047	5.85
457.485	5.83
457.923	5.83
458.361	5.81
458.798	5.8
459.236	5.8
459.674	5.8
460.111	5.79
460.549	5.8
460.987	5.8
461.424	5.81
461.862	5.82
462.299	5.84
462.736	5.83
463.173	5.84
463.611	5.84
464.048	5.84
464.485	5.84
464.922	5.86
465.359	5.86
465.796	5.86
466.233	5.85
466.67	5.84
467.106	5.84
467.543	5.84
467.98	5.85
468.416	5.84
468.853	5.83
469.29	5.82
469.726	5.83
470.162	5.84
470.599	5.84
471.035	5.85
471.471	5.85
471.907	5.85
472.344	5.87
472.78	5.88
473.216	5.88
473.652	5.9
474.088	5.9
474.523	5.89
474.959	5.9
475.395	5.88
475.831	5.87
476.266	5.88
476.702	5.87
477.138	5.86
477.573	5.86
478.008	5.87
478.444	5.86
478.879	5.87
479.314	5.87
479.75	5.86
480.185	5.86
480.62	5.86
481.055	5.86
481.49	5.87
481.925	5.87
482.36	5.86
482.795	5.86
483.229	5.87
483.664	5.89
484.099	5.9
484.534	5.91
484.968	5.93
485.403	5.95
485.837	5.97
486.271	6
486.706	6.02
487.14	6.05
487.574	6.08
488.009	6.11
488.443	6.15
488.877	6.19
489.311	6.24
489.745	6.29
490.179	6.35
490.613	6.4
491.046	6.44
491.48	6.51
491.914	6.57
492.348	6.64
492.781	6.72
493.215	6.78
493.648	6.86
494.082	6.93
494.515	7.01
494.948	7.1
495.382	7.19
495.815	7.3
496.248	7.41
496.681	7.53
497.114	7.65
497.547	7.76
497.98	7.89
498.413	8.02
498.846	8.16
499.279	8.3
499.711	8.44
500.144	8.6
500.577	8.77
501.009	8.93
501.442	9.11
501.874	9.3
502.306	9.49
502.739	9.7
503.171	9.91
503.603	10.13
504.036	10.36
504.468	10.6
504.9	10.82
505.332	11.07
505.764	11.33
506.196	11.59
506.627	11.85
507.059	12.12
507.491	12.4
507.923	12.68
508.354	12.99
508.786	13.29
509.217	13.6
509.649	13.93
510.08	14.26
510.512	14.58
510.943	14.92
511.374	15.28
511.805	15.64
512.237	16
512.668	16.37
513.099	16.72
513.53	17.09
513.961	17.46
514.391	17.83
514.822	18.22
515.253	18.6
515.684	18.98
516.114	19.36
516.545	19.74
516.975	20.12
517.406	20.5
517.836	20.89
518.267	21.27
518.697	21.65
519.127	22.02
519.558	22.37
519.988	22.75
520.418	23.1
520.848	23.44
521.278	23.77
521.708	24.21
522.138	24.53
522.567	24.85
522.997	25.16
523.427	25.46
523.857	25.76
524.286	26.03
524.716	26.31
525.145	26.57
525.575	26.83
526.004	27.09
526.433	27.23
526.863	27.45
527.292	27.67
527.721	27.87
528.15	28.08
528.579	28.27
529.008	28.45
529.437	28.61
529.866	28.79
530.295	28.96
530.724	29.1
531.152	29.25
531.581	29.4
532.01	29.53
532.438	29.65
532.867	29.78
533.295	29.89
533.723	29.99
534.152	30.1
534.58	30.18
535.008	30.24
535.436	30.32
535.865	30.39
536.293	30.45
536.721	30.52
537.149	30.59
537.576	30.63
538.004	30.7
538.432	30.75
538.86	30.78
539.287	30.82
539.715	30.88
540.143	30.93
540.57	30.96
540.998	30.99
541.425	31.03
541.852	31.05
542.28	31.11
542.707	31.14
543.134	31.17
543.561	31.22
543.988	31.26
544.415	31.29
544.842	31.29
545.269	31.33
545.696	31.37
546.123	31.4
546.549	31.43
546.976	31.45
547.403	31.47
547.829	31.49
548.256	31.49
548.682	31.48
549.108	31.51
549.535	31.55
549.961	31.55
550.387	31.55
550.813	31.54
551.24	31.52
551.666	31.5
552.092	31.5
552.518	31.48
552.943	31.46
553.369	31.45
553.795	31.41
554.221	31.36
554.646	31.33
555.072	31.29
555.498	31.24
555.923	31.18
556.349	31.09
556.774	31.02
557.199	30.94
557.625	30.86
558.05	30.76
558.475	30.69
558.9	30.6
559.325	30.5
559.75	30.38
560.175	30.25
560.6	30.15
561.025	30.04
561.449	29.91
561.874	29.77
562.299	29.65
562.723	29.51
563.148	29.35
563.572	29.18
563.997	29.02
564.421	28.86
564.846	28.72
565.27	28.56
565.694	28.39
566.118	28.22
566.542	28.05
566.966	27.87
567.39	27.7
567.814	27.53
568.238	27.36
568.662	27.19
569.086	27.01
569.509	26.85
569.933	26.67
570.357	26.5
570.78	26.32
571.204	26.16
571.627	25.98
572.05	25.82
572.474	25.66
572.897	25.51
573.32	25.35
573.743	25.2
574.166	25.04
574.589	24.9
575.012	24.75
575.435	24.61
575.858	24.48
576.281	24.34
576.704	24.2
577.126	24.07
577.549	23.94
577.972	23.8
578.394	23.66
578.817	23.53
579.239	23.41
579.661	23.3
580.084	23.18
580.506	23.06
580.928	22.95
581.35	22.84
581.772	22.73
582.194	22.62
582.616	22.52
583.038	22.43
583.46	22.32
583.882	22.21
584.303	22.11
584.725	22.02
585.147	21.93
585.568	21.85
585.99	21.75
586.411	21.68
586.833	21.59
587.254	21.5
587.675	21.42
588.096	21.35
588.518	21.28
588.939	21.21
589.36	21.14
589.781	21.09
590.202	21.01
590.623	20.96
591.043	20.89
591.464	20.83
591.885	20.78
592.305	20.72
592.726	20.69
593.147	20.63
593.567	20.58
593.987	20.51
594.408	20.46
594.828	20.41
595.248	20.37
595.669	20.33
596.089	20.3
596.509	20.27
596.929	20.23
597.349	20.18
597.769	20.14
598.189	20.11
598.608	20.08
599.028	20.05
599.448	19.99
599.867	19.95
600.287	19.9
600.706	19.83
601.126	19.77
601.545	19.71
601.965	19.66
602.384	19.6
602.803	19.53
603.222	19.48
603.641	19.4
604.061	19.35
604.48	19.26
604.898	19.18
605.317	19.1
605.736	19.02
606.155	18.93
606.574	18.84
606.992	18.74
607.411	18.64
607.829	18.5
608.248	18.39
608.666	18.29
609.085	18.19
609.503	18.09
609.921	17.99
610.339	17.9
610.758	17.81
611.176	17.7
611.594	17.59
612.012	17.5
612.43	17.42
612.847	17.33
613.265	17.23
613.683	17.14
614.101	17.04
614.518	16.95
614.936	16.85
615.353	16.77
615.771	16.69
616.188	16.62
616.606	16.53
617.023	16.45
617.44	16.38
617.857	16.31
618.274	16.23
618.691	16.17
619.108	16.11
619.525	16.04
619.942	15.97
620.359	15.92
620.776	15.86
621.192	15.8
621.609	15.77
622.026	15.73
622.442	15.7
622.859	15.67
623.275	15.64
623.691	15.61
624.108	15.6
624.524	15.58
624.94	15.56
625.356	15.56
625.772	15.55
626.188	15.54
626.604	15.51
627.02	15.5
627.436	15.49
627.852	15.47
628.268	15.45
628.683	15.43
629.099	15.41
629.514	15.39
629.93	15.35
630.345	15.31
630.761	15.26
631.176	15.22
631.591	15.16
632.007	15.09
632.422	15.02
632.837	14.95
633.252	14.85
633.667	14.76
634.082	14.65
634.497	14.54
634.911	14.43
635.326	14.31
635.741	14.18
636.155	14.04
636.57	13.91
636.984	13.75
637.399	13.6
637.813	13.44
638.228	13.27
638.642	13.11
639.056	12.95
639.47	12.78
639.884	12.62
640.298	12.44
640.712	12.25
641.126	12.08
641.54	11.9
641.954	11.72
642.368	11.56
642.781	11.39
643.195	11.24
643.609	11.07
644.022	10.91
644.436	10.76
644.849	10.62
645.262	10.5
645.676	10.36
646.089	10.25
646.502	10.14
646.915	10.04
647.328	9.94
647.741	9.84
648.154	9.77
648.567	9.7
648.98	9.62
649.393	9.55
649.805	9.49
650.218	9.43
650.631	9.37
651.043	9.31
651.456	9.25
651.868	9.19
652.28	9.13
652.693	9.08
653.105	9.02
653.517	8.95
653.929	8.89
654.341	8.81
654.753	8.74
655.165	8.66
655.577	8.58
655.989	8.49
656.401	8.4
656.813	8.31
657.224	8.2
657.636	8.09
658.047	7.98
658.459	7.87
658.87	7.76
659.282	7.64
659.693	7.53
660.104	7.41
660.515	7.29
660.926	7.19
661.338	7.06
661.749	6.97
662.159	6.86
662.57	6.77
662.981	6.67
663.392	6.57
663.803	6.48
664.213	6.38
664.624	6.31
665.035	6.23
665.445	6.15
665.855	6.09
666.266	6.01
666.676	5.97
667.086	5.9
667.497	5.86
667.907	5.82
668.317	5.79
668.727	5.76
669.137	5.74
669.547	5.72
669.956	5.71
670.366	5.69
670.776	5.68
671.186	5.67
671.595	5.66
672.005	5.65
672.414	5.65
672.824	5.65
673.233	5.66
673.642	5.67
674.052	5.67
674.461	5.68
674.87	5.7
675.279	5.73
675.688	5.77
676.097	5.8
676.506	5.85
676.915	5.9
677.323	5.95
677.732	6
678.141	6.06
678.549	6.13
678.958	6.22
679.366	6.3
679.775	6.38
680.183	6.48
680.592	6.6
681	6.72
681.408	6.86
681.816	7.01
682.224	7.18
682.632	7.37
683.04	7.57
683.448	7.79
683.856	8.03
684.264	8.3
684.671	8.59
685.079	8.91
685.487	9.26
685.894	9.65
686.302	10.07
686.709	10.53
687.116	11
687.524	11.51
687.931	12.05
688.338	12.64
688.745	13.23
689.152	13.86
689.559	14.52
689.966	15.19
690.373	15.88
690.78	16.6
691.187	17.32
691.593	18.06
692	18.8
692.407	19.53
692.813	20.29
693.22	21.04
693.626	21.8
694.032	22.55
694.439	23.29
694.845	24.03
695.251	24.75
695.657	25.48
696.063	26.21
696.469	26.93
696.875	27.66
697.281	28.36
697.687	29.05
698.093	29.74
698.498	30.39
698.904	31.05
699.31	31.68
699.715	32.29
700.12	32.9
700.526	33.5
700.931	34.08
701.337	34.63
701.742	35.16
702.147	35.68
702.552	36.18
702.957	36.69
703.362	37.19
703.767	37.65
704.172	38.1
704.577	38.57
704.981	38.99
705.386	39.44
705.791	39.88
706.195	40.3
706.6	40.71
707.004	41.11
707.408	41.51
707.813	41.88
708.217	42.27
708.621	42.65
709.025	42.99
709.43	43.33
709.834	43.66
710.237	43.98
710.641	44.29
711.045	44.6
711.449	44.92
711.853	45.22
712.256	45.52
712.66	45.81
713.064	46.09
713.467	46.39
713.87	46.69
714.274	46.96
714.677	47.25
715.08	47.52
715.484	47.78
715.887	48.05
716.29	48.28
716.693	48.54
717.096	48.77
717.499	48.99
717.901	49.2
718.304	49.39
718.707	49.59
719.109	49.8
719.512	49.98
719.915	50.19
720.317	50.36
720.719	50.52
721.122	50.69
721.524	50.86
721.926	51.04
722.328	51.2
722.731	51.37
723.133	51.55
723.535	51.68
723.937	51.85
724.338	52
724.74	52.14
725.142	52.34
725.544	52.46
725.945	52.59
726.347	52.69
726.748	52.79
727.15	52.92
727.551	53.01
727.952	53.1
728.354	53.18
728.755	53.26
729.156	53.37
729.557	53.42
729.958	53.5
730.359	53.59
730.76	53.7
731.161	53.78
731.562	53.85
731.962	53.92
732.363	54.01
732.763	54.08
733.164	54.16
733.564	54.19
733.965	54.25
734.365	54.33
734.766	54.38
735.166	54.43
735.566	54.49
735.966	54.53
736.366	54.58
736.766	54.62
737.166	54.64
737.566	54.69
737.966	54.75
738.365	54.75
738.765	54.79
739.165	54.83
739.564	54.85
739.964	54.87
740.363	54.88
740.763	54.9
741.162	54.93
741.561	54.94
741.96	54.94
742.36	54.95
742.759	55
743.158	55
743.557	55
743.955	55.03
744.354	55.06
744.753	55.11
745.152	55.16
745.55	55.2
745.949	55.24
746.348	55.28
746.746	55.28
747.144	55.3
747.543	55.31
747.941	55.33
748.339	55.32
748.737	55.31
749.136	55.3
749.534	55.29
749.932	55.29
750.33	55.27
750.727	55.28
751.125	55.3
751.523	55.3
751.921	55.32
752.318	55.34
752.716	55.36
753.113	55.37
753.511	55.38
753.908	55.39
754.305	55.4
754.703	55.38
755.1	55.37
755.497	55.36
755.894	55.33
756.291	55.33
756.688	55.32
757.085	55.3
757.482	55.29
757.878	55.29
758.275	55.27
758.672	55.26
759.068	55.29
759.465	55.32
759.861	55.35
760.258	55.36
760.654	55.38
761.05	55.38
761.447	55.42
761.843	55.41
762.239	55.4
762.635	55.4
763.031	55.39
763.427	55.35
763.822	55.32
764.218	55.3
764.614	55.3
765.01	55.25
765.405	55.24
765.801	55.17
766.196	55.17
766.592	55.14
766.987	55.14
767.382	55.12
767.778	55.11
768.173	55.11
768.568	55.09
768.963	55.05
769.358	55.06
769.753	55.04
770.148	55.05
770.542	55.03
770.937	55.07
771.332	55.03
771.726	55.05
772.121	55.06
772.515	55.07
772.91	55.08
773.304	55.1
773.699	55.11
774.093	55.13
774.487	55.15
774.881	55.18
775.275	55.16
775.669	55.17
776.063	55.14
776.457	55.15
776.851	55.12
777.245	55.07
777.638	55.05
778.032	55.05
778.425	55.03
778.819	55
779.212	55
779.606	55.03
779.999	55.04
780.392	55.07
780.786	55.04
781.179	55.05
781.572	55.13
781.965	55.16
782.358	55.16
