Data from C_1_DEC_OH_4N_Splice17_12-43-21-217.txt Node
Date: Sat Mar 07 12:43:21 EST 2020
User: sa697716
Spectrometer: NQ5500242
Trigger mode: 0
Integration Time (sec): 1.450000E-1
Scans to average: 20
Nonlinearity correction enabled: false
Boxcar width: 5
Storing dark spectrum: false
XAxis mode: Wavelengths
Number of Pixels in Spectrum: 512
>>>>>Begin Spectral Data<<<<<
187.83	102.47
188.298	138.64
188.766	110.01
189.233	88.71
189.701	90.75
190.169	114.25
190.636	130.68
191.104	173.7
191.571	135.76
192.039	248
192.506	320.48
192.974	-53.66
193.441	154.99
193.908	93.3
194.375	67.77
194.842	25.18
195.31	45.65
195.777	37.41
196.244	30.05
196.711	37.01
197.177	39.23
197.644	38.35
198.111	38.04
198.578	37.61
199.045	37.38
199.511	37.2
199.978	37.44
200.445	37.88
200.911	37.89
201.378	38.05
201.844	37.86
202.31	37.52
202.777	37.58
203.243	37.8
203.709	37.93
204.176	37.91
204.642	37.71
205.108	37.81
205.574	37.52
206.04	37.16
206.506	37.07
206.972	37.39
207.438	37.41
207.903	37.38
208.369	36.96
208.835	36.63
209.301	36.06
209.766	35.63
210.232	34.65
210.697	34.02
211.163	33.7
211.628	33.28
212.094	32.35
212.559	32.05
213.024	31.29
213.49	30.81
213.955	30.08
214.42	29.72
214.885	29.27
215.35	28.89
215.815	28.16
216.28	27.11
216.745	25.89
217.21	24.89
217.675	23.81
218.14	23.01
218.604	22.28
219.069	21.69
219.534	21.16
219.998	20.7
220.463	20.34
220.927	19.99
221.392	19.7
221.856	19.43
222.32	19.23
222.785	19.02
223.249	18.81
223.713	18.62
224.177	18.45
224.642	18.24
225.106	18.04
225.57	17.81
226.034	17.63
226.497	17.45
226.961	17.28
227.425	17.07
227.889	16.87
228.353	16.71
228.816	16.51
229.28	16.32
229.744	16.16
230.207	15.98
230.671	15.82
231.134	15.64
231.597	15.5
232.061	15.34
232.524	15.18
232.987	15.03
233.45	14.86
233.914	14.72
234.377	14.57
234.84	14.41
235.303	14.28
235.766	14.15
236.229	14.02
236.691	13.88
237.154	13.76
237.617	13.65
238.08	13.54
238.542	13.41
239.005	13.29
239.468	13.16
239.93	13.05
240.393	12.93
240.855	12.8
241.317	12.69
241.78	12.57
242.242	12.44
242.704	12.34
243.166	12.23
243.629	12.14
244.091	12.03
244.553	11.95
245.015	11.86
245.477	11.76
245.939	11.67
246.4	11.57
246.862	11.48
247.324	11.41
247.786	11.32
248.247	11.23
248.709	11.15
249.17	11.05
249.632	10.98
250.093	10.91
250.555	10.85
251.016	10.79
251.477	10.72
251.939	10.66
252.4	10.61
252.861	10.56
253.322	10.5
253.783	10.46
254.244	10.42
254.705	10.36
255.166	10.31
255.627	10.25
256.088	10.21
256.549	10.16
257.009	10.11
257.47	10.06
257.931	9.99
258.391	9.94
258.852	9.87
259.312	9.83
259.773	9.78
260.233	9.73
260.694	9.68
261.154	9.63
261.614	9.59
262.074	9.55
262.534	9.5
262.994	9.47
263.455	9.44
263.915	9.42
264.374	9.4
264.834	9.37
265.294	9.35
265.754	9.33
266.214	9.32
266.673	9.31
267.133	9.29
267.593	9.28
268.052	9.27
268.512	9.25
268.971	9.23
269.431	9.21
269.89	9.19
270.349	9.17
270.809	9.14
271.268	9.12
271.727	9.09
272.186	9.07
272.645	9.05
273.104	9.02
273.563	9
274.022	8.97
274.481	8.95
274.94	8.92
275.399	8.9
275.857	8.88
276.316	8.85
276.775	8.83
277.233	8.81
277.692	8.79
278.15	8.77
278.609	8.75
279.067	8.72
279.525	8.7
279.984	8.68
280.442	8.66
280.9	8.64
281.358	8.62
281.816	8.59
282.274	8.56
282.732	8.53
283.19	8.5
283.648	8.47
284.106	8.43
284.564	8.4
285.021	8.38
285.479	8.34
285.937	8.31
286.394	8.28
286.852	8.25
287.309	8.22
287.767	8.18
288.224	8.15
288.682	8.12
289.139	8.08
289.596	8.05
290.053	8.02
290.511	7.99
290.968	7.97
291.425	7.94
291.882	7.92
292.339	7.89
292.796	7.87
293.252	7.86
293.709	7.84
294.166	7.84
294.623	7.82
295.079	7.81
295.536	7.79
295.992	7.76
296.449	7.74
296.905	7.73
297.362	7.72
297.818	7.69
298.274	7.68
298.731	7.65
299.187	7.63
299.643	7.6
300.099	7.58
300.555	7.57
301.011	7.56
301.467	7.54
301.923	7.51
302.379	7.49
302.835	7.48
303.291	7.45
303.746	7.44
304.202	7.42
304.658	7.41
305.113	7.38
305.569	7.36
306.024	7.34
306.479	7.32
306.935	7.31
307.39	7.29
307.845	7.27
308.301	7.27
308.756	7.25
309.211	7.24
309.666	7.24
310.121	7.23
310.576	7.22
311.031	7.21
311.486	7.19
311.94	7.19
312.395	7.18
312.85	7.17
313.305	7.16
313.759	7.15
314.214	7.13
314.668	7.11
315.123	7.09
315.577	7.07
316.032	7.06
316.486	7.04
316.94	7.02
317.394	6.99
317.849	6.96
318.303	6.95
318.757	6.92
319.211	6.9
319.665	6.88
320.119	6.87
320.572	6.85
321.026	6.83
321.48	6.81
321.934	6.79
322.387	6.78
322.841	6.76
323.295	6.74
323.748	6.72
324.202	6.71
324.655	6.69
325.108	6.68
325.562	6.67
326.015	6.65
326.468	6.65
326.921	6.64
327.374	6.62
327.827	6.61
328.28	6.6
328.733	6.59
329.186	6.57
329.639	6.56
330.092	6.54
330.545	6.53
330.997	6.51
331.45	6.5
331.903	6.49
332.355	6.48
332.808	6.47
333.26	6.46
333.713	6.45
334.165	6.43
334.617	6.43
335.069	6.41
335.522	6.39
335.974	6.4
336.426	6.39
336.878	6.37
337.33	6.37
337.782	6.37
338.234	6.36
338.686	6.35
339.137	6.35
339.589	6.33
340.041	6.33
340.493	6.32
340.944	6.29
341.396	6.28
341.847	6.27
342.299	6.24
342.75	6.23
343.201	6.2
343.653	6.19
344.104	6.16
344.555	6.14
345.006	6.12
345.457	6.11
345.908	6.1
346.359	6.09
346.81	6.07
347.261	6.06
347.712	6.04
348.163	6.02
348.613	6.02
349.064	6.02
349.515	6.02
349.965	6.01
350.416	6
350.866	5.99
351.317	5.98
351.767	5.98
352.217	5.97
352.668	5.97
353.118	5.97
353.568	5.96
354.018	5.96
354.468	5.95
354.918	5.95
355.368	5.96
355.818	5.96
356.268	5.95
356.718	5.95
357.168	5.94
357.617	5.93
358.067	5.93
358.517	5.93
358.966	5.92
359.416	5.92
359.865	5.9
360.315	5.89
360.764	5.88
361.213	5.87
361.663	5.86
362.112	5.87
362.561	5.87
363.01	5.85
363.459	5.83
363.908	5.83
364.357	5.83
364.806	5.83
365.255	5.83
365.703	5.83
366.152	5.82
366.601	5.82
367.05	5.8
367.498	5.79
367.947	5.79
368.395	5.8
368.844	5.79
369.292	5.78
369.74	5.77
370.189	5.76
370.637	5.75
371.085	5.74
371.533	5.73
371.981	5.73
372.429	5.72
372.877	5.72
373.325	5.7
373.773	5.69
374.221	5.68
374.669	5.68
375.116	5.67
375.564	5.67
376.012	5.67
376.459	5.65
376.907	5.65
377.354	5.65
377.801	5.64
378.249	5.64
378.696	5.62
379.143	5.63
379.591	5.62
380.038	5.62
380.485	5.61
380.932	5.6
381.379	5.62
381.826	5.61
382.273	5.61
382.72	5.6
383.166	5.6
383.613	5.59
384.06	5.58
384.506	5.57
384.953	5.57
385.4	5.57
385.846	5.58
386.292	5.56
386.739	5.55
387.185	5.54
387.631	5.55
388.078	5.54
388.524	5.55
388.97	5.55
389.416	5.55
389.862	5.55
390.308	5.55
390.754	5.55
391.2	5.55
391.645	5.56
392.091	5.57
392.537	5.58
392.983	5.58
393.428	5.59
393.874	5.59
394.319	5.59
394.765	5.58
395.21	5.59
395.655	5.6
396.101	5.6
396.546	5.59
396.991	5.6
397.436	5.61
397.881	5.63
398.326	5.63
398.771	5.64
399.216	5.65
399.661	5.67
400.106	5.68
400.551	5.68
400.995	5.68
401.44	5.69
401.885	5.69
402.329	5.7
402.774	5.71
403.218	5.73
403.663	5.74
404.107	5.75
404.551	5.76
404.995	5.76
405.44	5.77
405.884	5.78
406.328	5.8
406.772	5.8
407.216	5.79
407.66	5.78
408.104	5.77
408.547	5.76
408.991	5.76
409.435	5.75
409.879	5.76
410.322	5.77
410.766	5.78
411.209	5.78
411.653	5.81
412.096	5.81
412.54	5.82
412.983	5.84
413.426	5.86
413.869	5.87
414.312	5.89
414.756	5.9
415.199	5.9
415.642	5.9
416.085	5.9
416.527	5.87
416.97	5.86
417.413	5.85
417.856	5.84
418.298	5.82
418.741	5.82
419.184	5.83
419.626	5.82
420.069	5.82
420.511	5.81
420.953	5.82
421.396	5.84
421.838	5.86
422.28	5.87
422.722	5.88
423.164	5.87
423.606	5.87
424.048	5.88
424.49	5.88
424.932	5.88
425.374	5.87
425.816	5.84
426.258	5.82
426.699	5.81
427.141	5.8
427.582	5.8
428.024	5.81
428.465	5.83
428.907	5.82
429.348	5.81
429.789	5.81
430.231	5.82
430.672	5.83
431.113	5.85
431.554	5.86
431.995	5.88
432.436	5.88
432.877	5.87
433.318	5.87
433.759	5.88
434.2	5.89
434.64	5.91
435.081	5.91
435.522	5.92
435.962	5.94
436.403	5.96
436.843	5.95
437.284	5.95
437.724	5.96
438.164	5.96
438.604	5.97
439.045	5.96
439.485	5.96
439.925	5.96
440.365	5.96
440.805	5.94
441.245	5.95
441.685	5.96
442.125	5.97
442.564	5.97
443.004	5.96
443.444	5.94
443.883	5.94
444.323	5.95
444.762	5.95
445.202	5.95
445.641	5.96
446.081	5.95
446.52	5.94
446.959	5.95
447.398	5.95
447.837	5.95
448.276	5.95
448.716	5.95
449.154	5.96
449.593	5.96
450.032	5.97
450.471	5.97
450.91	5.95
451.349	5.95
451.787	5.94
452.226	5.93
452.664	5.93
453.103	5.91
453.541	5.9
453.98	5.89
454.418	5.88
454.856	5.87
455.295	5.86
455.733	5.85
456.171	5.85
456.609	5.85
457.047	5.83
457.485	5.83
457.923	5.83
458.361	5.82
458.798	5.82
459.236	5.81
459.674	5.8
460.111	5.79
460.549	5.8
460.987	5.8
461.424	5.81
461.862	5.82
462.299	5.82
462.736	5.83
463.173	5.85
463.611	5.85
464.048	5.87
464.485	5.88
464.922	5.89
465.359	5.9
465.796	5.9
466.233	5.9
466.67	5.91
467.106	5.93
467.543	5.91
467.98	5.91
468.416	5.9
468.853	5.9
469.29	5.89
469.726	5.9
470.162	5.9
470.599	5.89
471.035	5.87
471.471	5.86
471.907	5.85
472.344	5.86
472.78	5.86
473.216	5.85
473.652	5.85
474.088	5.84
474.523	5.82
474.959	5.81
475.395	5.8
475.831	5.79
476.266	5.78
476.702	5.77
477.138	5.76
477.573	5.75
478.008	5.75
478.444	5.73
478.879	5.74
479.314	5.73
479.75	5.72
480.185	5.71
480.62	5.71
481.055	5.7
481.49	5.7
481.925	5.69
482.36	5.69
482.795	5.68
483.229	5.68
483.664	5.68
484.099	5.67
484.534	5.66
484.968	5.67
485.403	5.67
485.837	5.68
486.271	5.69
486.706	5.68
487.14	5.69
487.574	5.69
488.009	5.69
488.443	5.7
488.877	5.71
489.311	5.74
489.745	5.75
490.179	5.78
490.613	5.79
491.046	5.81
491.48	5.84
491.914	5.87
492.348	5.9
492.781	5.94
493.215	5.97
493.648	6.01
494.082	6.03
494.515	6.06
494.948	6.1
495.382	6.14
495.815	6.19
496.248	6.24
496.681	6.28
497.114	6.33
497.547	6.38
497.98	6.44
498.413	6.5
498.846	6.57
499.279	6.64
499.711	6.7
500.144	6.78
500.577	6.85
501.009	6.92
501.442	7
501.874	7.09
502.306	7.18
502.739	7.29
503.171	7.39
503.603	7.5
504.036	7.62
504.468	7.76
504.9	7.88
505.332	8.02
505.764	8.18
506.196	8.33
506.627	8.49
507.059	8.66
507.491	8.82
507.923	9
508.354	9.19
508.786	9.39
509.217	9.58
509.649	9.79
510.08	10.01
510.512	10.23
510.943	10.46
511.374	10.68
511.805	10.93
512.237	11.17
512.668	11.43
513.099	11.69
513.53	11.94
513.961	12.21
514.391	12.47
514.822	12.74
515.253	13.01
515.684	13.29
516.114	13.58
516.545	13.86
516.975	14.15
517.406	14.45
517.836	14.74
518.267	15.05
518.697	15.33
519.127	15.62
519.558	15.91
519.988	16.21
520.418	16.5
520.848	16.79
521.278	17.09
521.708	17.49
522.138	17.75
522.567	18.01
522.997	18.28
523.427	18.55
523.857	18.8
524.286	19.05
524.716	19.29
525.145	19.54
525.575	19.76
526.004	19.98
526.433	20.09
526.863	20.3
527.292	20.5
527.721	20.68
528.15	20.87
528.579	21.06
529.008	21.23
529.437	21.38
529.866	21.51
530.295	21.68
530.724	21.81
531.152	21.94
531.581	22.08
532.01	22.2
532.438	22.33
532.867	22.43
533.295	22.53
533.723	22.62
534.152	22.72
534.58	22.82
535.008	22.88
535.436	22.96
535.865	23.02
536.293	23.08
536.721	23.14
537.149	23.19
537.576	23.24
538.004	23.3
538.432	23.35
538.86	23.4
539.287	23.44
539.715	23.49
540.143	23.54
540.57	23.56
540.998	23.6
541.425	23.63
541.852	23.67
542.28	23.72
542.707	23.75
543.134	23.77
543.561	23.8
543.988	23.83
544.415	23.85
544.842	23.87
545.269	23.9
545.696	23.92
546.123	23.94
546.549	23.96
546.976	23.98
547.403	24
547.829	24
548.256	24.02
548.682	24.02
549.108	24.03
549.535	24.05
549.961	24.05
550.387	24.05
550.813	24.05
551.24	24.05
551.666	24.03
552.092	24.01
552.518	24
552.943	23.97
553.369	23.93
553.795	23.89
554.221	23.84
554.646	23.79
555.072	23.74
555.498	23.7
555.923	23.64
556.349	23.57
556.774	23.5
557.199	23.42
557.625	23.34
558.05	23.27
558.475	23.17
558.9	23.08
559.325	23
559.75	22.89
560.175	22.77
560.6	22.65
561.025	22.52
561.449	22.39
561.874	22.26
562.299	22.12
562.723	21.99
563.148	21.85
563.572	21.69
563.997	21.53
564.421	21.35
564.846	21.2
565.27	21.04
565.694	20.91
566.118	20.75
566.542	20.58
566.966	20.41
567.39	20.24
567.814	20.07
568.238	19.9
568.662	19.74
569.086	19.59
569.509	19.42
569.933	19.27
570.357	19.1
570.78	18.92
571.204	18.77
571.627	18.62
572.05	18.47
572.474	18.33
572.897	18.21
573.32	18.06
573.743	17.93
574.166	17.8
574.589	17.67
575.012	17.53
575.435	17.42
575.858	17.29
576.281	17.18
576.704	17.07
577.126	16.96
577.549	16.85
577.972	16.73
578.394	16.6
578.817	16.5
579.239	16.4
579.661	16.31
580.084	16.21
580.506	16.13
580.928	16.03
581.35	15.94
581.772	15.85
582.194	15.76
582.616	15.7
583.038	15.63
583.46	15.54
583.882	15.47
584.303	15.38
584.725	15.31
585.147	15.24
585.568	15.17
585.99	15.1
586.411	15.04
586.833	14.96
587.254	14.89
587.675	14.83
588.096	14.77
588.518	14.71
588.939	14.67
589.36	14.61
589.781	14.55
590.202	14.52
590.623	14.47
591.043	14.41
591.464	14.38
591.885	14.34
592.305	14.31
592.726	14.27
593.147	14.24
593.567	14.19
593.987	14.16
594.408	14.12
594.828	14.08
595.248	14.04
595.669	14.02
596.089	13.98
596.509	13.94
596.929	13.91
597.349	13.87
597.769	13.83
598.189	13.79
598.608	13.76
599.028	13.73
599.448	13.69
599.867	13.65
600.287	13.6
600.706	13.56
601.126	13.52
601.545	13.48
601.965	13.44
602.384	13.39
602.803	13.34
603.222	13.29
603.641	13.23
604.061	13.18
604.48	13.12
604.898	13.06
605.317	13
605.736	12.94
606.155	12.88
606.574	12.8
606.992	12.73
607.411	12.67
607.829	12.57
608.248	12.49
608.666	12.42
609.085	12.35
609.503	12.29
609.921	12.22
610.339	12.14
610.758	12.07
611.176	12
611.594	11.94
612.012	11.87
612.43	11.83
612.847	11.77
613.265	11.69
613.683	11.63
614.101	11.56
614.518	11.49
614.936	11.43
615.353	11.35
615.771	11.29
616.188	11.22
616.606	11.16
617.023	11.09
617.44	11.05
617.857	11.01
618.274	10.97
618.691	10.9
619.108	10.86
619.525	10.82
619.942	10.79
620.359	10.76
620.776	10.73
621.192	10.71
621.609	10.7
622.026	10.66
622.442	10.64
622.859	10.61
623.275	10.61
623.691	10.59
624.108	10.57
624.524	10.56
624.94	10.55
625.356	10.53
625.772	10.51
626.188	10.5
626.604	10.48
627.02	10.47
627.436	10.47
627.852	10.45
628.268	10.45
628.683	10.44
629.099	10.43
629.514	10.41
629.93	10.4
630.345	10.38
630.761	10.36
631.176	10.33
631.591	10.3
632.007	10.26
632.422	10.22
632.837	10.18
633.252	10.12
633.667	10.06
634.082	10.01
634.497	9.93
634.911	9.86
635.326	9.79
635.741	9.71
636.155	9.63
636.57	9.54
636.984	9.45
637.399	9.35
637.813	9.25
638.228	9.15
638.642	9.04
639.056	8.94
639.47	8.85
639.884	8.74
640.298	8.63
640.712	8.54
641.126	8.44
641.54	8.33
641.954	8.23
642.368	8.14
642.781	8.06
643.195	7.97
643.609	7.89
644.022	7.8
644.436	7.74
644.849	7.65
645.262	7.58
645.676	7.51
646.089	7.46
646.502	7.41
646.915	7.36
647.328	7.31
647.741	7.26
648.154	7.22
648.567	7.18
648.98	7.13
649.393	7.12
649.805	7.09
650.218	7.06
650.631	7.04
651.043	7
651.456	6.97
651.868	6.95
652.28	6.93
652.693	6.89
653.105	6.87
653.517	6.84
653.929	6.81
654.341	6.78
654.753	6.76
655.165	6.71
655.577	6.68
655.989	6.63
656.401	6.6
656.813	6.56
657.224	6.52
657.636	6.47
658.047	6.43
658.459	6.38
658.87	6.33
659.282	6.27
659.693	6.22
660.104	6.18
660.515	6.14
660.926	6.09
661.338	6.05
661.749	6.01
662.159	5.97
662.57	5.94
662.981	5.91
663.392	5.88
663.803	5.87
664.213	5.84
664.624	5.82
665.035	5.79
665.445	5.78
665.855	5.77
666.266	5.77
666.676	5.76
667.086	5.74
667.497	5.73
667.907	5.72
668.317	5.72
668.727	5.71
669.137	5.72
669.547	5.72
669.956	5.71
670.366	5.71
670.776	5.71
671.186	5.71
671.595	5.72
672.005	5.73
672.414	5.75
672.824	5.76
673.233	5.78
673.642	5.79
674.052	5.82
674.461	5.84
674.87	5.87
675.279	5.9
675.688	5.93
676.097	5.97
676.506	6.01
676.915	6.03
677.323	6.07
677.732	6.1
678.141	6.13
678.549	6.16
678.958	6.2
679.366	6.25
679.775	6.28
680.183	6.33
680.592	6.39
681	6.45
681.408	6.5
681.816	6.57
682.224	6.65
682.632	6.74
683.04	6.82
683.448	6.9
683.856	6.99
684.264	7.12
684.671	7.24
685.079	7.37
685.487	7.54
685.894	7.72
686.302	7.93
686.709	8.15
687.116	8.4
687.524	8.69
687.931	9
688.338	9.34
688.745	9.68
689.152	10.07
689.559	10.49
689.966	10.92
690.373	11.38
690.78	11.87
691.187	12.38
691.593	12.92
692	13.46
692.407	14
692.813	14.59
693.22	15.19
693.626	15.79
694.032	16.39
694.439	17.02
694.845	17.65
695.251	18.28
695.657	18.9
696.063	19.53
696.469	20.17
696.875	20.83
697.281	21.46
697.687	22.07
698.093	22.7
698.498	23.32
698.904	23.93
699.31	24.54
699.715	25.15
700.12	25.76
700.526	26.35
700.931	26.93
701.337	27.48
701.742	28.04
702.147	28.61
702.552	29.15
702.957	29.67
703.362	30.19
703.767	30.69
704.172	31.18
704.577	31.67
704.981	32.14
705.386	32.62
705.791	33.09
706.195	33.56
706.6	34.03
707.004	34.46
707.408	34.9
707.813	35.34
708.217	35.77
708.621	36.21
709.025	36.6
709.43	37.01
709.834	37.42
710.237	37.8
710.641	38.18
711.045	38.55
711.449	38.93
711.853	39.31
712.256	39.68
712.66	40.02
713.064	40.34
713.467	40.72
713.87	41.06
714.274	41.37
714.677	41.72
715.08	42.05
715.484	42.37
715.887	42.7
716.29	42.98
716.693	43.28
717.096	43.58
717.499	43.88
717.901	44.14
718.304	44.42
718.707	44.72
719.109	45
719.512	45.25
719.915	45.51
720.317	45.72
720.719	45.95
721.122	46.2
721.524	46.44
721.926	46.68
722.328	46.9
722.731	47.1
723.133	47.31
723.535	47.49
723.937	47.7
724.338	47.86
724.74	48.07
725.142	48.34
725.544	48.51
725.945	48.69
726.347	48.84
726.748	49
727.15	49.15
727.551	49.29
727.952	49.42
728.354	49.56
728.755	49.7
729.156	49.84
729.557	49.86
729.958	49.96
730.359	50.07
730.76	50.19
731.161	50.29
731.562	50.41
731.962	50.49
732.363	50.6
732.763	50.7
733.164	50.81
733.564	50.9
733.965	51
734.365	51.09
734.766	51.16
735.166	51.24
735.566	51.3
735.966	51.36
736.366	51.43
736.766	51.49
737.166	51.55
737.566	51.61
737.966	51.63
738.365	51.69
738.765	51.74
739.165	51.8
739.564	51.84
739.964	51.92
740.363	51.98
740.763	52.03
741.162	52.08
741.561	52.1
741.96	52.12
742.36	52.19
742.759	52.2
743.158	52.22
743.557	52.23
743.955	52.25
744.354	52.27
744.753	52.31
745.152	52.34
745.55	52.37
745.949	52.41
746.348	52.44
746.746	52.47
747.144	52.52
747.543	52.56
747.941	52.62
748.339	52.62
748.737	52.64
749.136	52.62
749.534	52.62
749.932	52.61
750.33	52.6
750.727	52.6
751.125	52.61
751.523	52.6
751.921	52.59
752.318	52.58
752.716	52.63
753.113	52.63
753.511	52.66
753.908	52.69
754.305	52.7
754.703	52.72
755.1	52.74
755.497	52.74
755.894	52.75
756.291	52.74
756.688	52.73
757.085	52.71
757.482	52.69
757.878	52.66
758.275	52.64
758.672	52.65
759.068	52.63
759.465	52.62
759.861	52.62
760.258	52.63
760.654	52.64
761.05	52.66
761.447	52.65
761.843	52.64
762.239	52.66
762.635	52.66
763.031	52.67
763.427	52.67
763.822	52.68
764.218	52.69
764.614	52.67
765.01	52.67
765.405	52.66
765.801	52.66
766.196	52.68
766.592	52.67
766.987	52.66
767.382	52.64
767.778	52.65
768.173	52.66
768.568	52.62
768.963	52.64
769.358	52.62
769.753	52.62
770.148	52.62
770.542	52.62
770.937	52.62
771.332	52.62
771.726	52.62
772.121	52.59
772.515	52.57
772.91	52.57
773.304	52.57
773.699	52.56
774.093	52.54
774.487	52.53
774.881	52.53
775.275	52.51
775.669	52.52
776.063	52.48
776.457	52.51
776.851	52.5
777.245	52.48
777.638	52.47
778.032	52.51
778.425	52.55
778.819	52.55
779.212	52.54
779.606	52.55
779.999	52.54
780.392	52.59
780.786	52.58
781.179	52.56
781.572	52.58
