Data from C_1_DEC_ON_6N_Splice17_12-45-32-482.txt Node
Date: Sat Mar 07 12:45:32 EST 2020
User: sa697716
Spectrometer: NQ5500242
Trigger mode: 0
Integration Time (sec): 1.450000E-1
Scans to average: 20
Nonlinearity correction enabled: false
Boxcar width: 5
Storing dark spectrum: false
XAxis mode: Wavelengths
Number of Pixels in Spectrum: 512
>>>>>Begin Spectral Data<<<<<
187.83	79.4
188.298	92.43
188.766	53.02
189.233	53.52
189.701	46.8
190.169	63.25
190.636	46.22
191.104	-62.08
191.571	-145.7
192.039	-67.72
192.506	-713.39
192.974	234.09
193.441	252.76
193.908	-22.54
194.375	27.63
194.842	13.31
195.31	104.34
195.777	174.9
196.244	32.93
196.711	35.18
197.177	37.86
197.644	37.1
198.111	37.87
198.578	38.6
199.045	38.97
199.511	38.65
199.978	38.55
200.445	38.37
200.911	38.57
201.378	38.52
201.844	38.62
202.31	38.62
202.777	38.83
203.243	38.89
203.709	38.67
204.176	38.24
204.642	38.22
205.108	38.35
205.574	38.18
206.04	37.35
206.506	37.14
206.972	37.21
207.438	36.88
207.903	36.48
208.369	35.53
208.835	34.76
209.301	34.24
209.766	33.33
210.232	32.38
210.697	31.54
211.163	31.32
211.628	30.56
212.094	29.93
212.559	29.44
213.024	28.83
213.49	28.66
213.955	28.08
214.42	27.49
214.885	26.82
215.35	26.02
215.815	24.93
216.28	23.27
216.745	21.77
217.21	20.03
217.675	18.37
218.14	16.97
218.604	15.78
219.069	14.87
219.534	14.14
219.998	13.51
220.463	12.97
220.927	12.45
221.392	12.07
221.856	11.71
222.32	11.42
222.785	11.23
223.249	11.03
223.713	10.83
224.177	10.66
224.642	10.48
225.106	10.26
225.57	10.05
226.034	9.9
226.497	9.76
226.961	9.62
227.425	9.5
227.889	9.35
228.353	9.21
228.816	9.05
229.28	8.91
229.744	8.79
230.207	8.69
230.671	8.59
231.134	8.47
231.597	8.37
232.061	8.27
232.524	8.16
232.987	8.04
233.45	7.95
233.914	7.86
234.377	7.77
234.84	7.67
235.303	7.6
235.766	7.51
236.229	7.44
236.691	7.35
237.154	7.28
237.617	7.21
238.08	7.14
238.542	7.08
239.005	7.03
239.468	6.96
239.93	6.91
240.393	6.84
240.855	6.78
241.317	6.71
241.78	6.66
242.242	6.59
242.704	6.53
243.166	6.47
243.629	6.41
244.091	6.34
244.553	6.29
245.015	6.22
245.477	6.16
245.939	6.1
246.4	6.05
246.862	6
247.324	5.96
247.786	5.91
248.247	5.86
248.709	5.8
249.17	5.75
249.632	5.71
250.093	5.68
250.555	5.63
251.016	5.59
251.477	5.54
251.939	5.5
252.4	5.46
252.861	5.42
253.322	5.4
253.783	5.37
254.244	5.36
254.705	5.32
255.166	5.28
255.627	5.25
256.088	5.23
256.549	5.2
257.009	5.17
257.47	5.14
257.931	5.1
258.391	5.06
258.852	5.02
259.312	4.98
259.773	4.95
260.233	4.92
260.694	4.89
261.154	4.86
261.614	4.82
262.074	4.79
262.534	4.77
262.994	4.75
263.455	4.74
263.915	4.72
264.374	4.7
264.834	4.68
265.294	4.66
265.754	4.65
266.214	4.64
266.673	4.63
267.133	4.62
267.593	4.61
268.052	4.59
268.512	4.58
268.971	4.57
269.431	4.56
269.89	4.54
270.349	4.53
270.809	4.52
271.268	4.5
271.727	4.48
272.186	4.47
272.645	4.46
273.104	4.45
273.563	4.44
274.022	4.43
274.481	4.42
274.94	4.41
275.399	4.4
275.857	4.39
276.316	4.38
276.775	4.38
277.233	4.37
277.692	4.36
278.15	4.35
278.609	4.33
279.067	4.33
279.525	4.31
279.984	4.3
280.442	4.29
280.9	4.29
281.358	4.28
281.816	4.27
282.274	4.26
282.732	4.25
283.19	4.24
283.648	4.23
284.106	4.22
284.564	4.22
285.021	4.21
285.479	4.21
285.937	4.19
286.394	4.18
286.852	4.16
287.309	4.16
287.767	4.14
288.224	4.13
288.682	4.11
289.139	4.1
289.596	4.08
290.053	4.05
290.511	4.04
290.968	4.03
291.425	4
291.882	3.99
292.339	3.97
292.796	3.96
293.252	3.96
293.709	3.95
294.166	3.93
294.623	3.92
295.079	3.91
295.536	3.9
295.992	3.89
296.449	3.88
296.905	3.88
297.362	3.87
297.818	3.86
298.274	3.85
298.731	3.84
299.187	3.83
299.643	3.82
300.099	3.81
300.555	3.8
301.011	3.79
301.467	3.78
301.923	3.77
302.379	3.77
302.835	3.77
303.291	3.76
303.746	3.76
304.202	3.76
304.658	3.76
305.113	3.75
305.569	3.75
306.024	3.74
306.479	3.74
306.935	3.74
307.39	3.73
307.845	3.73
308.301	3.72
308.756	3.72
309.211	3.72
309.666	3.73
310.121	3.73
310.576	3.73
311.031	3.73
311.486	3.74
311.94	3.74
312.395	3.73
312.85	3.73
313.305	3.73
313.759	3.73
314.214	3.72
314.668	3.7
315.123	3.7
315.577	3.69
316.032	3.69
316.486	3.67
316.94	3.67
317.394	3.65
317.849	3.64
318.303	3.63
318.757	3.61
319.211	3.61
319.665	3.6
320.119	3.59
320.572	3.58
321.026	3.58
321.48	3.58
321.934	3.57
322.387	3.57
322.841	3.56
323.295	3.56
323.748	3.56
324.202	3.55
324.655	3.54
325.108	3.54
325.562	3.54
326.015	3.53
326.468	3.52
326.921	3.52
327.374	3.52
327.827	3.52
328.28	3.51
328.733	3.51
329.186	3.51
329.639	3.51
330.092	3.52
330.545	3.52
330.997	3.51
331.45	3.52
331.903	3.52
332.355	3.53
332.808	3.52
333.26	3.52
333.713	3.51
334.165	3.51
334.617	3.52
335.069	3.51
335.522	3.51
335.974	3.52
336.426	3.52
336.878	3.51
337.33	3.51
337.782	3.51
338.234	3.52
338.686	3.51
339.137	3.52
339.589	3.5
340.041	3.49
340.493	3.49
340.944	3.47
341.396	3.46
341.847	3.45
342.299	3.44
342.75	3.42
343.201	3.41
343.653	3.39
344.104	3.37
344.555	3.36
345.006	3.35
345.457	3.34
345.908	3.33
346.359	3.33
346.81	3.32
347.261	3.31
347.712	3.31
348.163	3.31
348.613	3.31
349.064	3.3
349.515	3.3
349.965	3.3
350.416	3.3
350.866	3.29
351.317	3.28
351.767	3.28
352.217	3.28
352.668	3.28
353.118	3.28
353.568	3.28
354.018	3.28
354.468	3.28
354.918	3.29
355.368	3.29
355.818	3.29
356.268	3.29
356.718	3.3
357.168	3.28
357.617	3.28
358.067	3.29
358.517	3.29
358.966	3.29
359.416	3.29
359.865	3.29
360.315	3.29
360.764	3.29
361.213	3.29
361.663	3.29
362.112	3.31
362.561	3.31
363.01	3.3
363.459	3.29
363.908	3.29
364.357	3.29
364.806	3.28
365.255	3.28
365.703	3.29
366.152	3.29
366.601	3.3
367.05	3.3
367.498	3.3
367.947	3.31
368.395	3.33
368.844	3.33
369.292	3.32
369.74	3.33
370.189	3.33
370.637	3.33
371.085	3.33
371.533	3.32
371.981	3.32
372.429	3.33
372.877	3.34
373.325	3.33
373.773	3.34
374.221	3.34
374.669	3.34
375.116	3.35
375.564	3.35
376.012	3.36
376.459	3.37
376.907	3.39
377.354	3.39
377.801	3.41
378.249	3.42
378.696	3.43
379.143	3.44
379.591	3.46
380.038	3.47
380.485	3.49
380.932	3.5
381.379	3.51
381.826	3.53
382.273	3.54
382.72	3.55
383.166	3.57
383.613	3.58
384.06	3.59
384.506	3.61
384.953	3.62
385.4	3.64
385.846	3.67
386.292	3.7
386.739	3.71
387.185	3.73
387.631	3.75
388.078	3.77
388.524	3.79
388.97	3.81
389.416	3.83
389.862	3.85
390.308	3.87
390.754	3.89
391.2	3.91
391.645	3.93
392.091	3.95
392.537	3.97
392.983	3.99
393.428	4.01
393.874	4.04
394.319	4.05
394.765	4.06
395.21	4.07
395.655	4.09
396.101	4.1
396.546	4.11
396.991	4.14
397.436	4.15
397.881	4.18
398.326	4.2
398.771	4.21
399.216	4.22
399.661	4.24
400.106	4.25
400.551	4.26
400.995	4.26
401.44	4.27
401.885	4.26
402.329	4.27
402.774	4.27
403.218	4.28
403.663	4.29
404.107	4.3
404.551	4.29
404.995	4.29
405.44	4.29
405.884	4.29
406.328	4.29
406.772	4.28
407.216	4.27
407.66	4.27
408.104	4.25
408.547	4.24
408.991	4.25
409.435	4.25
409.879	4.25
410.322	4.25
410.766	4.25
411.209	4.26
411.653	4.29
412.096	4.29
412.54	4.3
412.983	4.31
413.426	4.33
413.869	4.34
414.312	4.37
414.756	4.38
415.199	4.39
415.642	4.38
416.085	4.39
416.527	4.37
416.97	4.36
417.413	4.36
417.856	4.36
418.298	4.34
418.741	4.33
419.184	4.31
419.626	4.3
420.069	4.3
420.511	4.31
420.953	4.29
421.396	4.3
421.838	4.3
422.28	4.3
422.722	4.32
423.164	4.31
423.606	4.32
424.048	4.33
424.49	4.33
424.932	4.33
425.374	4.31
425.816	4.29
426.258	4.27
426.699	4.26
427.141	4.26
427.582	4.26
428.024	4.26
428.465	4.27
428.907	4.25
429.348	4.24
429.789	4.23
430.231	4.25
430.672	4.27
431.113	4.29
431.554	4.3
431.995	4.31
432.436	4.31
432.877	4.32
433.318	4.33
433.759	4.34
434.2	4.37
434.64	4.38
435.081	4.39
435.522	4.41
435.962	4.43
436.403	4.44
436.843	4.45
437.284	4.45
437.724	4.45
438.164	4.44
438.604	4.46
439.045	4.45
439.485	4.47
439.925	4.48
440.365	4.48
440.805	4.48
441.245	4.49
441.685	4.51
442.125	4.54
442.564	4.56
443.004	4.57
443.444	4.58
443.883	4.6
444.323	4.59
444.762	4.59
445.202	4.59
445.641	4.61
446.081	4.61
446.52	4.62
446.959	4.63
447.398	4.63
447.837	4.64
448.276	4.64
448.716	4.65
449.154	4.67
449.593	4.69
450.032	4.7
450.471	4.69
450.91	4.69
451.349	4.68
451.787	4.67
452.226	4.67
452.664	4.67
453.103	4.67
453.541	4.66
453.98	4.66
454.418	4.64
454.856	4.63
455.295	4.63
455.733	4.6
456.171	4.59
456.609	4.58
457.047	4.56
457.485	4.55
457.923	4.54
458.361	4.54
458.798	4.53
459.236	4.53
459.674	4.52
460.111	4.51
460.549	4.54
460.987	4.55
461.424	4.54
461.862	4.55
462.299	4.55
462.736	4.55
463.173	4.55
463.611	4.56
464.048	4.56
464.485	4.57
464.922	4.57
465.359	4.57
465.796	4.57
466.233	4.58
466.67	4.59
467.106	4.6
467.543	4.6
467.98	4.59
468.416	4.59
468.853	4.58
469.29	4.59
469.726	4.59
470.162	4.59
470.599	4.59
471.035	4.58
471.471	4.56
471.907	4.55
472.344	4.55
472.78	4.56
473.216	4.57
473.652	4.57
474.088	4.55
474.523	4.54
474.959	4.53
475.395	4.51
475.831	4.5
476.266	4.5
476.702	4.49
477.138	4.48
477.573	4.47
478.008	4.46
478.444	4.45
478.879	4.45
479.314	4.45
479.75	4.44
480.185	4.44
480.62	4.43
481.055	4.42
481.49	4.41
481.925	4.41
482.36	4.41
482.795	4.4
483.229	4.39
483.664	4.39
484.099	4.39
484.534	4.38
484.968	4.38
485.403	4.38
485.837	4.4
486.271	4.4
486.706	4.41
487.14	4.42
487.574	4.42
488.009	4.43
488.443	4.44
488.877	4.46
489.311	4.49
489.745	4.5
490.179	4.53
490.613	4.55
491.046	4.58
491.48	4.6
491.914	4.63
492.348	4.67
492.781	4.7
493.215	4.74
493.648	4.78
494.082	4.81
494.515	4.85
494.948	4.89
495.382	4.93
495.815	4.98
496.248	5.04
496.681	5.1
497.114	5.16
497.547	5.21
497.98	5.28
498.413	5.34
498.846	5.42
499.279	5.49
499.711	5.57
500.144	5.66
500.577	5.74
501.009	5.83
501.442	5.92
501.874	6.03
502.306	6.13
502.739	6.25
503.171	6.37
503.603	6.49
504.036	6.62
504.468	6.76
504.9	6.88
505.332	7.03
505.764	7.19
506.196	7.35
506.627	7.51
507.059	7.69
507.491	7.87
507.923	8.06
508.354	8.27
508.786	8.48
509.217	8.69
509.649	8.91
510.08	9.14
510.512	9.37
510.943	9.61
511.374	9.85
511.805	10.09
512.237	10.35
512.668	10.63
513.099	10.88
513.53	11.15
513.961	11.44
514.391	11.73
514.822	12.03
515.253	12.31
515.684	12.6
516.114	12.92
516.545	13.23
516.975	13.54
517.406	13.85
517.836	14.15
518.267	14.47
518.697	14.79
519.127	15.09
519.558	15.4
519.988	15.72
520.418	16.02
520.848	16.33
521.278	16.63
521.708	17.05
522.138	17.34
522.567	17.63
522.997	17.9
523.427	18.18
523.857	18.46
524.286	18.71
524.716	18.97
525.145	19.23
525.575	19.47
526.004	19.72
526.433	19.82
526.863	20.06
527.292	20.28
527.721	20.49
528.15	20.69
528.579	20.87
529.008	21.06
529.437	21.23
529.866	21.41
530.295	21.58
530.724	21.72
531.152	21.89
531.581	22.03
532.01	22.16
532.438	22.3
532.867	22.4
533.295	22.52
533.723	22.63
534.152	22.74
534.58	22.84
535.008	22.93
535.436	23.01
535.865	23.07
536.293	23.13
536.721	23.22
537.149	23.29
537.576	23.37
538.004	23.43
538.432	23.49
538.86	23.54
539.287	23.57
539.715	23.63
540.143	23.68
540.57	23.74
540.998	23.79
541.425	23.83
541.852	23.86
542.28	23.91
542.707	23.94
543.134	23.98
543.561	24.03
543.988	24.08
544.415	24.09
544.842	24.12
545.269	24.14
545.696	24.17
546.123	24.2
546.549	24.24
546.976	24.26
547.403	24.29
547.829	24.3
548.256	24.31
548.682	24.33
549.108	24.37
549.535	24.39
549.961	24.4
550.387	24.41
550.813	24.41
551.24	24.41
551.666	24.39
552.092	24.38
552.518	24.38
552.943	24.35
553.369	24.32
553.795	24.27
554.221	24.24
554.646	24.19
555.072	24.14
555.498	24.08
555.923	24.03
556.349	23.96
556.774	23.89
557.199	23.81
557.625	23.73
558.05	23.65
558.475	23.58
558.9	23.48
559.325	23.39
559.75	23.29
560.175	23.19
560.6	23.07
561.025	22.96
561.449	22.83
561.874	22.71
562.299	22.59
562.723	22.43
563.148	22.28
563.572	22.12
563.997	21.97
564.421	21.81
564.846	21.64
565.27	21.49
565.694	21.33
566.118	21.17
566.542	21
566.966	20.83
567.39	20.69
567.814	20.53
568.238	20.37
568.662	20.19
569.086	20.03
569.509	19.87
569.933	19.7
570.357	19.53
570.78	19.37
571.204	19.2
571.627	19.04
572.05	18.87
572.474	18.73
572.897	18.6
573.32	18.46
573.743	18.32
574.166	18.18
574.589	18.05
575.012	17.92
575.435	17.79
575.858	17.67
576.281	17.56
576.704	17.44
577.126	17.3
577.549	17.18
577.972	17.07
578.394	16.96
578.817	16.86
579.239	16.76
579.661	16.67
580.084	16.58
580.506	16.49
580.928	16.4
581.35	16.31
581.772	16.22
582.194	16.13
582.616	16.05
583.038	15.97
583.46	15.86
583.882	15.78
584.303	15.7
584.725	15.61
585.147	15.53
585.568	15.47
585.99	15.39
586.411	15.31
586.833	15.24
587.254	15.17
587.675	15.11
588.096	15.06
588.518	14.99
588.939	14.94
589.36	14.88
589.781	14.82
590.202	14.76
590.623	14.72
591.043	14.67
591.464	14.64
591.885	14.59
592.305	14.54
592.726	14.5
593.147	14.47
593.567	14.41
593.987	14.36
594.408	14.32
594.828	14.27
595.248	14.24
595.669	14.21
596.089	14.17
596.509	14.14
596.929	14.11
597.349	14.07
597.769	14.03
598.189	14
598.608	13.98
599.028	13.95
599.448	13.91
599.867	13.85
600.287	13.81
600.706	13.75
601.126	13.7
601.545	13.65
601.965	13.6
602.384	13.55
602.803	13.49
603.222	13.43
603.641	13.37
604.061	13.33
604.48	13.26
604.898	13.19
605.317	13.14
605.736	13.07
606.155	13.01
606.574	12.94
606.992	12.88
607.411	12.8
607.829	12.71
608.248	12.62
608.666	12.54
609.085	12.48
609.503	12.42
609.921	12.34
610.339	12.26
610.758	12.18
611.176	12.1
611.594	12.03
612.012	11.95
612.43	11.9
612.847	11.84
613.265	11.77
613.683	11.69
614.101	11.61
614.518	11.54
614.936	11.47
615.353	11.39
615.771	11.33
616.188	11.26
616.606	11.2
617.023	11.14
617.44	11.08
617.857	11.03
618.274	10.97
618.691	10.91
619.108	10.86
619.525	10.82
619.942	10.79
620.359	10.75
620.776	10.72
621.192	10.69
621.609	10.67
622.026	10.62
622.442	10.6
622.859	10.57
623.275	10.55
623.691	10.53
624.108	10.52
624.524	10.49
624.94	10.47
625.356	10.45
625.772	10.44
626.188	10.44
626.604	10.43
627.02	10.42
627.436	10.41
627.852	10.4
628.268	10.38
628.683	10.37
629.099	10.36
629.514	10.34
629.93	10.33
630.345	10.29
630.761	10.25
631.176	10.22
631.591	10.18
632.007	10.14
632.422	10.08
632.837	10.03
633.252	9.97
633.667	9.91
634.082	9.84
634.497	9.77
634.911	9.69
635.326	9.6
635.741	9.51
636.155	9.41
636.57	9.31
636.984	9.22
637.399	9.1
637.813	8.98
638.228	8.85
638.642	8.74
639.056	8.61
639.47	8.49
639.884	8.38
640.298	8.25
640.712	8.13
641.126	8.01
641.54	7.88
641.954	7.78
642.368	7.66
642.781	7.56
643.195	7.46
643.609	7.36
644.022	7.27
644.436	7.17
644.849	7.09
645.262	7
645.676	6.92
646.089	6.84
646.502	6.78
646.915	6.72
647.328	6.66
647.741	6.6
648.154	6.55
648.567	6.49
648.98	6.44
649.393	6.4
649.805	6.36
650.218	6.32
650.631	6.29
651.043	6.26
651.456	6.22
651.868	6.19
652.28	6.16
652.693	6.13
653.105	6.1
653.517	6.05
653.929	6.02
654.341	5.98
654.753	5.94
655.165	5.9
655.577	5.85
655.989	5.8
656.401	5.75
656.813	5.69
657.224	5.64
657.636	5.57
658.047	5.52
658.459	5.46
658.87	5.39
659.282	5.33
659.693	5.26
660.104	5.19
660.515	5.14
660.926	5.08
661.338	5.02
661.749	4.96
662.159	4.92
662.57	4.86
662.981	4.82
663.392	4.78
663.803	4.74
664.213	4.7
664.624	4.66
665.035	4.63
665.445	4.6
665.855	4.57
666.266	4.55
666.676	4.53
667.086	4.5
667.497	4.49
667.907	4.48
668.317	4.48
668.727	4.47
669.137	4.46
669.547	4.46
669.956	4.46
670.366	4.46
670.776	4.47
671.186	4.48
671.595	4.48
672.005	4.49
672.414	4.5
672.824	4.51
673.233	4.53
673.642	4.56
674.052	4.57
674.461	4.6
674.87	4.62
675.279	4.65
675.688	4.67
676.097	4.7
676.506	4.73
676.915	4.76
677.323	4.79
677.732	4.82
678.141	4.86
678.549	4.9
678.958	4.93
679.366	4.98
679.775	5.03
680.183	5.09
680.592	5.16
681	5.22
681.408	5.29
681.816	5.37
682.224	5.47
682.632	5.57
683.04	5.67
683.448	5.8
683.856	5.91
684.264	6.06
684.671	6.22
685.079	6.39
685.487	6.6
685.894	6.82
686.302	7.07
686.709	7.33
687.116	7.63
687.524	7.94
687.931	8.29
688.338	8.68
688.745	9.07
689.152	9.5
689.559	9.97
689.966	10.44
690.373	10.95
690.78	11.48
691.187	12.01
691.593	12.58
692	13.16
692.407	13.75
692.813	14.36
693.22	14.98
693.626	15.61
694.032	16.26
694.439	16.9
694.845	17.56
695.251	18.22
695.657	18.88
696.063	19.56
696.469	20.23
696.875	20.9
697.281	21.57
697.687	22.24
698.093	22.9
698.498	23.55
698.904	24.2
699.31	24.83
699.715	25.48
700.12	26.12
700.526	26.74
700.931	27.36
701.337	27.97
701.742	28.57
702.147	29.15
702.552	29.73
702.957	30.27
703.362	30.83
703.767	31.38
704.172	31.91
704.577	32.45
704.981	32.97
705.386	33.49
705.791	33.98
706.195	34.49
706.6	34.98
707.004	35.46
707.408	35.97
707.813	36.45
708.217	36.92
708.621	37.38
709.025	37.8
709.43	38.23
709.834	38.66
710.237	39.09
710.641	39.51
711.045	39.93
711.449	40.35
711.853	40.74
712.256	41.11
712.66	41.49
713.064	41.87
713.467	42.25
713.87	42.63
714.274	42.99
714.677	43.36
715.08	43.7
715.484	44.03
715.887	44.39
716.29	44.73
716.693	45.08
717.096	45.41
717.499	45.75
717.901	46.07
718.304	46.38
718.707	46.68
719.109	46.99
719.512	47.27
719.915	47.56
720.317	47.81
720.719	48.05
721.122	48.32
721.524	48.6
721.926	48.86
722.328	49.12
722.731	49.34
723.133	49.59
723.535	49.8
723.937	50.04
724.338	50.25
724.74	50.47
725.142	50.71
725.544	50.87
725.945	51.05
726.347	51.2
726.748	51.34
727.15	51.53
727.551	51.69
727.952	51.84
728.354	51.99
728.755	52.12
729.156	52.24
729.557	52.33
729.958	52.45
730.359	52.57
730.76	52.72
731.161	52.85
731.562	52.97
731.962	53.06
732.363	53.16
732.763	53.25
733.164	53.34
733.564	53.46
733.965	53.57
734.365	53.68
734.766	53.77
735.166	53.83
735.566	53.91
735.966	53.99
736.366	54.06
736.766	54.14
737.166	54.21
737.566	54.29
737.966	54.34
738.365	54.37
738.765	54.46
739.165	54.52
739.564	54.58
739.964	54.65
740.363	54.68
740.763	54.73
741.162	54.76
741.561	54.81
741.96	54.81
742.36	54.86
742.759	54.93
743.158	54.95
743.557	54.98
743.955	55.02
744.354	55.05
744.753	55.09
745.152	55.15
745.55	55.21
745.949	55.24
746.348	55.32
746.746	55.36
747.144	55.39
747.543	55.4
747.941	55.4
748.339	55.39
748.737	55.4
749.136	55.42
749.534	55.42
749.932	55.41
750.33	55.44
750.727	55.43
751.125	55.45
751.523	55.46
751.921	55.45
752.318	55.48
752.716	55.52
753.113	55.54
753.511	55.57
753.908	55.58
754.305	55.61
754.703	55.61
755.1	55.61
755.497	55.58
755.894	55.58
756.291	55.59
756.688	55.57
757.085	55.59
757.482	55.58
757.878	55.58
758.275	55.56
758.672	55.56
759.068	55.59
759.465	55.6
759.861	55.63
760.258	55.63
760.654	55.65
761.05	55.67
761.447	55.66
761.843	55.66
762.239	55.65
762.635	55.66
763.031	55.65
763.427	55.61
763.822	55.62
764.218	55.61
764.614	55.62
765.01	55.61
765.405	55.6
765.801	55.58
766.196	55.59
766.592	55.58
766.987	55.56
767.382	55.55
767.778	55.55
768.173	55.51
768.568	55.49
768.963	55.45
769.358	55.45
769.753	55.42
770.148	55.41
770.542	55.4
770.937	55.4
771.332	55.41
771.726	55.4
772.121	55.41
772.515	55.42
772.91	55.43
773.304	55.45
773.699	55.46
774.093	55.46
774.487	55.49
774.881	55.52
775.275	55.51
775.669	55.51
776.063	55.53
776.457	55.53
776.851	55.51
777.245	55.49
777.638	55.51
778.032	55.49
778.425	55.54
778.819	55.52
779.212	55.51
779.606	55.52
779.999	55.52
780.392	55.55
780.786	55.53
781.179	55.55
781.572	55.6
781.965	55.59
782.358	55.6
782.751	55.58
