Data from C_1_DEC_CT_2N_Splice17_12-56-19-600.txt Node
Date: Sat Mar 07 12:56:19 EST 2020
User: sa697716
Spectrometer: NQ5500242
Trigger mode: 0
Integration Time (sec): 1.450000E-1
Scans to average: 20
Nonlinearity correction enabled: false
Boxcar width: 5
Storing dark spectrum: false
XAxis mode: Wavelengths
Number of Pixels in Spectrum: 512
>>>>>Begin Spectral Data<<<<<
187.83	75.91
188.298	101.6
188.766	80.77
189.233	71.1
189.701	64.09
190.169	73.07
190.636	42.49
191.104	21.27
191.571	-75.63
192.039	-103.91
192.506	-238.69
192.974	44.22
193.441	129.2
193.908	67.69
194.375	66.94
194.842	-10.82
195.31	-7.05
195.777	-223.46
196.244	26.01
196.711	39.26
197.177	43.79
197.644	44.24
198.111	44.53
198.578	44.92
199.045	44.94
199.511	45.07
199.978	45.44
200.445	45.55
200.911	45.81
201.378	45.89
201.844	46.03
202.31	45.65
202.777	45.76
203.243	45.94
203.709	45.63
204.176	45.48
204.642	45.31
205.108	45.15
205.574	44.79
206.04	44.23
206.506	43.81
206.972	43.93
207.438	43.71
207.903	43
208.369	42.08
208.835	41.38
209.301	40.46
209.766	39.08
210.232	37.99
210.697	36.98
211.163	36.05
211.628	35.17
212.094	34.16
212.559	33.25
213.024	32.26
213.49	31.57
213.955	30.85
214.42	30.08
214.885	29.41
215.35	28.45
215.815	27.28
216.28	25.51
216.745	23.55
217.21	21.51
217.675	19.81
218.14	18.29
218.604	16.88
219.069	15.7
219.534	14.75
219.998	13.91
220.463	13.23
220.927	12.6
221.392	12.17
221.856	11.82
222.32	11.5
222.785	11.2
223.249	10.96
223.713	10.73
224.177	10.53
224.642	10.34
225.106	10.15
225.57	9.97
226.034	9.79
226.497	9.61
226.961	9.45
227.425	9.29
227.889	9.14
228.353	8.99
228.816	8.85
229.28	8.7
229.744	8.58
230.207	8.46
230.671	8.33
231.134	8.23
231.597	8.13
232.061	8.02
232.524	7.93
232.987	7.84
233.45	7.75
233.914	7.67
234.377	7.58
234.84	7.49
235.303	7.41
235.766	7.34
236.229	7.26
236.691	7.18
237.154	7.12
237.617	7.05
238.08	6.98
238.542	6.9
239.005	6.84
239.468	6.78
239.93	6.72
240.393	6.67
240.855	6.6
241.317	6.55
241.78	6.49
242.242	6.42
242.704	6.36
243.166	6.31
243.629	6.26
244.091	6.21
244.553	6.15
245.015	6.09
245.477	6.02
245.939	5.97
246.4	5.9
246.862	5.86
247.324	5.82
247.786	5.76
248.247	5.71
248.709	5.65
249.17	5.59
249.632	5.56
250.093	5.52
250.555	5.47
251.016	5.44
251.477	5.39
251.939	5.36
252.4	5.31
252.861	5.28
253.322	5.25
253.783	5.21
254.244	5.19
254.705	5.15
255.166	5.11
255.627	5.08
256.088	5.05
256.549	5.03
257.009	4.99
257.47	4.96
257.931	4.92
258.391	4.87
258.852	4.84
259.312	4.8
259.773	4.76
260.233	4.73
260.694	4.7
261.154	4.66
261.614	4.63
262.074	4.59
262.534	4.56
262.994	4.53
263.455	4.51
263.915	4.48
264.374	4.46
264.834	4.44
265.294	4.41
265.754	4.39
266.214	4.37
266.673	4.35
267.133	4.34
267.593	4.33
268.052	4.32
268.512	4.3
268.971	4.29
269.431	4.28
269.89	4.26
270.349	4.25
270.809	4.24
271.268	4.22
271.727	4.21
272.186	4.2
272.645	4.19
273.104	4.17
273.563	4.15
274.022	4.14
274.481	4.13
274.94	4.12
275.399	4.1
275.857	4.08
276.316	4.07
276.775	4.06
277.233	4.05
277.692	4.04
278.15	4.04
278.609	4.03
279.067	4.02
279.525	4.01
279.984	4
280.442	4
280.9	4
281.358	3.99
281.816	3.99
282.274	3.98
282.732	3.97
283.19	3.96
283.648	3.95
284.106	3.93
284.564	3.92
285.021	3.92
285.479	3.91
285.937	3.9
286.394	3.9
286.852	3.88
287.309	3.88
287.767	3.86
288.224	3.84
288.682	3.83
289.139	3.82
289.596	3.8
290.053	3.78
290.511	3.76
290.968	3.74
291.425	3.72
291.882	3.7
292.339	3.69
292.796	3.68
293.252	3.67
293.709	3.66
294.166	3.66
294.623	3.65
295.079	3.64
295.536	3.64
295.992	3.63
296.449	3.63
296.905	3.63
297.362	3.61
297.818	3.6
298.274	3.59
298.731	3.59
299.187	3.58
299.643	3.57
300.099	3.57
300.555	3.56
301.011	3.55
301.467	3.54
301.923	3.53
302.379	3.53
302.835	3.53
303.291	3.53
303.746	3.53
304.202	3.53
304.658	3.53
305.113	3.53
305.569	3.53
306.024	3.52
306.479	3.52
306.935	3.52
307.39	3.52
307.845	3.52
308.301	3.52
308.756	3.52
309.211	3.51
309.666	3.51
310.121	3.51
310.576	3.51
311.031	3.52
311.486	3.52
311.94	3.52
312.395	3.52
312.85	3.52
313.305	3.51
313.759	3.51
314.214	3.51
314.668	3.5
315.123	3.5
315.577	3.49
316.032	3.49
316.486	3.47
316.94	3.46
317.394	3.46
317.849	3.45
318.303	3.43
318.757	3.42
319.211	3.41
319.665	3.39
320.119	3.38
320.572	3.36
321.026	3.36
321.48	3.35
321.934	3.33
322.387	3.32
322.841	3.31
323.295	3.32
323.748	3.32
324.202	3.31
324.655	3.31
325.108	3.31
325.562	3.31
326.015	3.31
326.468	3.31
326.921	3.32
327.374	3.31
327.827	3.31
328.28	3.31
328.733	3.31
329.186	3.31
329.639	3.31
330.092	3.3
330.545	3.31
330.997	3.3
331.45	3.3
331.903	3.31
332.355	3.32
332.808	3.32
333.26	3.32
333.713	3.31
334.165	3.31
334.617	3.32
335.069	3.32
335.522	3.33
335.974	3.32
336.426	3.32
336.878	3.31
337.33	3.31
337.782	3.3
338.234	3.31
338.686	3.31
339.137	3.31
339.589	3.3
340.041	3.29
340.493	3.27
340.944	3.26
341.396	3.26
341.847	3.25
342.299	3.24
342.75	3.22
343.201	3.21
343.653	3.19
344.104	3.17
344.555	3.16
345.006	3.15
345.457	3.15
345.908	3.14
346.359	3.14
346.81	3.13
347.261	3.13
347.712	3.12
348.163	3.11
348.613	3.11
349.064	3.12
349.515	3.12
349.965	3.12
350.416	3.11
350.866	3.1
351.317	3.1
351.767	3.09
352.217	3.09
352.668	3.1
353.118	3.1
353.568	3.1
354.018	3.1
354.468	3.11
354.918	3.11
355.368	3.12
355.818	3.12
356.268	3.12
356.718	3.12
357.168	3.12
357.617	3.11
358.067	3.11
358.517	3.12
358.966	3.11
359.416	3.11
359.865	3.1
360.315	3.1
360.764	3.1
361.213	3.1
361.663	3.09
362.112	3.09
362.561	3.1
363.01	3.09
363.459	3.08
363.908	3.08
364.357	3.08
364.806	3.07
365.255	3.08
365.703	3.08
366.152	3.09
366.601	3.09
367.05	3.1
367.498	3.08
367.947	3.08
368.395	3.09
368.844	3.08
369.292	3.08
369.74	3.09
370.189	3.08
370.637	3.07
371.085	3.07
371.533	3.06
371.981	3.06
372.429	3.06
372.877	3.07
373.325	3.06
373.773	3.07
374.221	3.06
374.669	3.05
375.116	3.04
375.564	3.04
376.012	3.03
376.459	3.03
376.907	3.03
377.354	3.03
377.801	3.03
378.249	3.03
378.696	3.02
379.143	3.03
379.591	3.03
380.038	3.03
380.485	3.03
380.932	3.03
381.379	3.04
381.826	3.03
382.273	3.03
382.72	3.01
383.166	3
383.613	3
384.06	2.99
384.506	2.98
384.953	2.98
385.4	2.97
385.846	2.97
386.292	2.96
386.739	2.96
387.185	2.95
387.631	2.96
388.078	2.95
388.524	2.95
388.97	2.95
389.416	2.96
389.862	2.96
390.308	2.98
390.754	2.99
391.2	3
391.645	3
392.091	3.01
392.537	3.02
392.983	3.03
393.428	3.05
393.874	3.06
394.319	3.07
394.765	3.06
395.21	3.06
395.655	3.07
396.101	3.08
396.546	3.09
396.991	3.11
397.436	3.12
397.881	3.14
398.326	3.16
398.771	3.17
399.216	3.18
399.661	3.21
400.106	3.22
400.551	3.23
400.995	3.24
401.44	3.24
401.885	3.25
402.329	3.27
402.774	3.28
403.218	3.3
403.663	3.31
404.107	3.32
404.551	3.33
404.995	3.34
405.44	3.35
405.884	3.36
406.328	3.38
406.772	3.38
407.216	3.39
407.66	3.39
408.104	3.38
408.547	3.39
408.991	3.4
409.435	3.4
409.879	3.42
410.322	3.44
410.766	3.45
411.209	3.46
411.653	3.49
412.096	3.5
412.54	3.52
412.983	3.54
413.426	3.58
413.869	3.59
414.312	3.62
414.756	3.64
415.199	3.65
415.642	3.66
416.085	3.66
416.527	3.66
416.97	3.65
417.413	3.64
417.856	3.65
418.298	3.64
418.741	3.64
419.184	3.64
419.626	3.63
420.069	3.64
420.511	3.65
420.953	3.66
421.396	3.67
421.838	3.68
422.28	3.69
422.722	3.7
423.164	3.71
423.606	3.71
424.048	3.72
424.49	3.73
424.932	3.72
425.374	3.72
425.816	3.71
426.258	3.69
426.699	3.7
427.141	3.68
427.582	3.68
428.024	3.69
428.465	3.71
428.907	3.7
429.348	3.69
429.789	3.69
430.231	3.71
430.672	3.73
431.113	3.76
431.554	3.77
431.995	3.79
432.436	3.81
432.877	3.81
433.318	3.82
433.759	3.84
434.2	3.87
434.64	3.9
435.081	3.89
435.522	3.92
435.962	3.94
436.403	3.97
436.843	3.97
437.284	3.98
437.724	3.99
438.164	3.96
438.604	3.97
439.045	3.97
439.485	3.97
439.925	3.97
440.365	3.96
440.805	3.96
441.245	3.96
441.685	3.98
442.125	3.99
442.564	4
443.004	4.02
443.444	4.03
443.883	4.05
444.323	4.04
444.762	4.06
445.202	4.07
445.641	4.09
446.081	4.1
446.52	4.1
446.959	4.11
447.398	4.12
447.837	4.12
448.276	4.12
448.716	4.12
449.154	4.15
449.593	4.15
450.032	4.15
450.471	4.13
450.91	4.13
451.349	4.14
451.787	4.13
452.226	4.12
452.664	4.11
453.103	4.11
453.541	4.11
453.98	4.1
454.418	4.09
454.856	4.08
455.295	4.07
455.733	4.03
456.171	4.01
456.609	4.01
457.047	3.99
457.485	3.99
457.923	3.98
458.361	3.98
458.798	3.97
459.236	3.97
459.674	3.96
460.111	3.97
460.549	3.99
460.987	4
461.424	4
461.862	4.02
462.299	4.02
462.736	4.03
463.173	4.03
463.611	4.05
464.048	4.05
464.485	4.06
464.922	4.06
465.359	4.05
465.796	4.06
466.233	4.07
466.67	4.07
467.106	4.07
467.543	4.07
467.98	4.05
468.416	4.03
468.853	4.03
469.29	4.04
469.726	4.03
470.162	4.03
470.599	4.04
471.035	4.03
471.471	4.02
471.907	4.01
472.344	4.01
472.78	4.01
473.216	4
473.652	4.01
474.088	3.99
474.523	3.98
474.959	3.97
475.395	3.93
475.831	3.92
476.266	3.92
476.702	3.92
477.138	3.91
477.573	3.9
478.008	3.9
478.444	3.88
478.879	3.9
479.314	3.88
479.75	3.89
480.185	3.88
480.62	3.87
481.055	3.86
481.49	3.85
481.925	3.84
482.36	3.84
482.795	3.83
483.229	3.82
483.664	3.82
484.099	3.81
484.534	3.81
484.968	3.81
485.403	3.81
485.837	3.81
486.271	3.81
486.706	3.82
487.14	3.82
487.574	3.83
488.009	3.84
488.443	3.85
488.877	3.86
489.311	3.88
489.745	3.9
490.179	3.93
490.613	3.95
491.046	3.97
491.48	4
491.914	4.02
492.348	4.05
492.781	4.09
493.215	4.12
493.648	4.15
494.082	4.19
494.515	4.22
494.948	4.26
495.382	4.3
495.815	4.36
496.248	4.41
496.681	4.47
497.114	4.52
497.547	4.58
497.98	4.64
498.413	4.7
498.846	4.77
499.279	4.84
499.711	4.92
500.144	5
500.577	5.09
501.009	5.16
501.442	5.25
501.874	5.35
502.306	5.45
502.739	5.56
503.171	5.68
503.603	5.8
504.036	5.92
504.468	6.06
504.9	6.19
505.332	6.33
505.764	6.5
506.196	6.66
506.627	6.83
507.059	7
507.491	7.17
507.923	7.36
508.354	7.56
508.786	7.77
509.217	7.97
509.649	8.19
510.08	8.42
510.512	8.65
510.943	8.89
511.374	9.13
511.805	9.37
512.237	9.62
512.668	9.89
513.099	10.15
513.53	10.41
513.961	10.69
514.391	10.97
514.822	11.26
515.253	11.54
515.684	11.83
516.114	12.14
516.545	12.44
516.975	12.75
517.406	13.07
517.836	13.37
518.267	13.69
518.697	14.01
519.127	14.31
519.558	14.6
519.988	14.91
520.418	15.22
520.848	15.51
521.278	15.81
521.708	16.26
522.138	16.53
522.567	16.81
522.997	17.08
523.427	17.35
523.857	17.62
524.286	17.88
524.716	18.14
525.145	18.39
525.575	18.63
526.004	18.87
526.433	18.95
526.863	19.16
527.292	19.38
527.721	19.59
528.15	19.77
528.579	19.96
529.008	20.15
529.437	20.31
529.866	20.47
530.295	20.64
530.724	20.77
531.152	20.93
531.581	21.08
532.01	21.23
532.438	21.36
532.867	21.49
533.295	21.6
533.723	21.7
534.152	21.81
534.58	21.92
535.008	22.01
535.436	22.1
535.865	22.17
536.293	22.25
536.721	22.3
537.149	22.37
537.576	22.42
538.004	22.5
538.432	22.55
538.86	22.61
539.287	22.65
539.715	22.7
540.143	22.75
540.57	22.8
540.998	22.82
541.425	22.87
541.852	22.91
542.28	22.96
542.707	22.99
543.134	23.03
543.561	23.05
543.988	23.08
544.415	23.09
544.842	23.12
545.269	23.16
545.696	23.19
546.123	23.21
546.549	23.25
546.976	23.27
547.403	23.3
547.829	23.33
548.256	23.35
548.682	23.36
549.108	23.39
549.535	23.42
549.961	23.41
550.387	23.41
550.813	23.39
551.24	23.37
551.666	23.36
552.092	23.36
552.518	23.33
552.943	23.32
553.369	23.29
553.795	23.25
554.221	23.19
554.646	23.15
555.072	23.11
555.498	23.08
555.923	23.01
556.349	22.94
556.774	22.87
557.199	22.8
557.625	22.73
558.05	22.66
558.475	22.58
558.9	22.49
559.325	22.4
559.75	22.31
560.175	22.2
560.6	22.1
561.025	21.98
561.449	21.86
561.874	21.75
562.299	21.62
562.723	21.48
563.148	21.34
563.572	21.2
563.997	21.05
564.421	20.88
564.846	20.72
565.27	20.57
565.694	20.42
566.118	20.26
566.542	20.09
566.966	19.93
567.39	19.78
567.814	19.62
568.238	19.46
568.662	19.3
569.086	19.16
569.509	19.02
569.933	18.85
570.357	18.69
570.78	18.54
571.204	18.38
571.627	18.24
572.05	18.09
572.474	17.95
572.897	17.8
573.32	17.66
573.743	17.51
574.166	17.37
574.589	17.24
575.012	17.11
575.435	16.99
575.858	16.87
576.281	16.74
576.704	16.62
577.126	16.49
577.549	16.39
577.972	16.27
578.394	16.17
578.817	16.08
579.239	15.98
579.661	15.89
580.084	15.78
580.506	15.68
580.928	15.58
581.35	15.48
581.772	15.39
582.194	15.3
582.616	15.22
583.038	15.12
583.46	15.04
583.882	14.96
584.303	14.86
584.725	14.8
585.147	14.74
585.568	14.67
585.99	14.6
586.411	14.55
586.833	14.48
587.254	14.4
587.675	14.35
588.096	14.28
588.518	14.2
588.939	14.16
589.36	14.09
589.781	14.02
590.202	13.98
590.623	13.93
591.043	13.88
591.464	13.84
591.885	13.79
592.305	13.74
592.726	13.71
593.147	13.67
593.567	13.64
593.987	13.61
594.408	13.58
594.828	13.53
595.248	13.49
595.669	13.46
596.089	13.42
596.509	13.41
596.929	13.38
597.349	13.34
597.769	13.31
598.189	13.27
598.608	13.24
599.028	13.21
599.448	13.17
599.867	13.13
600.287	13.09
600.706	13.05
601.126	13.01
601.545	12.96
601.965	12.91
602.384	12.86
602.803	12.81
603.222	12.75
603.641	12.7
604.061	12.65
604.48	12.59
604.898	12.51
605.317	12.43
605.736	12.37
606.155	12.3
606.574	12.22
606.992	12.14
607.411	12.07
607.829	11.96
608.248	11.87
608.666	11.78
609.085	11.7
609.503	11.63
609.921	11.56
610.339	11.46
610.758	11.39
611.176	11.3
611.594	11.23
612.012	11.15
612.43	11.09
612.847	11.02
613.265	10.95
613.683	10.87
614.101	10.8
614.518	10.72
614.936	10.64
615.353	10.57
615.771	10.5
616.188	10.43
616.606	10.37
617.023	10.31
617.44	10.25
617.857	10.19
618.274	10.14
618.691	10.08
619.108	10.02
619.525	9.99
619.942	9.95
620.359	9.9
620.776	9.86
621.192	9.83
621.609	9.79
622.026	9.76
622.442	9.75
622.859	9.72
623.275	9.7
623.691	9.69
624.108	9.67
624.524	9.65
624.94	9.64
625.356	9.63
625.772	9.61
626.188	9.59
626.604	9.58
627.02	9.55
627.436	9.54
627.852	9.53
628.268	9.52
628.683	9.5
629.099	9.48
629.514	9.47
629.93	9.45
630.345	9.45
630.761	9.42
631.176	9.4
631.591	9.38
632.007	9.34
632.422	9.31
632.837	9.26
633.252	9.2
633.667	9.15
634.082	9.08
634.497	9.01
634.911	8.93
635.326	8.85
635.741	8.77
636.155	8.68
636.57	8.59
636.984	8.5
637.399	8.41
637.813	8.32
638.228	8.22
638.642	8.11
639.056	8
639.47	7.91
639.884	7.81
640.298	7.69
640.712	7.58
641.126	7.47
641.54	7.35
641.954	7.24
642.368	7.13
642.781	7.03
643.195	6.93
643.609	6.84
644.022	6.74
644.436	6.65
644.849	6.54
645.262	6.47
645.676	6.38
646.089	6.32
646.502	6.26
646.915	6.19
647.328	6.13
647.741	6.07
648.154	6.02
648.567	5.97
648.98	5.92
649.393	5.89
649.805	5.85
650.218	5.81
650.631	5.77
651.043	5.73
651.456	5.7
651.868	5.66
652.28	5.62
652.693	5.59
653.105	5.55
653.517	5.51
653.929	5.47
654.341	5.41
654.753	5.35
655.165	5.3
655.577	5.25
655.989	5.19
656.401	5.13
656.813	5.07
657.224	5
657.636	4.92
658.047	4.85
658.459	4.78
658.87	4.71
659.282	4.65
659.693	4.58
660.104	4.5
660.515	4.44
660.926	4.37
661.338	4.3
661.749	4.24
662.159	4.19
662.57	4.14
662.981	4.09
663.392	4.04
663.803	4
664.213	3.95
664.624	3.92
665.035	3.88
665.445	3.84
665.855	3.81
666.266	3.77
666.676	3.74
667.086	3.71
667.497	3.69
667.907	3.68
668.317	3.66
668.727	3.64
669.137	3.63
669.547	3.62
669.956	3.61
670.366	3.6
670.776	3.61
671.186	3.61
671.595	3.6
672.005	3.59
672.414	3.59
672.824	3.59
673.233	3.6
673.642	3.61
674.052	3.61
674.461	3.63
674.87	3.64
675.279	3.66
675.688	3.67
676.097	3.69
676.506	3.72
676.915	3.74
677.323	3.76
677.732	3.78
678.141	3.82
678.549	3.85
678.958	3.88
679.366	3.92
679.775	3.95
680.183	4
680.592	4.05
681	4.11
681.408	4.16
681.816	4.23
682.224	4.31
682.632	4.4
683.04	4.49
683.448	4.6
683.856	4.7
684.264	4.84
684.671	4.99
685.079	5.15
685.487	5.34
685.894	5.55
686.302	5.78
686.709	6.03
687.116	6.31
687.524	6.61
687.931	6.93
688.338	7.29
688.745	7.66
689.152	8.06
689.559	8.48
689.966	8.91
690.373	9.38
690.78	9.86
691.187	10.37
691.593	10.9
692	11.44
692.407	11.99
692.813	12.57
693.22	13.15
693.626	13.73
694.032	14.34
694.439	14.97
694.845	15.61
695.251	16.23
695.657	16.84
696.063	17.46
696.469	18.1
696.875	18.74
697.281	19.37
697.687	20.01
698.093	20.64
698.498	21.27
698.904	21.88
699.31	22.46
699.715	23.06
700.12	23.67
700.526	24.26
700.931	24.83
701.337	25.4
701.742	25.96
702.147	26.5
702.552	27.04
702.957	27.55
703.362	28.06
703.767	28.57
704.172	29.08
704.577	29.59
704.981	30.08
705.386	30.57
705.791	31.05
706.195	31.54
706.6	32.02
707.004	32.47
707.408	32.92
707.813	33.38
708.217	33.83
708.621	34.26
709.025	34.65
709.43	35.08
709.834	35.49
710.237	35.88
710.641	36.26
711.045	36.64
711.449	37.04
711.853	37.44
712.256	37.79
712.66	38.15
713.064	38.49
713.467	38.85
713.87	39.17
714.274	39.49
714.677	39.83
715.08	40.16
715.484	40.48
715.887	40.8
716.29	41.08
716.693	41.42
717.096	41.73
717.499	42.06
717.901	42.35
718.304	42.64
718.707	42.94
719.109	43.23
719.512	43.51
719.915	43.77
720.317	44
720.719	44.23
721.122	44.46
721.524	44.68
721.926	44.91
722.328	45.14
722.731	45.35
723.133	45.55
723.535	45.73
723.937	45.93
724.338	46.13
724.74	46.33
725.142	46.61
725.544	46.78
725.945	46.96
726.347	47.12
726.748	47.27
727.15	47.4
727.551	47.58
727.952	47.71
728.354	47.85
728.755	47.96
729.156	48.09
729.557	48.13
729.958	48.24
730.359	48.34
730.76	48.45
731.161	48.56
731.562	48.68
731.962	48.74
732.363	48.87
732.763	48.97
733.164	49.08
733.564	49.17
733.965	49.27
734.365	49.37
734.766	49.46
735.166	49.56
735.566	49.65
735.966	49.73
736.366	49.83
736.766	49.86
737.166	49.92
737.566	49.96
737.966	50.03
738.365	50.11
738.765	50.18
739.165	50.22
739.564	50.28
739.964	50.32
740.363	50.35
740.763	50.41
741.162	50.45
741.561	50.49
741.96	50.54
742.36	50.58
742.759	50.61
743.158	50.62
743.557	50.63
743.955	50.64
744.354	50.69
744.753	50.74
745.152	50.78
745.55	50.83
745.949	50.87
746.348	50.91
746.746	50.89
747.144	50.91
747.543	50.93
747.941	50.98
748.339	50.98
748.737	50.97
749.136	50.96
749.534	50.94
749.932	50.95
750.33	50.94
750.727	50.97
751.125	51
751.523	51
751.921	51.04
752.318	51.04
752.716	51.07
753.113	51.09
753.511	51.11
753.908	51.13
754.305	51.16
754.703	51.15
755.1	51.15
755.497	51.16
755.894	51.17
756.291	51.16
756.688	51.16
757.085	51.15
757.482	51.16
757.878	51.18
758.275	51.18
758.672	51.18
759.068	51.23
759.465	51.24
759.861	51.25
760.258	51.26
760.654	51.26
761.05	51.28
761.447	51.33
761.843	51.31
762.239	51.31
762.635	51.32
763.031	51.29
763.427	51.23
763.822	51.21
764.218	51.21
764.614	51.22
765.01	51.21
765.405	51.19
765.801	51.14
766.196	51.16
766.592	51.15
766.987	51.15
767.382	51.17
767.778	51.21
768.173	51.2
768.568	51.18
768.963	51.17
769.358	51.2
769.753	51.22
770.148	51.22
770.542	51.22
770.937	51.23
771.332	51.21
771.726	51.22
772.121	51.21
772.515	51.2
772.91	51.2
773.304	51.23
773.699	51.24
774.093	51.21
774.487	51.2
774.881	51.21
775.275	51.2
775.669	51.17
776.063	51.16
776.457	51.18
776.851	51.16
777.245	51.13
777.638	51.1
778.032	51.08
778.425	51.14
778.819	51.13
779.212	51.12
779.606	51.15
779.999	51.16
780.392	51.16
780.786	51.14
781.179	51.19
781.572	51.25
781.965	51.26
782.358	51.28
782.751	51.25
783.143	51.27
783.536	51.27
783.929	51.24
784.322	51.24
784.714	51.26
785.107	51.27
