Data from C_1_DEC_NC_4N_Splice17_12-58-03-479.txt Node
Date: Sat Mar 07 12:58:03 EST 2020
User: sa697716
Spectrometer: NQ5500242
Trigger mode: 0
Integration Time (sec): 1.450000E-1
Scans to average: 20
Nonlinearity correction enabled: false
Boxcar width: 5
Storing dark spectrum: false
XAxis mode: Wavelengths
Number of Pixels in Spectrum: 512
>>>>>Begin Spectral Data<<<<<
187.83	191.33
188.298	196.02
188.766	159.55
189.233	126.79
189.701	135.46
190.169	160.52
190.636	131.3
191.104	5.03
191.571	-607.74
192.039	-781.79
192.506	-1667.05
192.974	279.39
193.441	182.96
193.908	30.2
194.375	-2.03
194.842	-50.05
195.31	-45.27
195.777	-268.82
196.244	9.27
196.711	36.49
197.177	43.47
197.644	45.07
198.111	46.06
198.578	47.17
199.045	47.83
199.511	47.85
199.978	48.16
200.445	48.55
200.911	48.95
201.378	49.24
201.844	49.24
202.31	48.7
202.777	48.7
203.243	48.88
203.709	48.89
204.176	48.51
204.642	48.45
205.108	48.22
205.574	47.94
206.04	47.21
206.506	46.88
206.972	46.77
207.438	46.58
207.903	46.23
208.369	45.68
208.835	44.97
209.301	44.3
209.766	43.18
210.232	42.45
210.697	41.3
211.163	40.48
211.628	39.79
212.094	38.86
212.559	38.42
213.024	37.5
213.49	36.69
213.955	35.98
214.42	35.27
214.885	34.47
215.35	33.37
215.815	32.29
216.28	30.59
216.745	28.68
217.21	26.84
217.675	25.12
218.14	23.71
218.604	22.46
219.069	21.47
219.534	20.58
219.998	19.92
220.463	19.31
220.927	18.71
221.392	18.29
221.856	17.91
222.32	17.6
222.785	17.31
223.249	17.02
223.713	16.73
224.177	16.49
224.642	16.26
225.106	15.99
225.57	15.73
226.034	15.53
226.497	15.32
226.961	15.11
227.425	14.92
227.889	14.73
228.353	14.53
228.816	14.34
229.28	14.13
229.744	13.94
230.207	13.77
230.671	13.59
231.134	13.41
231.597	13.27
232.061	13.1
232.524	12.93
232.987	12.75
233.45	12.62
233.914	12.46
234.377	12.3
234.84	12.16
235.303	12.03
235.766	11.91
236.229	11.79
236.691	11.65
237.154	11.55
237.617	11.44
238.08	11.32
238.542	11.2
239.005	11.1
239.468	10.99
239.93	10.88
240.393	10.78
240.855	10.65
241.317	10.54
241.78	10.43
242.242	10.31
242.704	10.21
243.166	10.1
243.629	10.01
244.091	9.91
244.553	9.82
245.015	9.73
245.477	9.64
245.939	9.55
246.4	9.46
246.862	9.38
247.324	9.3
247.786	9.21
248.247	9.13
248.709	9.04
249.17	8.96
249.632	8.9
250.093	8.84
250.555	8.76
251.016	8.71
251.477	8.65
251.939	8.59
252.4	8.53
252.861	8.47
253.322	8.42
253.783	8.38
254.244	8.33
254.705	8.28
255.166	8.22
255.627	8.17
256.088	8.13
256.549	8.08
257.009	8.02
257.47	7.97
257.931	7.92
258.391	7.86
258.852	7.8
259.312	7.74
259.773	7.68
260.233	7.64
260.694	7.59
261.154	7.53
261.614	7.5
262.074	7.46
262.534	7.42
262.994	7.39
263.455	7.37
263.915	7.34
264.374	7.31
264.834	7.29
265.294	7.26
265.754	7.25
266.214	7.22
266.673	7.2
267.133	7.18
267.593	7.16
268.052	7.14
268.512	7.12
268.971	7.11
269.431	7.09
269.89	7.07
270.349	7.06
270.809	7.04
271.268	7.02
271.727	7.01
272.186	6.99
272.645	6.97
273.104	6.95
273.563	6.93
274.022	6.91
274.481	6.89
274.94	6.87
275.399	6.85
275.857	6.84
276.316	6.81
276.775	6.79
277.233	6.77
277.692	6.76
278.15	6.73
278.609	6.72
279.067	6.7
279.525	6.68
279.984	6.66
280.442	6.65
280.9	6.63
281.358	6.62
281.816	6.6
282.274	6.58
282.732	6.56
283.19	6.55
283.648	6.52
284.106	6.5
284.564	6.47
285.021	6.46
285.479	6.44
285.937	6.41
286.394	6.39
286.852	6.36
287.309	6.33
287.767	6.3
288.224	6.28
288.682	6.25
289.139	6.22
289.596	6.2
290.053	6.16
290.511	6.14
290.968	6.11
291.425	6.09
291.882	6.07
292.339	6.05
292.796	6.03
293.252	6.01
293.709	6
294.166	5.99
294.623	5.97
295.079	5.96
295.536	5.94
295.992	5.93
296.449	5.91
296.905	5.9
297.362	5.89
297.818	5.87
298.274	5.87
298.731	5.85
299.187	5.83
299.643	5.81
300.099	5.8
300.555	5.78
301.011	5.76
301.467	5.75
301.923	5.73
302.379	5.72
302.835	5.71
303.291	5.7
303.746	5.68
304.202	5.67
304.658	5.67
305.113	5.65
305.569	5.65
306.024	5.64
306.479	5.63
306.935	5.61
307.39	5.6
307.845	5.59
308.301	5.59
308.756	5.58
309.211	5.57
309.666	5.57
310.121	5.56
310.576	5.55
311.031	5.54
311.486	5.54
311.94	5.54
312.395	5.53
312.85	5.52
313.305	5.51
313.759	5.51
314.214	5.5
314.668	5.48
315.123	5.47
315.577	5.45
316.032	5.45
316.486	5.43
316.94	5.41
317.394	5.4
317.849	5.38
318.303	5.36
318.757	5.34
319.211	5.32
319.665	5.3
320.119	5.28
320.572	5.27
321.026	5.26
321.48	5.26
321.934	5.24
322.387	5.23
322.841	5.21
323.295	5.2
323.748	5.19
324.202	5.18
324.655	5.18
325.108	5.17
325.562	5.17
326.015	5.17
326.468	5.15
326.921	5.15
327.374	5.14
327.827	5.15
328.28	5.14
328.733	5.14
329.186	5.13
329.639	5.13
330.092	5.13
330.545	5.12
330.997	5.12
331.45	5.12
331.903	5.12
332.355	5.11
332.808	5.1
333.26	5.09
333.713	5.1
334.165	5.09
334.617	5.08
335.069	5.07
335.522	5.08
335.974	5.07
336.426	5.06
336.878	5.05
337.33	5.04
337.782	5.04
338.234	5.04
338.686	5.02
339.137	5.03
339.589	5.01
340.041	4.99
340.493	4.97
340.944	4.95
341.396	4.94
341.847	4.92
342.299	4.91
342.75	4.9
343.201	4.87
343.653	4.86
344.104	4.84
344.555	4.83
345.006	4.82
345.457	4.82
345.908	4.82
346.359	4.81
346.81	4.81
347.261	4.8
347.712	4.79
348.163	4.78
348.613	4.79
349.064	4.79
349.515	4.79
349.965	4.78
350.416	4.77
350.866	4.77
351.317	4.76
351.767	4.76
352.217	4.76
352.668	4.75
353.118	4.76
353.568	4.75
354.018	4.75
354.468	4.76
354.918	4.76
355.368	4.76
355.818	4.76
356.268	4.76
356.718	4.76
357.168	4.75
357.617	4.74
358.067	4.74
358.517	4.74
358.966	4.74
359.416	4.73
359.865	4.73
360.315	4.73
360.764	4.74
361.213	4.73
361.663	4.72
362.112	4.73
362.561	4.73
363.01	4.73
363.459	4.71
363.908	4.71
364.357	4.71
364.806	4.7
365.255	4.71
365.703	4.71
366.152	4.71
366.601	4.72
367.05	4.72
367.498	4.72
367.947	4.72
368.395	4.74
368.844	4.74
369.292	4.74
369.74	4.75
370.189	4.73
370.637	4.73
371.085	4.72
371.533	4.71
371.981	4.71
372.429	4.71
372.877	4.72
373.325	4.71
373.773	4.71
374.221	4.7
374.669	4.7
375.116	4.7
375.564	4.7
376.012	4.71
376.459	4.73
376.907	4.75
377.354	4.75
377.801	4.77
378.249	4.78
378.696	4.78
379.143	4.79
379.591	4.81
380.038	4.82
380.485	4.83
380.932	4.84
381.379	4.85
381.826	4.86
382.273	4.87
382.72	4.87
383.166	4.87
383.613	4.9
384.06	4.91
384.506	4.92
384.953	4.94
385.4	4.95
385.846	4.98
386.292	4.99
386.739	5.01
387.185	5.03
387.631	5.05
388.078	5.07
388.524	5.1
388.97	5.13
389.416	5.17
389.862	5.19
390.308	5.24
390.754	5.27
391.2	5.31
391.645	5.35
392.091	5.4
392.537	5.43
392.983	5.47
393.428	5.52
393.874	5.56
394.319	5.6
394.765	5.63
395.21	5.66
395.655	5.69
396.101	5.73
396.546	5.75
396.991	5.78
397.436	5.82
397.881	5.87
398.326	5.91
398.771	5.96
399.216	5.98
399.661	6.02
400.106	6.05
400.551	6.08
400.995	6.1
401.44	6.13
401.885	6.15
402.329	6.19
402.774	6.19
403.218	6.22
403.663	6.23
404.107	6.25
404.551	6.27
404.995	6.29
405.44	6.31
405.884	6.34
406.328	6.36
406.772	6.37
407.216	6.38
407.66	6.39
408.104	6.39
408.547	6.41
408.991	6.42
409.435	6.42
409.879	6.44
410.322	6.45
410.766	6.46
411.209	6.48
411.653	6.5
412.096	6.52
412.54	6.54
412.983	6.56
413.426	6.59
413.869	6.62
414.312	6.65
414.756	6.67
415.199	6.67
415.642	6.68
416.085	6.7
416.527	6.68
416.97	6.68
417.413	6.68
417.856	6.67
418.298	6.67
418.741	6.66
419.184	6.65
419.626	6.63
420.069	6.64
420.511	6.64
420.953	6.63
421.396	6.64
421.838	6.64
422.28	6.65
422.722	6.65
423.164	6.64
423.606	6.63
424.048	6.62
424.49	6.62
424.932	6.6
425.374	6.57
425.816	6.55
426.258	6.54
426.699	6.52
427.141	6.51
427.582	6.51
428.024	6.51
428.465	6.52
428.907	6.51
429.348	6.49
429.789	6.49
430.231	6.5
430.672	6.53
431.113	6.55
431.554	6.56
431.995	6.58
432.436	6.59
432.877	6.6
433.318	6.62
433.759	6.65
434.2	6.7
434.64	6.71
435.081	6.75
435.522	6.74
435.962	6.75
436.403	6.79
436.843	6.8
437.284	6.81
437.724	6.82
438.164	6.82
438.604	6.84
439.045	6.84
439.485	6.85
439.925	6.85
440.365	6.88
440.805	6.9
441.245	6.92
441.685	6.96
442.125	6.99
442.564	7
443.004	7.04
443.444	7.07
443.883	7.11
444.323	7.15
444.762	7.19
445.202	7.22
445.641	7.27
446.081	7.3
446.52	7.31
446.959	7.36
447.398	7.41
447.837	7.45
448.276	7.48
448.716	7.52
449.154	7.56
449.593	7.6
450.032	7.65
450.471	7.67
450.91	7.7
451.349	7.75
451.787	7.76
452.226	7.76
452.664	7.77
453.103	7.78
453.541	7.79
453.98	7.8
454.418	7.79
454.856	7.78
455.295	7.78
455.733	7.76
456.171	7.75
456.609	7.75
457.047	7.74
457.485	7.74
457.923	7.75
458.361	7.76
458.798	7.75
459.236	7.77
459.674	7.76
460.111	7.76
460.549	7.78
460.987	7.8
461.424	7.8
461.862	7.83
462.299	7.84
462.736	7.83
463.173	7.83
463.611	7.84
464.048	7.84
464.485	7.85
464.922	7.85
465.359	7.86
465.796	7.87
466.233	7.89
466.67	7.9
467.106	7.91
467.543	7.91
467.98	7.92
468.416	7.92
468.853	7.93
469.29	7.92
469.726	7.93
470.162	7.93
470.599	7.92
471.035	7.91
471.471	7.9
471.907	7.89
472.344	7.9
472.78	7.9
473.216	7.91
473.652	7.92
474.088	7.92
474.523	7.93
474.959	7.93
475.395	7.94
475.831	7.94
476.266	7.96
476.702	7.97
477.138	7.97
477.573	7.98
478.008	7.99
478.444	7.99
478.879	8.01
479.314	8
479.75	8.01
480.185	8.01
480.62	8.01
481.055	8.01
481.49	8.02
481.925	8.02
482.36	8.03
482.795	8.04
483.229	8.06
483.664	8.07
484.099	8.08
484.534	8.1
484.968	8.14
485.403	8.16
485.837	8.19
486.271	8.23
486.706	8.27
487.14	8.3
487.574	8.34
488.009	8.38
488.443	8.43
488.877	8.48
489.311	8.54
489.745	8.59
490.179	8.66
490.613	8.72
491.046	8.8
491.48	8.86
491.914	8.94
492.348	9.02
492.781	9.11
493.215	9.2
493.648	9.3
494.082	9.39
494.515	9.5
494.948	9.6
495.382	9.7
495.815	9.81
496.248	9.93
496.681	10.05
497.114	10.18
497.547	10.32
497.98	10.46
498.413	10.59
498.846	10.75
499.279	10.89
499.711	11.04
500.144	11.22
500.577	11.4
501.009	11.58
501.442	11.77
501.874	11.97
502.306	12.16
502.739	12.38
503.171	12.59
503.603	12.82
504.036	13.05
504.468	13.29
504.9	13.52
505.332	13.77
505.764	14.02
506.196	14.28
506.627	14.54
507.059	14.82
507.491	15.09
507.923	15.39
508.354	15.69
508.786	16
509.217	16.31
509.649	16.64
510.08	16.97
510.512	17.31
510.943	17.63
511.374	17.98
511.805	18.33
512.237	18.68
512.668	19.04
513.099	19.38
513.53	19.74
513.961	20.12
514.391	20.49
514.822	20.87
515.253	21.24
515.684	21.63
516.114	22.01
516.545	22.39
516.975	22.76
517.406	23.13
517.836	23.5
518.267	23.88
518.697	24.23
519.127	24.58
519.558	24.93
519.988	25.29
520.418	25.61
520.848	25.93
521.278	26.25
521.708	26.72
522.138	27.04
522.567	27.34
522.997	27.61
523.427	27.91
523.857	28.19
524.286	28.44
524.716	28.71
525.145	28.97
525.575	29.22
526.004	29.47
526.433	29.57
526.863	29.81
527.292	30.04
527.721	30.26
528.15	30.46
528.579	30.65
529.008	30.86
529.437	31.02
529.866	31.19
530.295	31.36
530.724	31.51
531.152	31.65
531.581	31.78
532.01	31.92
532.438	32.05
532.867	32.18
533.295	32.3
533.723	32.42
534.152	32.54
534.58	32.66
535.008	32.74
535.436	32.85
535.865	32.92
536.293	33.02
536.721	33.09
537.149	33.17
537.576	33.25
538.004	33.33
538.432	33.39
538.86	33.44
539.287	33.47
539.715	33.55
540.143	33.6
540.57	33.64
540.998	33.65
541.425	33.71
541.852	33.76
542.28	33.8
542.707	33.83
543.134	33.87
543.561	33.92
543.988	33.98
544.415	34
544.842	34.02
545.269	34.07
545.696	34.13
546.123	34.15
546.549	34.17
546.976	34.2
547.403	34.22
547.829	34.24
548.256	34.25
548.682	34.26
549.108	34.28
549.535	34.3
549.961	34.3
550.387	34.29
550.813	34.32
551.24	34.34
551.666	34.33
552.092	34.34
552.518	34.33
552.943	34.33
553.369	34.31
553.795	34.29
554.221	34.28
554.646	34.27
555.072	34.23
555.498	34.18
555.923	34.12
556.349	34.06
556.774	34.01
557.199	33.94
557.625	33.87
558.05	33.83
558.475	33.77
558.9	33.7
559.325	33.62
559.75	33.55
560.175	33.46
560.6	33.38
561.025	33.29
561.449	33.2
561.874	33.09
562.299	33
562.723	32.88
563.148	32.74
563.572	32.6
563.997	32.48
564.421	32.34
564.846	32.2
565.27	32.07
565.694	31.92
566.118	31.78
566.542	31.65
566.966	31.5
567.39	31.36
567.814	31.22
568.238	31.07
568.662	30.95
569.086	30.82
569.509	30.69
569.933	30.54
570.357	30.42
570.78	30.26
571.204	30.13
571.627	29.99
572.05	29.85
572.474	29.74
572.897	29.62
573.32	29.46
573.743	29.33
574.166	29.21
574.589	29.09
575.012	28.97
575.435	28.86
575.858	28.73
576.281	28.62
576.704	28.5
577.126	28.36
577.549	28.25
577.972	28.13
578.394	28.02
578.817	27.92
579.239	27.81
579.661	27.7
580.084	27.59
580.506	27.5
580.928	27.4
581.35	27.31
581.772	27.23
582.194	27.15
582.616	27.08
583.038	26.99
583.46	26.89
583.882	26.8
584.303	26.72
584.725	26.64
585.147	26.55
585.568	26.47
585.99	26.4
586.411	26.31
586.833	26.22
587.254	26.14
587.675	26.07
588.096	26
588.518	25.94
588.939	25.88
589.36	25.82
589.781	25.76
590.202	25.71
590.623	25.66
591.043	25.6
591.464	25.56
591.885	25.51
592.305	25.46
592.726	25.43
593.147	25.39
593.567	25.34
593.987	25.29
594.408	25.25
594.828	25.2
595.248	25.15
595.669	25.12
596.089	25.07
596.509	25.04
596.929	25
597.349	24.96
597.769	24.92
598.189	24.9
598.608	24.86
599.028	24.83
599.448	24.78
599.867	24.74
600.287	24.7
600.706	24.66
601.126	24.61
601.545	24.55
601.965	24.51
602.384	24.44
602.803	24.38
603.222	24.31
603.641	24.23
604.061	24.18
604.48	24.09
604.898	24.01
605.317	23.94
605.736	23.86
606.155	23.78
606.574	23.69
606.992	23.61
607.411	23.52
607.829	23.4
608.248	23.3
608.666	23.21
609.085	23.14
609.503	23.05
609.921	22.94
610.339	22.83
610.758	22.74
611.176	22.63
611.594	22.55
612.012	22.46
612.43	22.39
612.847	22.3
613.265	22.2
613.683	22.11
614.101	22.02
614.518	21.92
614.936	21.82
615.353	21.73
615.771	21.66
616.188	21.57
616.606	21.48
617.023	21.41
617.44	21.35
617.857	21.27
618.274	21.19
618.691	21.12
619.108	21.06
619.525	21.01
619.942	20.96
620.359	20.91
620.776	20.86
621.192	20.83
621.609	20.8
622.026	20.76
622.442	20.72
622.859	20.7
623.275	20.67
623.691	20.64
624.108	20.61
624.524	20.58
624.94	20.56
625.356	20.55
625.772	20.52
626.188	20.51
626.604	20.48
627.02	20.47
627.436	20.46
627.852	20.45
628.268	20.44
628.683	20.43
629.099	20.43
629.514	20.4
629.93	20.37
630.345	20.35
630.761	20.3
631.176	20.26
631.591	20.22
632.007	20.17
632.422	20.1
632.837	20.02
633.252	19.95
633.667	19.86
634.082	19.76
634.497	19.66
634.911	19.55
635.326	19.43
635.741	19.3
636.155	19.15
636.57	19
636.984	18.86
637.399	18.71
637.813	18.55
638.228	18.37
638.642	18.19
639.056	18
639.47	17.82
639.884	17.64
640.298	17.46
640.712	17.27
641.126	17.09
641.54	16.89
641.954	16.68
642.368	16.49
642.781	16.32
643.195	16.14
643.609	15.96
644.022	15.77
644.436	15.6
644.849	15.44
645.262	15.28
645.676	15.12
646.089	14.98
646.502	14.87
646.915	14.75
647.328	14.62
647.741	14.5
648.154	14.39
648.567	14.29
648.98	14.21
649.393	14.12
649.805	14.05
650.218	13.98
650.631	13.9
651.043	13.82
651.456	13.74
651.868	13.66
652.28	13.6
652.693	13.54
653.105	13.45
653.517	13.36
653.929	13.28
654.341	13.17
654.753	13.07
655.165	12.96
655.577	12.85
655.989	12.75
656.401	12.62
656.813	12.5
657.224	12.36
657.636	12.22
658.047	12.08
658.459	11.92
658.87	11.77
659.282	11.61
659.693	11.45
660.104	11.29
660.515	11.11
660.926	10.95
661.338	10.78
661.749	10.63
662.159	10.48
662.57	10.33
662.981	10.18
663.392	10.04
663.803	9.9
664.213	9.76
664.624	9.63
665.035	9.51
665.445	9.4
665.855	9.29
666.266	9.17
666.676	9.07
667.086	8.97
667.497	8.89
667.907	8.81
668.317	8.74
668.727	8.68
669.137	8.61
669.547	8.56
669.956	8.5
670.366	8.46
670.776	8.43
671.186	8.4
671.595	8.37
672.005	8.35
672.414	8.33
672.824	8.32
673.233	8.31
673.642	8.33
674.052	8.33
674.461	8.35
674.87	8.36
675.279	8.38
675.688	8.41
676.097	8.45
676.506	8.49
676.915	8.53
677.323	8.58
677.732	8.64
678.141	8.69
678.549	8.76
678.958	8.86
679.366	8.96
679.775	9.07
680.183	9.2
680.592	9.35
681	9.52
681.408	9.71
681.816	9.93
682.224	10.17
682.632	10.45
683.04	10.75
683.448	11.07
683.856	11.41
684.264	11.8
684.671	12.21
685.079	12.64
685.487	13.11
685.894	13.63
686.302	14.17
686.709	14.73
687.116	15.33
687.524	15.94
687.931	16.6
688.338	17.28
688.745	17.96
689.152	18.66
689.559	19.39
689.966	20.14
690.373	20.89
690.78	21.64
691.187	22.38
691.593	23.13
692	23.89
692.407	24.63
692.813	25.38
693.22	26.11
693.626	26.84
694.032	27.57
694.439	28.27
694.845	28.96
695.251	29.65
695.657	30.32
696.063	30.97
696.469	31.63
696.875	32.27
697.281	32.86
697.687	33.47
698.093	34.07
698.498	34.63
698.904	35.18
699.31	35.71
699.715	36.21
700.12	36.74
700.526	37.23
700.931	37.7
701.337	38.17
701.742	38.61
702.147	39.05
702.552	39.48
702.957	39.86
703.362	40.25
703.767	40.63
704.172	41.01
704.577	41.36
704.981	41.71
705.386	42.05
705.791	42.38
706.195	42.72
706.6	43.06
707.004	43.35
707.408	43.68
707.813	43.99
708.217	44.27
708.621	44.57
709.025	44.84
709.43	45.1
709.834	45.38
710.237	45.62
710.641	45.88
711.045	46.09
711.449	46.35
711.853	46.62
712.256	46.83
712.66	47.05
713.064	47.26
713.467	47.48
713.87	47.7
714.274	47.89
714.677	48.1
715.08	48.28
715.484	48.49
715.887	48.68
716.29	48.82
716.693	49
717.096	49.16
717.499	49.33
717.901	49.49
718.304	49.63
718.707	49.81
719.109	49.95
719.512	50.11
719.915	50.25
720.317	50.35
720.719	50.46
721.122	50.59
721.524	50.73
721.926	50.85
722.328	50.97
722.731	51.08
723.133	51.17
723.535	51.31
723.937	51.42
724.338	51.52
724.74	51.64
725.142	51.83
725.544	51.94
725.945	52.04
726.347	52.12
726.748	52.2
727.15	52.27
727.551	52.35
727.952	52.39
728.354	52.44
728.755	52.48
729.156	52.52
729.557	52.5
729.958	52.54
730.359	52.59
730.76	52.65
731.161	52.69
731.562	52.76
731.962	52.77
732.363	52.85
732.763	52.91
733.164	52.99
733.564	53.06
733.965	53.1
734.365	53.15
734.766	53.18
735.166	53.23
735.566	53.27
735.966	53.29
736.366	53.36
736.766	53.37
737.166	53.41
737.566	53.41
737.966	53.44
738.365	53.47
738.765	53.51
739.165	53.53
739.564	53.56
739.964	53.6
740.363	53.63
740.763	53.64
741.162	53.64
741.561	53.66
741.96	53.68
742.36	53.7
742.759	53.7
743.158	53.69
743.557	53.68
743.955	53.67
744.354	53.69
744.753	53.72
745.152	53.77
745.55	53.8
745.949	53.81
746.348	53.81
746.746	53.83
747.144	53.82
747.543	53.85
747.941	53.88
748.339	53.89
748.737	53.87
749.136	53.86
749.534	53.83
749.932	53.83
750.33	53.81
750.727	53.84
751.125	53.83
751.523	53.84
751.921	53.83
752.318	53.83
752.716	53.84
753.113	53.85
753.511	53.89
753.908	53.91
754.305	53.92
754.703	53.94
755.1	53.93
755.497	53.94
755.894	53.93
756.291	53.96
756.688	53.94
757.085	53.94
757.482	53.95
757.878	53.94
758.275	53.94
758.672	53.97
759.068	54
759.465	54.01
759.861	54.04
760.258	54.07
760.654	54.08
761.05	54.13
761.447	54.17
761.843	54.15
762.239	54.14
762.635	54.14
763.031	54.11
763.427	54.06
763.822	54.05
764.218	54.04
764.614	54.02
765.01	54
765.405	53.96
765.801	53.9
766.196	53.9
766.592	53.89
766.987	53.89
767.382	53.89
767.778	53.91
768.173	53.92
768.568	53.89
768.963	53.88
769.358	53.87
769.753	53.89
770.148	53.93
770.542	53.95
770.937	53.97
771.332	53.97
771.726	53.98
772.121	53.98
772.515	53.97
772.91	53.98
773.304	54.01
773.699	54.01
774.093	54
774.487	53.97
774.881	53.98
775.275	53.95
775.669	53.93
776.063	53.92
776.457	53.91
776.851	53.89
777.245	53.89
777.638	53.89
778.032	53.92
778.425	53.96
778.819	53.98
779.212	53.98
