Data from C_1_DIV_OH_2N_Splice17_12-51-46-509.txt Node
Date: Sat Mar 07 12:51:46 EST 2020
User: sa697716
Spectrometer: NQ5500242
Trigger mode: 0
Integration Time (sec): 1.450000E-1
Scans to average: 20
Nonlinearity correction enabled: false
Boxcar width: 5
Storing dark spectrum: false
XAxis mode: Wavelengths
Number of Pixels in Spectrum: 512
>>>>>Begin Spectral Data<<<<<
187.83	37.45
188.298	57.15
188.766	38.87
189.233	44.29
189.701	31.42
190.169	34.94
190.636	19.81
191.104	-56.94
191.571	-390.72
192.039	-353.51
192.506	-711.24
192.974	246.29
193.441	449.28
193.908	175
194.375	122.59
194.842	14.67
195.31	-92.86
195.777	-300.46
196.244	-0.71
196.711	22.8
197.177	29.42
197.644	29.68
198.111	28.91
198.578	29.57
199.045	29.94
199.511	30.14
199.978	30.66
200.445	31.31
200.911	31.37
201.378	31.52
201.844	31.05
202.31	30.55
202.777	30.82
203.243	30.93
203.709	30.76
204.176	31.01
204.642	31.08
205.108	30.77
205.574	30.73
206.04	30.32
206.506	29.93
206.972	30.25
207.438	29.86
207.903	29.24
208.369	28.78
208.835	28.31
209.301	27.53
209.766	26.69
210.232	26.36
210.697	25.72
211.163	25.21
211.628	24.88
212.094	24.02
212.559	23.57
213.024	23.24
213.49	22.9
213.955	22.26
214.42	21.69
214.885	21.03
215.35	20.22
215.815	19.26
216.28	18.02
216.745	16.67
217.21	15.38
217.675	14.35
218.14	13.36
218.604	12.57
219.069	11.88
219.534	11.32
219.998	10.89
220.463	10.49
220.927	10.06
221.392	9.8
221.856	9.55
222.32	9.38
222.785	9.2
223.249	9.01
223.713	8.82
224.177	8.69
224.642	8.55
225.106	8.38
225.57	8.23
226.034	8.13
226.497	8
226.961	7.89
227.425	7.77
227.889	7.64
228.353	7.53
228.816	7.41
229.28	7.29
229.744	7.21
230.207	7.13
230.671	7.03
231.134	6.94
231.597	6.88
232.061	6.8
232.524	6.74
232.987	6.66
233.45	6.61
233.914	6.54
234.377	6.47
234.84	6.4
235.303	6.35
235.766	6.31
236.229	6.23
236.691	6.18
237.154	6.11
237.617	6.05
238.08	5.99
238.542	5.93
239.005	5.9
239.468	5.83
239.93	5.78
240.393	5.72
240.855	5.66
241.317	5.61
241.78	5.55
242.242	5.49
242.704	5.45
243.166	5.4
243.629	5.37
244.091	5.31
244.553	5.26
245.015	5.22
245.477	5.17
245.939	5.13
246.4	5.1
246.862	5.06
247.324	5.03
247.786	4.99
248.247	4.96
248.709	4.91
249.17	4.87
249.632	4.85
250.093	4.82
250.555	4.79
251.016	4.77
251.477	4.73
251.939	4.7
252.4	4.67
252.861	4.64
253.322	4.62
253.783	4.59
254.244	4.57
254.705	4.53
255.166	4.5
255.627	4.48
256.088	4.47
256.549	4.45
257.009	4.43
257.47	4.4
257.931	4.37
258.391	4.34
258.852	4.32
259.312	4.3
259.773	4.28
260.233	4.25
260.694	4.23
261.154	4.2
261.614	4.18
262.074	4.15
262.534	4.13
262.994	4.11
263.455	4.09
263.915	4.07
264.374	4.05
264.834	4.04
265.294	4.03
265.754	4.01
266.214	4
266.673	3.98
267.133	3.97
267.593	3.96
268.052	3.95
268.512	3.94
268.971	3.93
269.431	3.92
269.89	3.9
270.349	3.89
270.809	3.87
271.268	3.86
271.727	3.85
272.186	3.84
272.645	3.83
273.104	3.82
273.563	3.81
274.022	3.79
274.481	3.79
274.94	3.78
275.399	3.77
275.857	3.76
276.316	3.75
276.775	3.74
277.233	3.73
277.692	3.73
278.15	3.72
278.609	3.71
279.067	3.7
279.525	3.69
279.984	3.68
280.442	3.66
280.9	3.66
281.358	3.64
281.816	3.64
282.274	3.63
282.732	3.61
283.19	3.6
283.648	3.59
284.106	3.57
284.564	3.56
285.021	3.56
285.479	3.56
285.937	3.55
286.394	3.55
286.852	3.53
287.309	3.52
287.767	3.5
288.224	3.49
288.682	3.48
289.139	3.47
289.596	3.45
290.053	3.44
290.511	3.42
290.968	3.41
291.425	3.39
291.882	3.38
292.339	3.37
292.796	3.36
293.252	3.35
293.709	3.34
294.166	3.34
294.623	3.33
295.079	3.32
295.536	3.32
295.992	3.31
296.449	3.31
296.905	3.3
297.362	3.29
297.818	3.28
298.274	3.28
298.731	3.27
299.187	3.26
299.643	3.25
300.099	3.24
300.555	3.23
301.011	3.21
301.467	3.2
301.923	3.19
302.379	3.18
302.835	3.17
303.291	3.17
303.746	3.16
304.202	3.16
304.658	3.15
305.113	3.15
305.569	3.14
306.024	3.14
306.479	3.13
306.935	3.12
307.39	3.12
307.845	3.12
308.301	3.12
308.756	3.11
309.211	3.11
309.666	3.11
310.121	3.1
310.576	3.1
311.031	3.1
311.486	3.1
311.94	3.11
312.395	3.11
312.85	3.11
313.305	3.11
313.759	3.11
314.214	3.11
314.668	3.1
315.123	3.1
315.577	3.1
316.032	3.1
316.486	3.09
316.94	3.08
317.394	3.08
317.849	3.06
318.303	3.06
318.757	3.05
319.211	3.05
319.665	3.04
320.119	3.03
320.572	3.01
321.026	3.01
321.48	3
321.934	2.99
322.387	2.99
322.841	2.99
323.295	2.99
323.748	2.99
324.202	2.98
324.655	2.98
325.108	2.98
325.562	2.98
326.015	2.98
326.468	2.97
326.921	2.97
327.374	2.97
327.827	2.97
328.28	2.95
328.733	2.95
329.186	2.96
329.639	2.95
330.092	2.95
330.545	2.95
330.997	2.94
331.45	2.95
331.903	2.95
332.355	2.96
332.808	2.95
333.26	2.96
333.713	2.95
334.165	2.93
334.617	2.93
335.069	2.93
335.522	2.93
335.974	2.93
336.426	2.92
336.878	2.92
337.33	2.91
337.782	2.91
338.234	2.91
338.686	2.91
339.137	2.93
339.589	2.93
340.041	2.93
340.493	2.92
340.944	2.91
341.396	2.9
341.847	2.91
342.299	2.89
342.75	2.89
343.201	2.88
343.653	2.87
344.104	2.85
344.555	2.85
345.006	2.84
345.457	2.83
345.908	2.83
346.359	2.83
346.81	2.82
347.261	2.82
347.712	2.82
348.163	2.81
348.613	2.81
349.064	2.82
349.515	2.82
349.965	2.82
350.416	2.82
350.866	2.82
351.317	2.81
351.767	2.82
352.217	2.82
352.668	2.82
353.118	2.83
353.568	2.82
354.018	2.82
354.468	2.83
354.918	2.83
355.368	2.83
355.818	2.83
356.268	2.83
356.718	2.83
357.168	2.82
357.617	2.83
358.067	2.82
358.517	2.83
358.966	2.83
359.416	2.84
359.865	2.84
360.315	2.86
360.764	2.86
361.213	2.86
361.663	2.86
362.112	2.88
362.561	2.89
363.01	2.9
363.459	2.89
363.908	2.89
364.357	2.9
364.806	2.89
365.255	2.9
365.703	2.91
366.152	2.92
366.601	2.93
367.05	2.94
367.498	2.94
367.947	2.94
368.395	2.96
368.844	2.97
369.292	2.98
369.74	2.99
370.189	3.01
370.637	3.01
371.085	3.02
371.533	3.03
371.981	3.05
372.429	3.07
372.877	3.09
373.325	3.11
373.773	3.12
374.221	3.14
374.669	3.16
375.116	3.17
375.564	3.19
376.012	3.21
376.459	3.22
376.907	3.25
377.354	3.27
377.801	3.29
378.249	3.32
378.696	3.35
379.143	3.37
379.591	3.39
380.038	3.43
380.485	3.46
380.932	3.49
381.379	3.52
381.826	3.55
382.273	3.58
382.72	3.6
383.166	3.64
383.613	3.66
384.06	3.7
384.506	3.73
384.953	3.77
385.4	3.8
385.846	3.84
386.292	3.86
386.739	3.89
387.185	3.92
387.631	3.96
388.078	3.98
388.524	4.02
388.97	4.06
389.416	4.09
389.862	4.13
390.308	4.17
390.754	4.21
391.2	4.26
391.645	4.29
392.091	4.34
392.537	4.38
392.983	4.42
393.428	4.45
393.874	4.49
394.319	4.52
394.765	4.55
395.21	4.57
395.655	4.59
396.101	4.63
396.546	4.65
396.991	4.68
397.436	4.7
397.881	4.74
398.326	4.78
398.771	4.8
399.216	4.82
399.661	4.85
400.106	4.87
400.551	4.88
400.995	4.9
401.44	4.92
401.885	4.93
402.329	4.94
402.774	4.94
403.218	4.96
403.663	4.96
404.107	4.97
404.551	4.98
404.995	4.98
405.44	4.98
405.884	4.98
406.328	4.99
406.772	4.99
407.216	4.99
407.66	4.99
408.104	4.99
408.547	5
408.991	5
409.435	4.99
409.879	5
410.322	5.01
410.766	5.01
411.209	5.02
411.653	5.04
412.096	5.05
412.54	5.06
412.983	5.06
413.426	5.07
413.869	5.09
414.312	5.11
414.756	5.13
415.199	5.12
415.642	5.14
416.085	5.14
416.527	5.14
416.97	5.12
417.413	5.12
417.856	5.13
418.298	5.12
418.741	5.12
419.184	5.12
419.626	5.12
420.069	5.14
420.511	5.15
420.953	5.15
421.396	5.15
421.838	5.16
422.28	5.17
422.722	5.18
423.164	5.18
423.606	5.18
424.048	5.18
424.49	5.18
424.932	5.17
425.374	5.15
425.816	5.12
426.258	5.11
426.699	5.1
427.141	5.08
427.582	5.08
428.024	5.08
428.465	5.08
428.907	5.07
429.348	5.05
429.789	5.05
430.231	5.06
430.672	5.09
431.113	5.12
431.554	5.13
431.995	5.15
432.436	5.15
432.877	5.16
433.318	5.17
433.759	5.19
434.2	5.22
434.64	5.24
435.081	5.26
435.522	5.28
435.962	5.28
436.403	5.3
436.843	5.33
437.284	5.35
437.724	5.37
438.164	5.38
438.604	5.4
439.045	5.42
439.485	5.43
439.925	5.43
440.365	5.44
440.805	5.46
441.245	5.49
441.685	5.5
442.125	5.53
442.564	5.55
443.004	5.58
443.444	5.61
443.883	5.64
444.323	5.66
444.762	5.7
445.202	5.74
445.641	5.78
446.081	5.82
446.52	5.86
446.959	5.91
447.398	5.96
447.837	6
448.276	6.04
448.716	6.09
449.154	6.15
449.593	6.18
450.032	6.21
450.471	6.24
450.91	6.25
451.349	6.28
451.787	6.28
452.226	6.29
452.664	6.3
453.103	6.3
453.541	6.3
453.98	6.31
454.418	6.3
454.856	6.31
455.295	6.3
455.733	6.3
456.171	6.3
456.609	6.3
457.047	6.3
457.485	6.28
457.923	6.29
458.361	6.29
458.798	6.29
459.236	6.29
459.674	6.28
460.111	6.29
460.549	6.3
460.987	6.3
461.424	6.31
461.862	6.32
462.299	6.34
462.736	6.33
463.173	6.33
463.611	6.33
464.048	6.35
464.485	6.36
464.922	6.37
465.359	6.36
465.796	6.37
466.233	6.37
466.67	6.37
467.106	6.37
467.543	6.38
467.98	6.38
468.416	6.38
468.853	6.39
469.29	6.39
469.726	6.39
470.162	6.4
470.599	6.41
471.035	6.41
471.471	6.42
471.907	6.42
472.344	6.43
472.78	6.45
473.216	6.45
473.652	6.44
474.088	6.43
474.523	6.44
474.959	6.44
475.395	6.43
475.831	6.43
476.266	6.44
476.702	6.44
477.138	6.44
477.573	6.45
478.008	6.45
478.444	6.46
478.879	6.48
479.314	6.49
479.75	6.49
480.185	6.5
480.62	6.5
481.055	6.5
481.49	6.5
481.925	6.49
482.36	6.49
482.795	6.49
483.229	6.5
483.664	6.51
484.099	6.52
484.534	6.53
484.968	6.55
485.403	6.56
485.837	6.58
486.271	6.61
486.706	6.64
487.14	6.67
487.574	6.7
488.009	6.74
488.443	6.76
488.877	6.8
489.311	6.85
489.745	6.89
490.179	6.95
490.613	7.01
491.046	7.06
491.48	7.12
491.914	7.18
492.348	7.24
492.781	7.31
493.215	7.38
493.648	7.46
494.082	7.53
494.515	7.6
494.948	7.68
495.382	7.75
495.815	7.84
496.248	7.93
496.681	8.03
497.114	8.12
497.547	8.22
497.98	8.33
498.413	8.43
498.846	8.54
499.279	8.66
499.711	8.77
500.144	8.9
500.577	9.03
501.009	9.15
501.442	9.28
501.874	9.43
502.306	9.58
502.739	9.73
503.171	9.89
503.603	10.06
504.036	10.23
504.468	10.39
504.9	10.55
505.332	10.72
505.764	10.9
506.196	11.08
506.627	11.28
507.059	11.47
507.491	11.66
507.923	11.86
508.354	12.07
508.786	12.28
509.217	12.5
509.649	12.73
510.08	12.95
510.512	13.18
510.943	13.41
511.374	13.63
511.805	13.85
512.237	14.08
512.668	14.31
513.099	14.54
513.53	14.76
513.961	14.99
514.391	15.22
514.822	15.46
515.253	15.68
515.684	15.92
516.114	16.17
516.545	16.41
516.975	16.64
517.406	16.87
517.836	17.1
518.267	17.35
518.697	17.58
519.127	17.79
519.558	18.01
519.988	18.23
520.418	18.44
520.848	18.63
521.278	18.82
521.708	19.16
522.138	19.35
522.567	19.54
522.997	19.7
523.427	19.87
523.857	20.06
524.286	20.22
524.716	20.39
525.145	20.54
525.575	20.71
526.004	20.88
526.433	20.89
526.863	21.03
527.292	21.17
527.721	21.3
528.15	21.42
528.579	21.53
529.008	21.65
529.437	21.74
529.866	21.83
530.295	21.91
530.724	22
531.152	22.1
531.581	22.18
532.01	22.27
532.438	22.35
532.867	22.43
533.295	22.5
533.723	22.56
534.152	22.62
534.58	22.7
535.008	22.75
535.436	22.8
535.865	22.82
536.293	22.86
536.721	22.88
537.149	22.93
537.576	22.97
538.004	23.01
538.432	23.05
538.86	23.08
539.287	23.11
539.715	23.14
540.143	23.18
540.57	23.22
540.998	23.24
541.425	23.27
541.852	23.28
542.28	23.3
542.707	23.33
543.134	23.35
543.561	23.37
543.988	23.38
544.415	23.39
544.842	23.41
545.269	23.43
545.696	23.45
546.123	23.46
546.549	23.47
546.976	23.49
547.403	23.51
547.829	23.52
548.256	23.52
548.682	23.54
549.108	23.56
549.535	23.58
549.961	23.58
550.387	23.59
550.813	23.59
551.24	23.58
551.666	23.56
552.092	23.56
552.518	23.55
552.943	23.55
553.369	23.54
553.795	23.52
554.221	23.5
554.646	23.47
555.072	23.44
555.498	23.41
555.923	23.38
556.349	23.35
556.774	23.3
557.199	23.26
557.625	23.21
558.05	23.17
558.475	23.12
558.9	23.06
559.325	23.03
559.75	22.98
560.175	22.95
560.6	22.88
561.025	22.82
561.449	22.77
561.874	22.7
562.299	22.63
562.723	22.56
563.148	22.48
563.572	22.42
563.997	22.33
564.421	22.24
564.846	22.14
565.27	22.07
565.694	22
566.118	21.9
566.542	21.82
566.966	21.72
567.39	21.64
567.814	21.55
568.238	21.45
568.662	21.35
569.086	21.27
569.509	21.17
569.933	21.09
570.357	20.98
570.78	20.89
571.204	20.79
571.627	20.72
572.05	20.61
572.474	20.53
572.897	20.44
573.32	20.34
573.743	20.25
574.166	20.16
574.589	20.07
575.012	19.99
575.435	19.91
575.858	19.83
576.281	19.73
576.704	19.67
577.126	19.61
577.549	19.54
577.972	19.47
578.394	19.4
578.817	19.34
579.239	19.27
579.661	19.21
580.084	19.15
580.506	19.09
580.928	19.02
581.35	18.95
581.772	18.87
582.194	18.81
582.616	18.76
583.038	18.71
583.46	18.65
583.882	18.59
584.303	18.52
584.725	18.47
585.147	18.42
585.568	18.38
585.99	18.33
586.411	18.27
586.833	18.22
587.254	18.17
587.675	18.11
588.096	18.06
588.518	18.02
588.939	17.99
589.36	17.94
589.781	17.9
590.202	17.86
590.623	17.84
591.043	17.81
591.464	17.77
591.885	17.74
592.305	17.73
592.726	17.72
593.147	17.7
593.567	17.65
593.987	17.62
594.408	17.6
594.828	17.58
595.248	17.55
595.669	17.54
596.089	17.52
596.509	17.5
596.929	17.47
597.349	17.43
597.769	17.4
598.189	17.38
598.608	17.37
599.028	17.34
599.448	17.3
599.867	17.27
600.287	17.23
600.706	17.2
601.126	17.17
601.545	17.13
601.965	17.1
602.384	17.07
602.803	17.03
603.222	16.99
603.641	16.94
604.061	16.9
604.48	16.85
604.898	16.8
605.317	16.76
605.736	16.71
606.155	16.66
606.574	16.6
606.992	16.55
607.411	16.49
607.829	16.41
608.248	16.33
608.666	16.26
609.085	16.2
609.503	16.14
609.921	16.07
610.339	16
610.758	15.93
611.176	15.86
611.594	15.79
612.012	15.72
612.43	15.68
612.847	15.62
613.265	15.56
613.683	15.5
614.101	15.43
614.518	15.35
614.936	15.29
615.353	15.22
615.771	15.17
616.188	15.11
616.606	15.07
617.023	15.01
617.44	14.99
617.857	14.95
618.274	14.9
618.691	14.84
619.108	14.82
619.525	14.78
619.942	14.74
620.359	14.72
620.776	14.69
621.192	14.66
621.609	14.63
622.026	14.6
622.442	14.57
622.859	14.55
623.275	14.54
623.691	14.51
624.108	14.49
624.524	14.47
624.94	14.46
625.356	14.44
625.772	14.42
626.188	14.43
626.604	14.4
627.02	14.38
627.436	14.36
627.852	14.36
628.268	14.36
628.683	14.35
629.099	14.33
629.514	14.31
629.93	14.3
630.345	14.29
630.761	14.25
631.176	14.23
631.591	14.21
632.007	14.17
632.422	14.13
632.837	14.09
633.252	14.05
633.667	14
634.082	13.94
634.497	13.87
634.911	13.8
635.326	13.74
635.741	13.67
636.155	13.58
636.57	13.51
636.984	13.43
637.399	13.33
637.813	13.24
638.228	13.13
638.642	13.03
639.056	12.92
639.47	12.82
639.884	12.72
640.298	12.61
640.712	12.5
641.126	12.38
641.54	12.26
641.954	12.17
642.368	12.04
642.781	11.94
643.195	11.83
643.609	11.72
644.022	11.61
644.436	11.5
644.849	11.39
645.262	11.29
645.676	11.18
646.089	11.08
646.502	10.99
646.915	10.93
647.328	10.85
647.741	10.77
648.154	10.7
648.567	10.64
648.98	10.59
649.393	10.54
649.805	10.48
650.218	10.44
650.631	10.39
651.043	10.33
651.456	10.27
651.868	10.22
652.28	10.17
652.693	10.11
653.105	10.05
653.517	9.98
653.929	9.92
654.341	9.85
654.753	9.78
655.165	9.7
655.577	9.63
655.989	9.55
656.401	9.46
656.813	9.38
657.224	9.27
657.636	9.17
658.047	9.07
658.459	8.96
658.87	8.85
659.282	8.73
659.693	8.63
660.104	8.5
660.515	8.38
660.926	8.27
661.338	8.16
661.749	8.06
662.159	7.94
662.57	7.84
662.981	7.73
663.392	7.63
663.803	7.53
664.213	7.43
664.624	7.34
665.035	7.25
665.445	7.17
665.855	7.08
666.266	7
666.676	6.95
667.086	6.87
667.497	6.81
667.907	6.75
668.317	6.69
668.727	6.64
669.137	6.59
669.547	6.55
669.956	6.51
670.366	6.47
670.776	6.44
671.186	6.41
671.595	6.39
672.005	6.35
672.414	6.35
672.824	6.33
673.233	6.33
673.642	6.33
674.052	6.33
674.461	6.31
674.87	6.32
675.279	6.33
675.688	6.34
676.097	6.36
676.506	6.38
676.915	6.4
677.323	6.43
677.732	6.44
678.141	6.49
678.549	6.53
678.958	6.59
679.366	6.66
679.775	6.72
680.183	6.8
680.592	6.9
681	7.02
681.408	7.15
681.816	7.29
682.224	7.46
682.632	7.61
683.04	7.8
683.448	8
683.856	8.22
684.264	8.46
684.671	8.71
685.079	8.97
685.487	9.27
685.894	9.58
686.302	9.91
686.709	10.27
687.116	10.64
687.524	11.02
687.931	11.43
688.338	11.84
688.745	12.26
689.152	12.68
689.559	13.13
689.966	13.56
690.373	14.01
690.78	14.47
691.187	14.9
691.593	15.35
692	15.81
692.407	16.24
692.813	16.69
693.22	17.13
693.626	17.58
694.032	18.02
694.439	18.46
694.845	18.88
695.251	19.29
695.657	19.69
696.063	20.09
696.469	20.48
696.875	20.88
697.281	21.26
697.687	21.63
698.093	21.98
698.498	22.3
698.904	22.63
699.31	22.95
699.715	23.27
700.12	23.6
700.526	23.92
700.931	24.21
701.337	24.5
701.742	24.76
702.147	25.02
702.552	25.3
702.957	25.57
703.362	25.83
703.767	26.08
704.172	26.33
704.577	26.56
704.981	26.77
705.386	27
705.791	27.22
706.195	27.45
706.6	27.66
707.004	27.85
707.408	28.05
707.813	28.23
708.217	28.41
708.621	28.57
709.025	28.74
709.43	28.92
709.834	29.08
710.237	29.23
710.641	29.39
711.045	29.54
711.449	29.72
711.853	29.89
712.256	30.04
712.66	30.17
713.064	30.32
713.467	30.44
713.87	30.58
714.274	30.68
714.677	30.82
715.08	30.93
715.484	31.05
715.887	31.17
716.29	31.26
716.693	31.36
717.096	31.47
717.499	31.6
717.901	31.71
718.304	31.81
718.707	31.92
719.109	32.02
719.512	32.12
719.915	32.23
720.317	32.29
720.719	32.36
721.122	32.45
721.524	32.54
721.926	32.61
722.328	32.7
722.731	32.78
723.133	32.88
723.535	32.95
723.937	33
724.338	33.04
724.74	33.11
725.142	33.27
725.544	33.32
725.945	33.4
726.347	33.45
726.748	33.49
727.15	33.52
727.551	33.56
727.952	33.59
728.354	33.66
728.755	33.7
729.156	33.74
729.557	33.71
729.958	33.73
730.359	33.75
730.76	33.76
731.161	33.81
731.562	33.87
731.962	33.88
732.363	33.91
732.763	33.93
733.164	33.97
733.564	34
733.965	34.02
734.365	34.05
734.766	34.07
735.166	34.12
735.566	34.14
735.966	34.15
736.366	34.16
736.766	34.2
737.166	34.22
737.566	34.23
737.966	34.26
738.365	34.28
738.765	34.33
739.165	34.35
739.564	34.35
739.964	34.35
740.363	34.34
740.763	34.37
741.162	34.36
741.561	34.36
741.96	34.38
742.36	34.39
742.759	34.38
743.158	34.38
743.557	34.38
743.955	34.38
744.354	34.4
744.753	34.44
745.152	34.45
745.55	34.47
745.949	34.48
746.348	34.48
746.746	34.48
747.144	34.5
747.543	34.49
747.941	34.5
748.339	34.5
748.737	34.48
749.136	34.5
749.534	34.49
749.932	34.49
750.33	34.5
750.727	34.51
751.125	34.52
751.523	34.52
751.921	34.54
752.318	34.53
752.716	34.54
753.113	34.55
753.511	34.54
753.908	34.56
754.305	34.56
754.703	34.56
755.1	34.56
755.497	34.52
755.894	34.5
756.291	34.49
756.688	34.44
757.085	34.43
757.482	34.41
757.878	34.4
758.275	34.36
758.672	34.35
759.068	34.34
759.465	34.31
759.861	34.32
760.258	34.32
760.654	34.33
761.05	34.36
761.447	34.36
761.843	34.36
762.239	34.36
762.635	34.36
763.031	34.37
763.427	34.36
763.822	34.38
764.218	34.41
764.614	34.39
765.01	34.39
765.405	34.39
765.801	34.39
766.196	34.42
766.592	34.42
766.987	34.42
767.382	34.42
767.778	34.43
768.173	34.4
768.568	34.38
768.963	34.37
769.358	34.36
769.753	34.36
770.148	34.37
770.542	34.36
770.937	34.37
771.332	34.35
771.726	34.34
772.121	34.32
772.515	34.32
772.91	34.3
773.304	34.3
773.699	34.31
774.093	34.29
774.487	34.28
774.881	34.26
775.275	34.23
775.669	34.22
776.063	34.21
776.457	34.24
776.851	34.22
777.245	34.22
777.638	34.22
778.032	34.22
778.425	34.24
778.819	34.22
779.212	34.22
779.606	34.23
779.999	34.23
780.392	34.26
780.786	34.24
781.179	34.25
781.572	34.27
781.965	34.27
