Data from C_1_DEC_ON_6N_Splice17_12-45-50-291.txt Node
Date: Sat Mar 07 12:45:50 EST 2020
User: sa697716
Spectrometer: NQ5500242
Trigger mode: 0
Integration Time (sec): 1.450000E-1
Scans to average: 20
Nonlinearity correction enabled: false
Boxcar width: 5
Storing dark spectrum: false
XAxis mode: Wavelengths
Number of Pixels in Spectrum: 512
>>>>>Begin Spectral Data<<<<<
187.83	155.95
188.298	169.33
188.766	134.2
189.233	119.07
189.701	112.7
190.169	130.96
190.636	111.66
191.104	62.41
191.571	-96.26
192.039	-333.65
192.506	-780.28
192.974	250.94
193.441	314.64
193.908	56.47
194.375	63.98
194.842	-20.93
195.31	-23.52
195.777	-241.81
196.244	10.2
196.711	30.72
197.177	32.67
197.644	33.36
198.111	33.25
198.578	33.66
199.045	34.61
199.511	34.58
199.978	35.3
200.445	35.73
200.911	35.62
201.378	35.69
201.844	35.76
202.31	35.72
202.777	35.8
203.243	36.13
203.709	36.24
204.176	36
204.642	35.91
205.108	35.74
205.574	35.38
206.04	34.91
206.506	34.67
206.972	34.3
207.438	33.92
207.903	33.48
208.369	32.5
208.835	31.88
209.301	31.1
209.766	30.19
210.232	29.47
210.697	28.77
211.163	28.39
211.628	27.72
212.094	27.07
212.559	26.62
213.024	26.09
213.49	25.58
213.955	24.92
214.42	24.43
214.885	23.96
215.35	22.9
215.815	21.58
216.28	20.08
216.745	18.39
217.21	16.8
217.675	15.4
218.14	14.04
218.604	13
219.069	12.13
219.534	11.36
219.998	10.68
220.463	10.17
220.927	9.74
221.392	9.41
221.856	9.12
222.32	8.91
222.785	8.7
223.249	8.51
223.713	8.34
224.177	8.19
224.642	8.05
225.106	7.89
225.57	7.74
226.034	7.61
226.497	7.51
226.961	7.41
227.425	7.28
227.889	7.18
228.353	7.1
228.816	7
229.28	6.89
229.744	6.81
230.207	6.73
230.671	6.65
231.134	6.58
231.597	6.51
232.061	6.44
232.524	6.37
232.987	6.29
233.45	6.22
233.914	6.16
234.377	6.1
234.84	6.04
235.303	6
235.766	5.96
236.229	5.91
236.691	5.86
237.154	5.82
237.617	5.78
238.08	5.75
238.542	5.7
239.005	5.68
239.468	5.65
239.93	5.6
240.393	5.56
240.855	5.51
241.317	5.47
241.78	5.42
242.242	5.37
242.704	5.34
243.166	5.29
243.629	5.26
244.091	5.21
244.553	5.16
245.015	5.12
245.477	5.07
245.939	5.04
246.4	5.01
246.862	4.97
247.324	4.94
247.786	4.9
248.247	4.85
248.709	4.8
249.17	4.76
249.632	4.73
250.093	4.7
250.555	4.67
251.016	4.64
251.477	4.6
251.939	4.57
252.4	4.54
252.861	4.52
253.322	4.49
253.783	4.47
254.244	4.45
254.705	4.42
255.166	4.39
255.627	4.37
256.088	4.35
256.549	4.32
257.009	4.29
257.47	4.26
257.931	4.23
258.391	4.2
258.852	4.16
259.312	4.14
259.773	4.11
260.233	4.09
260.694	4.06
261.154	4.03
261.614	4
262.074	3.97
262.534	3.94
262.994	3.92
263.455	3.9
263.915	3.88
264.374	3.86
264.834	3.84
265.294	3.81
265.754	3.8
266.214	3.78
266.673	3.76
267.133	3.75
267.593	3.74
268.052	3.72
268.512	3.71
268.971	3.7
269.431	3.69
269.89	3.67
270.349	3.66
270.809	3.65
271.268	3.64
271.727	3.63
272.186	3.62
272.645	3.6
273.104	3.59
273.563	3.58
274.022	3.57
274.481	3.56
274.94	3.55
275.399	3.54
275.857	3.53
276.316	3.52
276.775	3.51
277.233	3.5
277.692	3.5
278.15	3.49
278.609	3.48
279.067	3.48
279.525	3.47
279.984	3.46
280.442	3.45
280.9	3.44
281.358	3.44
281.816	3.44
282.274	3.43
282.732	3.42
283.19	3.41
283.648	3.41
284.106	3.4
284.564	3.4
285.021	3.4
285.479	3.39
285.937	3.38
286.394	3.38
286.852	3.37
287.309	3.36
287.767	3.35
288.224	3.34
288.682	3.33
289.139	3.32
289.596	3.31
290.053	3.29
290.511	3.28
290.968	3.27
291.425	3.26
291.882	3.25
292.339	3.24
292.796	3.23
293.252	3.22
293.709	3.22
294.166	3.22
294.623	3.21
295.079	3.21
295.536	3.21
295.992	3.21
296.449	3.2
296.905	3.2
297.362	3.19
297.818	3.18
298.274	3.18
298.731	3.18
299.187	3.17
299.643	3.16
300.099	3.16
300.555	3.15
301.011	3.14
301.467	3.13
301.923	3.12
302.379	3.12
302.835	3.13
303.291	3.12
303.746	3.12
304.202	3.13
304.658	3.13
305.113	3.13
305.569	3.13
306.024	3.13
306.479	3.14
306.935	3.13
307.39	3.13
307.845	3.13
308.301	3.14
308.756	3.14
309.211	3.13
309.666	3.14
310.121	3.14
310.576	3.14
311.031	3.14
311.486	3.15
311.94	3.16
312.395	3.16
312.85	3.16
313.305	3.15
313.759	3.15
314.214	3.15
314.668	3.14
315.123	3.13
315.577	3.13
316.032	3.13
316.486	3.13
316.94	3.12
317.394	3.11
317.849	3.1
318.303	3.09
318.757	3.08
319.211	3.07
319.665	3.06
320.119	3.05
320.572	3.04
321.026	3.03
321.48	3.02
321.934	3.01
322.387	3.01
322.841	3.01
323.295	3.01
323.748	3.01
324.202	3.01
324.655	3.01
325.108	3.01
325.562	3.02
326.015	3.02
326.468	3.02
326.921	3.01
327.374	3.01
327.827	3.02
328.28	3.01
328.733	3.01
329.186	3.01
329.639	3.01
330.092	3
330.545	3
330.997	2.99
331.45	2.99
331.903	3
332.355	3
332.808	2.99
333.26	3
333.713	2.99
334.165	2.99
334.617	2.99
335.069	2.98
335.522	2.98
335.974	2.99
336.426	2.98
336.878	2.97
337.33	2.98
337.782	2.97
338.234	2.97
338.686	2.96
339.137	2.97
339.589	2.96
340.041	2.96
340.493	2.96
340.944	2.95
341.396	2.94
341.847	2.93
342.299	2.92
342.75	2.9
343.201	2.88
343.653	2.88
344.104	2.86
344.555	2.85
345.006	2.83
345.457	2.83
345.908	2.82
346.359	2.82
346.81	2.83
347.261	2.83
347.712	2.83
348.163	2.83
348.613	2.83
349.064	2.83
349.515	2.84
349.965	2.85
350.416	2.84
350.866	2.83
351.317	2.82
351.767	2.82
352.217	2.82
352.668	2.83
353.118	2.83
353.568	2.83
354.018	2.83
354.468	2.82
354.918	2.82
355.368	2.83
355.818	2.82
356.268	2.83
356.718	2.82
357.168	2.82
357.617	2.81
358.067	2.8
358.517	2.81
358.966	2.82
359.416	2.81
359.865	2.81
360.315	2.81
360.764	2.82
361.213	2.81
361.663	2.8
362.112	2.81
362.561	2.82
363.01	2.83
363.459	2.82
363.908	2.81
364.357	2.81
364.806	2.81
365.255	2.8
365.703	2.81
366.152	2.81
366.601	2.82
367.05	2.82
367.498	2.81
367.947	2.82
368.395	2.83
368.844	2.84
369.292	2.84
369.74	2.85
370.189	2.85
370.637	2.84
371.085	2.85
371.533	2.85
371.981	2.85
372.429	2.86
372.877	2.86
373.325	2.86
373.773	2.86
374.221	2.86
374.669	2.86
375.116	2.87
375.564	2.87
376.012	2.88
376.459	2.88
376.907	2.9
377.354	2.91
377.801	2.91
378.249	2.93
378.696	2.95
379.143	2.96
379.591	2.99
380.038	2.99
380.485	3.01
380.932	3.03
381.379	3.04
381.826	3.05
382.273	3.06
382.72	3.06
383.166	3.06
383.613	3.07
384.06	3.08
384.506	3.08
384.953	3.1
385.4	3.11
385.846	3.12
386.292	3.13
386.739	3.15
387.185	3.16
387.631	3.19
388.078	3.21
388.524	3.22
388.97	3.24
389.416	3.26
389.862	3.27
390.308	3.3
390.754	3.32
391.2	3.34
391.645	3.35
392.091	3.38
392.537	3.39
392.983	3.41
393.428	3.44
393.874	3.45
394.319	3.46
394.765	3.48
395.21	3.48
395.655	3.5
396.101	3.52
396.546	3.53
396.991	3.55
397.436	3.56
397.881	3.58
398.326	3.58
398.771	3.59
399.216	3.6
399.661	3.6
400.106	3.61
400.551	3.6
400.995	3.61
401.44	3.61
401.885	3.62
402.329	3.63
402.774	3.63
403.218	3.65
403.663	3.65
404.107	3.65
404.551	3.67
404.995	3.66
405.44	3.66
405.884	3.66
406.328	3.66
406.772	3.65
407.216	3.65
407.66	3.65
408.104	3.63
408.547	3.64
408.991	3.64
409.435	3.65
409.879	3.65
410.322	3.67
410.766	3.68
411.209	3.69
411.653	3.69
412.096	3.7
412.54	3.71
412.983	3.72
413.426	3.74
413.869	3.74
414.312	3.74
414.756	3.74
415.199	3.74
415.642	3.74
416.085	3.74
416.527	3.74
416.97	3.72
417.413	3.72
417.856	3.71
418.298	3.69
418.741	3.69
419.184	3.69
419.626	3.68
420.069	3.69
420.511	3.68
420.953	3.68
421.396	3.67
421.838	3.68
422.28	3.69
422.722	3.7
423.164	3.7
423.606	3.7
424.048	3.7
424.49	3.7
424.932	3.7
425.374	3.69
425.816	3.68
426.258	3.68
426.699	3.67
427.141	3.67
427.582	3.66
428.024	3.68
428.465	3.69
428.907	3.68
429.348	3.68
429.789	3.68
430.231	3.7
430.672	3.72
431.113	3.73
431.554	3.75
431.995	3.76
432.436	3.75
432.877	3.75
433.318	3.75
433.759	3.78
434.2	3.8
434.64	3.81
435.081	3.8
435.522	3.8
435.962	3.83
436.403	3.85
436.843	3.86
437.284	3.87
437.724	3.88
438.164	3.87
438.604	3.87
439.045	3.86
439.485	3.88
439.925	3.87
440.365	3.87
440.805	3.87
441.245	3.87
441.685	3.88
442.125	3.92
442.564	3.93
443.004	3.94
443.444	3.94
443.883	3.96
444.323	3.94
444.762	3.96
445.202	3.97
445.641	3.97
446.081	3.97
446.52	3.98
446.959	3.99
447.398	4
447.837	4.01
448.276	4.02
448.716	4.03
449.154	4.05
449.593	4.06
450.032	4.07
450.471	4.06
450.91	4.06
451.349	4.06
451.787	4.04
452.226	4.03
452.664	4.04
453.103	4.03
453.541	4.02
453.98	4.02
454.418	4.01
454.856	4.01
455.295	4.02
455.733	4
456.171	4
456.609	4
457.047	3.98
457.485	3.98
457.923	3.98
458.361	3.97
458.798	3.96
459.236	3.96
459.674	3.95
460.111	3.94
460.549	3.95
460.987	3.96
461.424	3.96
461.862	3.98
462.299	3.98
462.736	3.99
463.173	3.99
463.611	3.99
464.048	4.01
464.485	4.02
464.922	4.03
465.359	4.03
465.796	4.04
466.233	4.03
466.67	4.03
467.106	4.05
467.543	4.04
467.98	4.04
468.416	4.04
468.853	4.02
469.29	4.03
469.726	4.02
470.162	4.02
470.599	4.02
471.035	4
471.471	3.99
471.907	3.98
472.344	3.99
472.78	4
473.216	3.99
473.652	4.01
474.088	3.99
474.523	3.99
474.959	3.99
475.395	3.98
475.831	3.98
476.266	3.98
476.702	3.97
477.138	3.95
477.573	3.94
478.008	3.94
478.444	3.92
478.879	3.92
479.314	3.9
479.75	3.9
480.185	3.89
480.62	3.88
481.055	3.86
481.49	3.86
481.925	3.86
482.36	3.85
482.795	3.84
483.229	3.83
483.664	3.84
484.099	3.84
484.534	3.83
484.968	3.83
485.403	3.84
485.837	3.85
486.271	3.85
486.706	3.86
487.14	3.87
487.574	3.88
488.009	3.89
488.443	3.9
488.877	3.91
489.311	3.93
489.745	3.94
490.179	3.96
490.613	3.98
491.046	4
491.48	4.03
491.914	4.05
492.348	4.08
492.781	4.12
493.215	4.16
493.648	4.18
494.082	4.22
494.515	4.26
494.948	4.3
495.382	4.34
495.815	4.39
496.248	4.44
496.681	4.49
497.114	4.54
497.547	4.58
497.98	4.64
498.413	4.7
498.846	4.76
499.279	4.83
499.711	4.9
500.144	4.98
500.577	5.06
501.009	5.14
501.442	5.23
501.874	5.32
502.306	5.42
502.739	5.53
503.171	5.64
503.603	5.75
504.036	5.87
504.468	5.99
504.9	6.11
505.332	6.24
505.764	6.39
506.196	6.53
506.627	6.68
507.059	6.85
507.491	7
507.923	7.18
508.354	7.37
508.786	7.56
509.217	7.76
509.649	7.97
510.08	8.17
510.512	8.38
510.943	8.6
511.374	8.81
511.805	9.04
512.237	9.27
512.668	9.5
513.099	9.74
513.53	9.98
513.961	10.23
514.391	10.5
514.822	10.77
515.253	11.03
515.684	11.3
516.114	11.59
516.545	11.86
516.975	12.15
517.406	12.45
517.836	12.74
518.267	13.04
518.697	13.33
519.127	13.6
519.558	13.89
519.988	14.17
520.418	14.46
520.848	14.72
521.278	15
521.708	15.39
522.138	15.65
522.567	15.91
522.997	16.15
523.427	16.41
523.857	16.66
524.286	16.9
524.716	17.14
525.145	17.36
525.575	17.6
526.004	17.83
526.433	17.92
526.863	18.12
527.292	18.32
527.721	18.52
528.15	18.7
528.579	18.87
529.008	19.04
529.437	19.2
529.866	19.35
530.295	19.5
530.724	19.63
531.152	19.76
531.581	19.89
532.01	20
532.438	20.12
532.867	20.23
533.295	20.34
533.723	20.43
534.152	20.53
534.58	20.62
535.008	20.7
535.436	20.79
535.865	20.87
536.293	20.93
536.721	21.01
537.149	21.07
537.576	21.12
538.004	21.18
538.432	21.25
538.86	21.28
539.287	21.32
539.715	21.38
540.143	21.43
540.57	21.47
540.998	21.5
541.425	21.54
541.852	21.58
542.28	21.64
542.707	21.67
543.134	21.7
543.561	21.75
543.988	21.78
544.415	21.79
544.842	21.8
545.269	21.83
545.696	21.87
546.123	21.87
546.549	21.9
546.976	21.91
547.403	21.94
547.829	21.94
548.256	21.96
548.682	21.97
549.108	21.99
549.535	22.01
549.961	22.01
550.387	22.01
550.813	22.02
551.24	22.01
551.666	22
552.092	21.99
552.518	21.97
552.943	21.96
553.369	21.95
553.795	21.92
554.221	21.89
554.646	21.84
555.072	21.79
555.498	21.74
555.923	21.69
556.349	21.62
556.774	21.56
557.199	21.5
557.625	21.4
558.05	21.32
558.475	21.24
558.9	21.14
559.325	21.06
559.75	20.96
560.175	20.86
560.6	20.75
561.025	20.66
561.449	20.53
561.874	20.41
562.299	20.31
562.723	20.19
563.148	20.06
563.572	19.92
563.997	19.78
564.421	19.63
564.846	19.49
565.27	19.34
565.694	19.2
566.118	19.05
566.542	18.88
566.966	18.71
567.39	18.55
567.814	18.4
568.238	18.25
568.662	18.11
569.086	17.95
569.509	17.81
569.933	17.66
570.357	17.51
570.78	17.36
571.204	17.22
571.627	17.1
572.05	16.95
572.474	16.83
572.897	16.7
573.32	16.56
573.743	16.43
574.166	16.31
574.589	16.19
575.012	16.06
575.435	15.94
575.858	15.84
576.281	15.71
576.704	15.62
577.126	15.5
577.549	15.39
577.972	15.3
578.394	15.18
578.817	15.08
579.239	14.99
579.661	14.91
580.084	14.83
580.506	14.74
580.928	14.65
581.35	14.56
581.772	14.48
582.194	14.4
582.616	14.32
583.038	14.27
583.46	14.19
583.882	14.11
584.303	14.02
584.725	13.94
585.147	13.87
585.568	13.82
585.99	13.75
586.411	13.69
586.833	13.63
587.254	13.56
587.675	13.49
588.096	13.44
588.518	13.37
588.939	13.33
589.36	13.28
589.781	13.23
590.202	13.17
590.623	13.12
591.043	13.07
591.464	13.02
591.885	12.97
592.305	12.93
592.726	12.9
593.147	12.86
593.567	12.81
593.987	12.77
594.408	12.73
594.828	12.68
595.248	12.65
595.669	12.62
596.089	12.59
596.509	12.57
596.929	12.54
597.349	12.5
597.769	12.47
598.189	12.43
598.608	12.4
599.028	12.36
599.448	12.32
599.867	12.28
600.287	12.24
600.706	12.19
601.126	12.14
601.545	12.1
601.965	12.05
602.384	12.01
602.803	11.97
603.222	11.91
603.641	11.87
604.061	11.83
604.48	11.78
604.898	11.72
605.317	11.66
605.736	11.61
606.155	11.55
606.574	11.49
606.992	11.43
607.411	11.36
607.829	11.28
608.248	11.21
608.666	11.14
609.085	11.06
609.503	11
609.921	10.93
610.339	10.86
610.758	10.79
611.176	10.72
611.594	10.64
612.012	10.58
612.43	10.53
612.847	10.47
613.265	10.41
613.683	10.35
614.101	10.29
614.518	10.22
614.936	10.16
615.353	10.09
615.771	10.03
616.188	9.98
616.606	9.92
617.023	9.88
617.44	9.83
617.857	9.77
618.274	9.72
618.691	9.66
619.108	9.62
619.525	9.58
619.942	9.54
620.359	9.51
620.776	9.48
621.192	9.44
621.609	9.41
622.026	9.38
622.442	9.36
622.859	9.33
623.275	9.31
623.691	9.29
624.108	9.28
624.524	9.26
624.94	9.25
625.356	9.24
625.772	9.24
626.188	9.22
626.604	9.21
627.02	9.2
627.436	9.19
627.852	9.18
628.268	9.17
628.683	9.16
629.099	9.15
629.514	9.14
629.93	9.12
630.345	9.1
630.761	9.06
631.176	9.04
631.591	9
632.007	8.97
632.422	8.93
632.837	8.89
633.252	8.82
633.667	8.75
634.082	8.68
634.497	8.61
634.911	8.54
635.326	8.47
635.741	8.39
636.155	8.29
636.57	8.2
636.984	8.1
637.399	8
637.813	7.89
638.228	7.79
638.642	7.68
639.056	7.58
639.47	7.47
639.884	7.36
640.298	7.26
640.712	7.15
641.126	7.04
641.54	6.94
641.954	6.83
642.368	6.73
642.781	6.63
643.195	6.54
643.609	6.46
644.022	6.36
644.436	6.28
644.849	6.19
645.262	6.1
645.676	6.03
646.089	5.98
646.502	5.92
646.915	5.87
647.328	5.81
647.741	5.76
648.154	5.71
648.567	5.67
648.98	5.63
649.393	5.6
649.805	5.59
650.218	5.55
650.631	5.53
651.043	5.5
651.456	5.47
651.868	5.44
652.28	5.42
652.693	5.4
653.105	5.38
653.517	5.36
653.929	5.33
654.341	5.29
654.753	5.26
655.165	5.22
655.577	5.18
655.989	5.15
656.401	5.1
656.813	5.06
657.224	4.99
657.636	4.94
658.047	4.88
658.459	4.82
658.87	4.76
659.282	4.7
659.693	4.64
660.104	4.58
660.515	4.52
660.926	4.47
661.338	4.41
661.749	4.37
662.159	4.33
662.57	4.29
662.981	4.26
663.392	4.23
663.803	4.2
664.213	4.17
664.624	4.14
665.035	4.12
665.445	4.11
665.855	4.09
666.266	4.07
666.676	4.06
667.086	4.04
667.497	4.03
667.907	4.02
668.317	4.01
668.727	4.01
669.137	4.02
669.547	4.02
669.956	4.02
670.366	4.02
670.776	4.03
671.186	4.04
671.595	4.04
672.005	4.05
672.414	4.07
672.824	4.08
673.233	4.11
673.642	4.13
674.052	4.15
674.461	4.17
674.87	4.19
675.279	4.22
675.688	4.25
676.097	4.29
676.506	4.33
676.915	4.36
677.323	4.39
677.732	4.41
678.141	4.44
678.549	4.49
678.958	4.53
679.366	4.58
679.775	4.61
680.183	4.66
680.592	4.72
681	4.78
681.408	4.84
681.816	4.93
682.224	5.01
682.632	5.09
683.04	5.17
683.448	5.27
683.856	5.37
684.264	5.51
684.671	5.64
685.079	5.78
685.487	5.95
685.894	6.15
686.302	6.35
686.709	6.58
687.116	6.83
687.524	7.11
687.931	7.43
688.338	7.76
688.745	8.1
689.152	8.48
689.559	8.89
689.966	9.32
690.373	9.77
690.78	10.23
691.187	10.73
691.593	11.24
692	11.76
692.407	12.29
692.813	12.85
693.22	13.42
693.626	13.99
694.032	14.57
694.439	15.17
694.845	15.77
695.251	16.38
695.657	16.99
696.063	17.59
696.469	18.21
696.875	18.83
697.281	19.43
697.687	20.06
698.093	20.67
698.498	21.26
698.904	21.86
699.31	22.46
699.715	23.05
700.12	23.63
700.526	24.25
700.931	24.83
701.337	25.4
701.742	25.95
702.147	26.49
702.552	27.04
702.957	27.58
703.362	28.11
703.767	28.63
704.172	29.13
704.577	29.64
704.981	30.11
705.386	30.61
705.791	31.09
706.195	31.58
706.6	32.06
707.004	32.52
707.408	32.99
707.813	33.43
708.217	33.88
708.621	34.32
709.025	34.74
709.43	35.16
709.834	35.57
710.237	35.97
710.641	36.38
711.045	36.77
711.449	37.17
711.853	37.57
712.256	37.95
712.66	38.32
713.064	38.68
713.467	39.07
713.87	39.43
714.274	39.77
714.677	40.13
715.08	40.46
715.484	40.8
715.887	41.13
716.29	41.42
716.693	41.75
717.096	42.09
717.499	42.41
717.901	42.71
718.304	43.02
718.707	43.3
719.109	43.6
719.512	43.88
719.915	44.16
720.317	44.39
720.719	44.63
721.122	44.88
721.524	45.11
721.926	45.36
722.328	45.6
722.731	45.82
723.133	46.06
723.535	46.26
723.937	46.47
724.338	46.68
724.74	46.92
725.142	47.2
725.544	47.37
725.945	47.58
726.347	47.74
726.748	47.91
727.15	48.07
727.551	48.24
727.952	48.4
728.354	48.55
728.755	48.68
729.156	48.8
729.557	48.86
729.958	48.98
730.359	49.09
730.76	49.22
731.161	49.31
731.562	49.45
731.962	49.53
732.363	49.67
732.763	49.79
733.164	49.87
733.564	49.99
733.965	50.1
734.365	50.21
734.766	50.32
735.166	50.39
735.566	50.51
735.966	50.58
736.366	50.66
736.766	50.68
737.166	50.75
737.566	50.83
737.966	50.88
738.365	50.93
738.765	50.98
739.165	51.01
739.564	51.08
739.964	51.13
740.363	51.17
740.763	51.24
741.162	51.31
741.561	51.35
741.96	51.39
742.36	51.45
742.759	51.47
743.158	51.51
743.557	51.54
743.955	51.59
744.354	51.63
744.753	51.64
745.152	51.69
745.55	51.71
745.949	51.71
746.348	51.76
746.746	51.77
747.144	51.82
747.543	51.84
747.941	51.87
748.339	51.86
748.737	51.87
749.136	51.9
749.534	51.88
749.932	51.9
750.33	51.92
750.727	51.93
751.125	51.98
751.523	51.98
751.921	52.01
752.318	52.03
752.716	52.06
753.113	52.06
753.511	52.06
753.908	52.11
754.305	52.13
754.703	52.17
755.1	52.15
755.497	52.14
755.894	52.15
756.291	52.14
756.688	52.13
757.085	52.16
757.482	52.17
757.878	52.19
758.275	52.2
758.672	52.2
759.068	52.2
759.465	52.21
759.861	52.24
760.258	52.25
760.654	52.25
761.05	52.27
761.447	52.25
761.843	52.24
762.239	52.24
762.635	52.2
763.031	52.18
763.427	52.19
763.822	52.18
764.218	52.16
764.614	52.16
765.01	52.16
765.405	52.16
765.801	52.14
766.196	52.15
766.592	52.12
766.987	52.14
767.382	52.15
767.778	52.13
768.173	52.12
768.568	52.11
768.963	52.06
769.358	52.05
769.753	52.05
770.148	52.05
770.542	52.03
770.937	52.05
771.332	52.04
771.726	52.05
772.121	52.05
772.515	52.04
772.91	52.05
773.304	52.1
773.699	52.1
774.093	52.08
774.487	52.1
774.881	52.14
775.275	52.13
775.669	52.12
776.063	52.1
776.457	52.07
776.851	52.07
777.245	52.06
777.638	52.03
778.032	52.02
778.425	52.03
778.819	52.02
779.212	52
779.606	52.01
779.999	52
780.392	52.01
780.786	52.03
781.179	52.06
781.572	52.07
781.965	52.1
782.358	52.13
782.751	52.12
783.143	52.1
783.536	52.1
783.929	52.08
784.322	52.1
784.714	52.11
785.107	52.13
785.499	52.1
785.891	52.1
