Data from C_1_DEC_CT_2N_Splice17_12-56-13-660.txt Node
Date: Sat Mar 07 12:56:13 EST 2020
User: sa697716
Spectrometer: NQ5500242
Trigger mode: 0
Integration Time (sec): 1.450000E-1
Scans to average: 20
Nonlinearity correction enabled: false
Boxcar width: 5
Storing dark spectrum: false
XAxis mode: Wavelengths
Number of Pixels in Spectrum: 512
>>>>>Begin Spectral Data<<<<<
187.83	192.35
188.298	212.4
188.766	194.08
189.233	150.26
189.701	151.18
190.169	170.68
190.636	159.12
191.104	155.81
191.571	184.42
192.039	50.07
192.506	-184.12
192.974	172.07
193.441	148.75
193.908	68.76
194.375	49.59
194.842	13.07
195.31	-7.09
195.777	-311.22
196.244	19.45
196.711	44.63
197.177	47.44
197.644	48.61
198.111	47.66
198.578	48.4
199.045	48.97
199.511	48.74
199.978	48.59
200.445	48.85
200.911	48.98
201.378	49.16
201.844	49.36
202.31	49.16
202.777	49.15
203.243	49.42
203.709	49.43
204.176	49.24
204.642	49.31
205.108	49.44
205.574	49.29
206.04	48.73
206.506	48.35
206.972	47.74
207.438	47.31
207.903	46.9
208.369	46.01
208.835	45.06
209.301	44.24
209.766	42.94
210.232	41.69
210.697	40.72
211.163	40
211.628	39.23
212.094	38.61
212.559	37.93
213.024	36.87
213.49	36.17
213.955	35.38
214.42	34.52
214.885	33.59
215.35	32.76
215.815	31.34
216.28	29.49
216.745	27.3
217.21	25.21
217.675	23.31
218.14	21.79
218.604	20.34
219.069	19.18
219.534	18.16
219.998	17.38
220.463	16.63
220.927	15.98
221.392	15.49
221.856	15.1
222.32	14.74
222.785	14.44
223.249	14.14
223.713	13.88
224.177	13.67
224.642	13.45
225.106	13.2
225.57	12.97
226.034	12.76
226.497	12.58
226.961	12.37
227.425	12.18
227.889	12
228.353	11.81
228.816	11.63
229.28	11.44
229.744	11.27
230.207	11.12
230.671	10.98
231.134	10.84
231.597	10.7
232.061	10.57
232.524	10.43
232.987	10.29
233.45	10.19
233.914	10.09
234.377	9.97
234.84	9.86
235.303	9.76
235.766	9.66
236.229	9.56
236.691	9.46
237.154	9.38
237.617	9.3
238.08	9.23
238.542	9.13
239.005	9.04
239.468	8.96
239.93	8.87
240.393	8.8
240.855	8.7
241.317	8.62
241.78	8.53
242.242	8.45
242.704	8.37
243.166	8.29
243.629	8.22
244.091	8.14
244.553	8.05
245.015	7.98
245.477	7.9
245.939	7.84
246.4	7.78
246.862	7.72
247.324	7.65
247.786	7.57
248.247	7.51
248.709	7.43
249.17	7.36
249.632	7.32
250.093	7.27
250.555	7.2
251.016	7.14
251.477	7.08
251.939	7.03
252.4	6.99
252.861	6.94
253.322	6.9
253.783	6.86
254.244	6.82
254.705	6.77
255.166	6.73
255.627	6.69
256.088	6.65
256.549	6.61
257.009	6.56
257.47	6.51
257.931	6.45
258.391	6.4
258.852	6.36
259.312	6.31
259.773	6.27
260.233	6.22
260.694	6.17
261.154	6.13
261.614	6.1
262.074	6.04
262.534	6.01
262.994	5.98
263.455	5.94
263.915	5.91
264.374	5.88
264.834	5.85
265.294	5.82
265.754	5.8
266.214	5.77
266.673	5.75
267.133	5.73
267.593	5.71
268.052	5.7
268.512	5.68
268.971	5.66
269.431	5.64
269.89	5.63
270.349	5.61
270.809	5.59
271.268	5.58
271.727	5.56
272.186	5.54
272.645	5.53
273.104	5.51
273.563	5.49
274.022	5.48
274.481	5.46
274.94	5.44
275.399	5.42
275.857	5.41
276.316	5.39
276.775	5.38
277.233	5.37
277.692	5.35
278.15	5.34
278.609	5.32
279.067	5.31
279.525	5.29
279.984	5.28
280.442	5.27
280.9	5.26
281.358	5.24
281.816	5.23
282.274	5.22
282.732	5.21
283.19	5.2
283.648	5.19
284.106	5.17
284.564	5.17
285.021	5.17
285.479	5.16
285.937	5.14
286.394	5.14
286.852	5.13
287.309	5.11
287.767	5.09
288.224	5.07
288.682	5.05
289.139	5.03
289.596	5.01
290.053	4.98
290.511	4.96
290.968	4.94
291.425	4.92
291.882	4.91
292.339	4.89
292.796	4.88
293.252	4.86
293.709	4.84
294.166	4.83
294.623	4.82
295.079	4.81
295.536	4.8
295.992	4.79
296.449	4.77
296.905	4.76
297.362	4.75
297.818	4.74
298.274	4.74
298.731	4.73
299.187	4.72
299.643	4.7
300.099	4.7
300.555	4.69
301.011	4.68
301.467	4.68
301.923	4.67
302.379	4.66
302.835	4.65
303.291	4.64
303.746	4.63
304.202	4.64
304.658	4.64
305.113	4.62
305.569	4.62
306.024	4.62
306.479	4.61
306.935	4.6
307.39	4.6
307.845	4.6
308.301	4.6
308.756	4.6
309.211	4.59
309.666	4.6
310.121	4.6
310.576	4.59
311.031	4.59
311.486	4.59
311.94	4.59
312.395	4.58
312.85	4.58
313.305	4.57
313.759	4.57
314.214	4.56
314.668	4.55
315.123	4.54
315.577	4.53
316.032	4.52
316.486	4.51
316.94	4.5
317.394	4.49
317.849	4.47
318.303	4.46
318.757	4.45
319.211	4.44
319.665	4.42
320.119	4.41
320.572	4.39
321.026	4.37
321.48	4.36
321.934	4.34
322.387	4.33
322.841	4.32
323.295	4.32
323.748	4.32
324.202	4.31
324.655	4.3
325.108	4.3
325.562	4.3
326.015	4.29
326.468	4.29
326.921	4.29
327.374	4.28
327.827	4.29
328.28	4.27
328.733	4.26
329.186	4.26
329.639	4.25
330.092	4.25
330.545	4.24
330.997	4.25
331.45	4.25
331.903	4.25
332.355	4.26
332.808	4.26
333.26	4.26
333.713	4.26
334.165	4.26
334.617	4.26
335.069	4.24
335.522	4.25
335.974	4.24
336.426	4.23
336.878	4.22
337.33	4.21
337.782	4.2
338.234	4.2
338.686	4.2
339.137	4.2
339.589	4.19
340.041	4.2
340.493	4.18
340.944	4.15
341.396	4.15
341.847	4.13
342.299	4.12
342.75	4.11
343.201	4.09
343.653	4.07
344.104	4.05
344.555	4.04
345.006	4.02
345.457	4.01
345.908	4
346.359	4
346.81	4
347.261	3.99
347.712	3.99
348.163	3.98
348.613	3.98
349.064	3.99
349.515	3.99
349.965	3.99
350.416	3.98
350.866	3.98
351.317	3.98
351.767	3.98
352.217	3.98
352.668	3.98
353.118	3.99
353.568	3.97
354.018	3.97
354.468	3.97
354.918	3.98
355.368	3.98
355.818	3.98
356.268	3.98
356.718	3.98
357.168	3.97
357.617	3.96
358.067	3.96
358.517	3.98
358.966	3.98
359.416	3.98
359.865	3.98
360.315	3.98
360.764	3.98
361.213	3.98
361.663	3.96
362.112	3.98
362.561	3.98
363.01	3.97
363.459	3.95
363.908	3.94
364.357	3.94
364.806	3.93
365.255	3.93
365.703	3.93
366.152	3.94
366.601	3.96
367.05	3.95
367.498	3.95
367.947	3.95
368.395	3.96
368.844	3.96
369.292	3.95
369.74	3.95
370.189	3.95
370.637	3.94
371.085	3.93
371.533	3.92
371.981	3.91
372.429	3.91
372.877	3.91
373.325	3.91
373.773	3.91
374.221	3.91
374.669	3.9
375.116	3.9
375.564	3.89
376.012	3.88
376.459	3.88
376.907	3.89
377.354	3.9
377.801	3.89
378.249	3.88
378.696	3.89
379.143	3.88
379.591	3.89
380.038	3.88
380.485	3.89
380.932	3.89
381.379	3.88
381.826	3.88
382.273	3.87
382.72	3.86
383.166	3.87
383.613	3.86
384.06	3.85
384.506	3.84
384.953	3.84
385.4	3.84
385.846	3.85
386.292	3.85
386.739	3.85
387.185	3.84
387.631	3.84
388.078	3.83
388.524	3.83
388.97	3.84
389.416	3.84
389.862	3.85
390.308	3.86
390.754	3.86
391.2	3.87
391.645	3.89
392.091	3.9
392.537	3.92
392.983	3.93
393.428	3.95
393.874	3.96
394.319	3.97
394.765	3.98
395.21	3.98
395.655	3.99
396.101	4.01
396.546	4.01
396.991	4.02
397.436	4.03
397.881	4.05
398.326	4.06
398.771	4.07
399.216	4.08
399.661	4.09
400.106	4.11
400.551	4.12
400.995	4.11
401.44	4.13
401.885	4.15
402.329	4.17
402.774	4.18
403.218	4.21
403.663	4.23
404.107	4.25
404.551	4.27
404.995	4.28
405.44	4.29
405.884	4.31
406.328	4.33
406.772	4.33
407.216	4.35
407.66	4.36
408.104	4.35
408.547	4.37
408.991	4.38
409.435	4.39
409.879	4.42
410.322	4.44
410.766	4.46
411.209	4.47
411.653	4.5
412.096	4.5
412.54	4.52
412.983	4.54
413.426	4.57
413.869	4.59
414.312	4.62
414.756	4.64
415.199	4.65
415.642	4.66
416.085	4.67
416.527	4.67
416.97	4.66
417.413	4.66
417.856	4.65
418.298	4.63
418.741	4.63
419.184	4.63
419.626	4.63
420.069	4.64
420.511	4.64
420.953	4.64
421.396	4.66
421.838	4.67
422.28	4.69
422.722	4.71
423.164	4.72
423.606	4.72
424.048	4.73
424.49	4.72
424.932	4.71
425.374	4.69
425.816	4.68
426.258	4.67
426.699	4.65
427.141	4.64
427.582	4.65
428.024	4.67
428.465	4.67
428.907	4.67
429.348	4.68
429.789	4.68
430.231	4.72
430.672	4.75
431.113	4.76
431.554	4.79
431.995	4.8
432.436	4.81
432.877	4.82
433.318	4.84
433.759	4.87
434.2	4.9
434.64	4.93
435.081	4.94
435.522	4.95
435.962	4.97
436.403	5.01
436.843	5.01
437.284	5.01
437.724	5.01
438.164	5
438.604	5.01
439.045	5.02
439.485	5.03
439.925	5.01
440.365	5
440.805	5.01
441.245	5.02
441.685	5.04
442.125	5.06
442.564	5.07
443.004	5.08
443.444	5.09
443.883	5.1
444.323	5.08
444.762	5.09
445.202	5.1
445.641	5.12
446.081	5.13
446.52	5.13
446.959	5.14
447.398	5.16
447.837	5.16
448.276	5.15
448.716	5.17
449.154	5.2
449.593	5.22
450.032	5.22
450.471	5.21
450.91	5.21
451.349	5.21
451.787	5.2
452.226	5.19
452.664	5.19
453.103	5.19
453.541	5.19
453.98	5.19
454.418	5.17
454.856	5.17
455.295	5.16
455.733	5.14
456.171	5.13
456.609	5.13
457.047	5.1
457.485	5.09
457.923	5.1
458.361	5.08
458.798	5.08
459.236	5.06
459.674	5.06
460.111	5.06
460.549	5.08
460.987	5.1
461.424	5.1
461.862	5.12
462.299	5.13
462.736	5.13
463.173	5.13
463.611	5.13
464.048	5.15
464.485	5.15
464.922	5.16
465.359	5.17
465.796	5.17
466.233	5.18
466.67	5.19
467.106	5.2
467.543	5.2
467.98	5.19
468.416	5.18
468.853	5.18
469.29	5.17
469.726	5.17
470.162	5.16
470.599	5.14
471.035	5.11
471.471	5.1
471.907	5.08
472.344	5.07
472.78	5.08
473.216	5.06
473.652	5.08
474.088	5.06
474.523	5.06
474.959	5.05
475.395	5.04
475.831	5.04
476.266	5.04
476.702	5.03
477.138	5.04
477.573	5.02
478.008	5.02
478.444	4.99
478.879	4.99
479.314	4.98
479.75	4.97
480.185	4.96
480.62	4.94
481.055	4.93
481.49	4.91
481.925	4.91
482.36	4.91
482.795	4.9
483.229	4.9
483.664	4.91
484.099	4.89
484.534	4.89
484.968	4.89
485.403	4.9
485.837	4.91
486.271	4.92
486.706	4.92
487.14	4.92
487.574	4.93
488.009	4.95
488.443	4.95
488.877	4.97
489.311	4.99
489.745	5
490.179	5.03
490.613	5.05
491.046	5.06
491.48	5.09
491.914	5.12
492.348	5.15
492.781	5.18
493.215	5.22
493.648	5.25
494.082	5.28
494.515	5.33
494.948	5.36
495.382	5.4
495.815	5.46
496.248	5.52
496.681	5.57
497.114	5.62
497.547	5.68
497.98	5.74
498.413	5.82
498.846	5.9
499.279	5.98
499.711	6.06
500.144	6.15
500.577	6.23
501.009	6.31
501.442	6.41
501.874	6.53
502.306	6.64
502.739	6.76
503.171	6.88
503.603	7
504.036	7.14
504.468	7.28
504.9	7.41
505.332	7.56
505.764	7.73
506.196	7.89
506.627	8.07
507.059	8.26
507.491	8.44
507.923	8.64
508.354	8.84
508.786	9.06
509.217	9.28
509.649	9.51
510.08	9.76
510.512	10
510.943	10.25
511.374	10.51
511.805	10.77
512.237	11.03
512.668	11.3
513.099	11.6
513.53	11.89
513.961	12.18
514.391	12.49
514.822	12.81
515.253	13.12
515.684	13.43
516.114	13.76
516.545	14.09
516.975	14.43
517.406	14.78
517.836	15.1
518.267	15.44
518.697	15.77
519.127	16.1
519.558	16.43
519.988	16.77
520.418	17.1
520.848	17.42
521.278	17.74
521.708	18.22
522.138	18.53
522.567	18.85
522.997	19.15
523.427	19.46
523.857	19.76
524.286	20.06
524.716	20.35
525.145	20.63
525.575	20.9
526.004	21.16
526.433	21.27
526.863	21.51
527.292	21.74
527.721	21.98
528.15	22.2
528.579	22.41
529.008	22.62
529.437	22.81
529.866	23
530.295	23.18
530.724	23.35
531.152	23.52
531.581	23.67
532.01	23.83
532.438	23.97
532.867	24.11
533.295	24.23
533.723	24.34
534.152	24.45
534.58	24.56
535.008	24.65
535.436	24.76
535.865	24.84
536.293	24.92
536.721	25.02
537.149	25.09
537.576	25.15
538.004	25.23
538.432	25.28
538.86	25.34
539.287	25.38
539.715	25.44
540.143	25.49
540.57	25.54
540.998	25.58
541.425	25.61
541.852	25.65
542.28	25.7
542.707	25.75
543.134	25.8
543.561	25.85
543.988	25.9
544.415	25.95
544.842	25.97
545.269	26.02
545.696	26.07
546.123	26.11
546.549	26.15
546.976	26.18
547.403	26.2
547.829	26.24
548.256	26.26
548.682	26.28
549.108	26.3
549.535	26.32
549.961	26.32
550.387	26.32
550.813	26.32
551.24	26.29
551.666	26.29
552.092	26.27
552.518	26.25
552.943	26.22
553.369	26.19
553.795	26.14
554.221	26.11
554.646	26.06
555.072	26.02
555.498	25.95
555.923	25.89
556.349	25.8
556.774	25.73
557.199	25.63
557.625	25.54
558.05	25.46
558.475	25.38
558.9	25.28
559.325	25.19
559.75	25.08
560.175	24.97
560.6	24.85
561.025	24.75
561.449	24.62
561.874	24.49
562.299	24.35
562.723	24.2
563.148	24.05
563.572	23.88
563.997	23.72
564.421	23.54
564.846	23.38
565.27	23.22
565.694	23.04
566.118	22.86
566.542	22.69
566.966	22.51
567.39	22.34
567.814	22.16
568.238	21.98
568.662	21.8
569.086	21.64
569.509	21.45
569.933	21.28
570.357	21.11
570.78	20.92
571.204	20.74
571.627	20.58
572.05	20.41
572.474	20.26
572.897	20.1
573.32	19.95
573.743	19.77
574.166	19.62
574.589	19.47
575.012	19.32
575.435	19.19
575.858	19.05
576.281	18.91
576.704	18.77
577.126	18.64
577.549	18.51
577.972	18.37
578.394	18.25
578.817	18.13
579.239	18.01
579.661	17.91
580.084	17.8
580.506	17.7
580.928	17.6
581.35	17.51
581.772	17.41
582.194	17.31
582.616	17.22
583.038	17.13
583.46	17.04
583.882	16.95
584.303	16.86
584.725	16.79
585.147	16.72
585.568	16.64
585.99	16.56
586.411	16.49
586.833	16.42
587.254	16.35
587.675	16.28
588.096	16.21
588.518	16.14
588.939	16.09
589.36	16.02
589.781	15.95
590.202	15.89
590.623	15.85
591.043	15.79
591.464	15.75
591.885	15.7
592.305	15.65
592.726	15.6
593.147	15.56
593.567	15.51
593.987	15.46
594.408	15.43
594.828	15.39
595.248	15.35
595.669	15.33
596.089	15.28
596.509	15.24
596.929	15.22
597.349	15.18
597.769	15.15
598.189	15.11
598.608	15.09
599.028	15.06
599.448	15.02
599.867	14.97
600.287	14.91
600.706	14.87
601.126	14.82
601.545	14.77
601.965	14.72
602.384	14.67
602.803	14.61
603.222	14.53
603.641	14.46
604.061	14.38
604.48	14.3
604.898	14.23
605.317	14.15
605.736	14.08
606.155	14
606.574	13.92
606.992	13.83
607.411	13.75
607.829	13.65
608.248	13.56
608.666	13.48
609.085	13.4
609.503	13.33
609.921	13.24
610.339	13.15
610.758	13.07
611.176	12.97
611.594	12.89
612.012	12.79
612.43	12.73
612.847	12.64
613.265	12.55
613.683	12.47
614.101	12.38
614.518	12.3
614.936	12.21
615.353	12.13
615.771	12.06
616.188	11.98
616.606	11.92
617.023	11.85
617.44	11.79
617.857	11.72
618.274	11.66
618.691	11.61
619.108	11.55
619.525	11.49
619.942	11.44
620.359	11.4
620.776	11.36
621.192	11.32
621.609	11.29
622.026	11.26
622.442	11.24
622.859	11.21
623.275	11.17
623.691	11.16
624.108	11.15
624.524	11.14
624.94	11.12
625.356	11.11
625.772	11.09
626.188	11.08
626.604	11.06
627.02	11.04
627.436	11.03
627.852	11.02
628.268	11
628.683	10.99
629.099	10.97
629.514	10.95
629.93	10.92
630.345	10.9
630.761	10.86
631.176	10.84
631.591	10.8
632.007	10.76
632.422	10.72
632.837	10.67
633.252	10.62
633.667	10.56
634.082	10.49
634.497	10.42
634.911	10.35
635.326	10.27
635.741	10.17
636.155	10.09
636.57	10
636.984	9.9
637.399	9.8
637.813	9.69
638.228	9.58
638.642	9.47
639.056	9.35
639.47	9.25
639.884	9.14
640.298	9.03
640.712	8.92
641.126	8.8
641.54	8.68
641.954	8.56
642.368	8.45
642.781	8.34
643.195	8.24
643.609	8.13
644.022	8.02
644.436	7.92
644.849	7.82
645.262	7.73
645.676	7.64
646.089	7.55
646.502	7.49
646.915	7.42
647.328	7.35
647.741	7.29
648.154	7.23
648.567	7.18
648.98	7.13
649.393	7.09
649.805	7.05
650.218	7
650.631	6.96
651.043	6.91
651.456	6.88
651.868	6.84
652.28	6.79
652.693	6.75
653.105	6.7
653.517	6.65
653.929	6.61
654.341	6.56
654.753	6.51
655.165	6.46
655.577	6.41
655.989	6.35
656.401	6.28
656.813	6.22
657.224	6.16
657.636	6.08
658.047	6.02
658.459	5.94
658.87	5.86
659.282	5.78
659.693	5.7
660.104	5.61
660.515	5.54
660.926	5.47
661.338	5.41
661.749	5.34
662.159	5.28
662.57	5.22
662.981	5.17
663.392	5.13
663.803	5.09
664.213	5.05
664.624	5.01
665.035	4.97
665.445	4.93
665.855	4.89
666.266	4.87
666.676	4.85
667.086	4.82
667.497	4.8
667.907	4.79
668.317	4.77
668.727	4.76
669.137	4.75
669.547	4.75
669.956	4.74
670.366	4.74
670.776	4.74
671.186	4.73
671.595	4.73
672.005	4.72
672.414	4.71
672.824	4.71
673.233	4.72
673.642	4.73
674.052	4.73
674.461	4.74
674.87	4.75
675.279	4.78
675.688	4.79
676.097	4.82
676.506	4.85
676.915	4.88
677.323	4.91
677.732	4.92
678.141	4.95
678.549	4.99
678.958	5.02
679.366	5.06
679.775	5.09
680.183	5.14
680.592	5.19
681	5.25
681.408	5.32
681.816	5.39
682.224	5.48
682.632	5.57
683.04	5.68
683.448	5.79
683.856	5.91
684.264	6.05
684.671	6.21
685.079	6.38
685.487	6.57
685.894	6.8
686.302	7.03
686.709	7.3
687.116	7.59
687.524	7.91
687.931	8.27
688.338	8.65
688.745	9.04
689.152	9.46
689.559	9.94
689.966	10.43
690.373	10.94
690.78	11.48
691.187	12.03
691.593	12.6
692	13.19
692.407	13.78
692.813	14.41
693.22	15.04
693.626	15.7
694.032	16.35
694.439	17.01
694.845	17.68
695.251	18.37
695.657	19.04
696.063	19.75
696.469	20.45
696.875	21.17
697.281	21.86
697.687	22.56
698.093	23.24
698.498	23.92
698.904	24.6
699.31	25.27
699.715	25.93
700.12	26.61
700.526	27.26
700.931	27.9
701.337	28.54
701.742	29.15
702.147	29.75
702.552	30.36
702.957	30.94
703.362	31.53
703.767	32.09
704.172	32.64
704.577	33.18
704.981	33.72
705.386	34.24
705.791	34.76
706.195	35.3
706.6	35.84
707.004	36.34
707.408	36.86
707.813	37.35
708.217	37.84
708.621	38.34
709.025	38.82
709.43	39.25
709.834	39.71
710.237	40.15
710.641	40.59
711.045	41.01
711.449	41.46
711.853	41.88
712.256	42.27
712.66	42.69
713.064	43.07
713.467	43.47
713.87	43.88
714.274	44.25
714.677	44.61
715.08	44.96
715.484	45.32
715.887	45.7
716.29	46.04
716.693	46.38
717.096	46.74
717.499	47.07
717.901	47.36
718.304	47.68
718.707	48.01
719.109	48.34
719.512	48.65
719.915	48.96
720.317	49.2
720.719	49.46
721.122	49.73
721.524	49.99
721.926	50.26
722.328	50.55
722.731	50.79
723.133	51.04
723.535	51.27
723.937	51.5
724.338	51.69
724.74	51.92
725.142	52.23
725.544	52.44
725.945	52.64
726.347	52.79
726.748	52.94
727.15	53.09
727.551	53.26
727.952	53.43
728.354	53.59
728.755	53.75
729.156	53.87
729.557	53.92
729.958	54.06
730.359	54.21
730.76	54.38
731.161	54.53
731.562	54.7
731.962	54.8
732.363	54.89
732.763	55
733.164	55.09
733.564	55.22
733.965	55.34
734.365	55.42
734.766	55.51
735.166	55.57
735.566	55.62
735.966	55.68
736.366	55.75
736.766	55.85
737.166	55.96
737.566	56.04
737.966	56.1
738.365	56.16
738.765	56.23
739.165	56.28
739.564	56.37
739.964	56.44
740.363	56.47
740.763	56.54
741.162	56.58
741.561	56.58
741.96	56.62
742.36	56.66
742.759	56.68
743.158	56.71
743.557	56.73
743.955	56.77
744.354	56.82
744.753	56.88
745.152	56.92
745.55	56.93
745.949	56.98
746.348	57.02
746.746	57.07
747.144	57.12
747.543	57.11
747.941	57.14
748.339	57.13
748.737	57.13
749.136	57.14
749.534	57.12
749.932	57.14
750.33	57.16
750.727	57.17
751.125	57.2
751.523	57.2
751.921	57.23
752.318	57.26
752.716	57.3
753.113	57.33
753.511	57.34
753.908	57.4
754.305	57.42
754.703	57.41
755.1	57.42
755.497	57.42
755.894	57.42
756.291	57.44
756.688	57.45
757.085	57.46
757.482	57.46
757.878	57.48
758.275	57.46
758.672	57.45
759.068	57.48
759.465	57.49
759.861	57.5
760.258	57.52
760.654	57.53
761.05	57.54
761.447	57.55
761.843	57.54
762.239	57.55
762.635	57.54
763.031	57.53
763.427	57.52
763.822	57.55
764.218	57.56
764.614	57.56
765.01	57.53
765.405	57.55
765.801	57.51
766.196	57.53
766.592	57.53
766.987	57.52
767.382	57.53
767.778	57.51
768.173	57.51
768.568	57.48
768.963	57.47
769.358	57.49
769.753	57.46
770.148	57.5
770.542	57.49
770.937	57.49
771.332	57.52
771.726	57.53
772.121	57.53
772.515	57.51
772.91	57.51
773.304	57.5
773.699	57.52
774.093	57.52
774.487	57.48
774.881	57.49
775.275	57.48
775.669	57.46
776.063	57.45
776.457	57.44
776.851	57.41
777.245	57.39
777.638	57.38
778.032	57.36
778.425	57.39
778.819	57.42
779.212	57.44
779.606	57.45
779.999	57.44
780.392	57.48
780.786	57.49
781.179	57.53
781.572	57.57
781.965	57.57
782.358	57.58
