Data from C_1_DEC_VA_2N_Splice17_12-41-35-038.txt Node
Date: Sat Mar 07 12:41:35 EST 2020
User: sa697716
Spectrometer: NQ5500242
Trigger mode: 0
Integration Time (sec): 1.450000E-1
Scans to average: 20
Nonlinearity correction enabled: false
Boxcar width: 5
Storing dark spectrum: false
XAxis mode: Wavelengths
Number of Pixels in Spectrum: 512
>>>>>Begin Spectral Data<<<<<
187.83	74.92
188.298	86.92
188.766	71.81
189.233	62.81
189.701	57.79
190.169	59.24
190.636	62.11
191.104	72.41
191.571	-71.87
192.039	-37.47
192.506	-225.34
192.974	102.06
193.441	88.58
193.908	-12.8
194.375	24.41
194.842	6.43
195.31	-18.34
195.777	10.9
196.244	40.22
196.711	38.46
197.177	40.32
197.644	39.97
198.111	39.6
198.578	40.05
199.045	40.81
199.511	40.51
199.978	40.42
200.445	40.5
200.911	40.27
201.378	40.16
201.844	40.06
202.31	39.73
202.777	39.88
203.243	40.15
203.709	40.14
204.176	39.59
204.642	39.48
205.108	39.61
205.574	39.51
206.04	39.35
206.506	39.05
206.972	38.96
207.438	38.93
207.903	38.41
208.369	37.52
208.835	36.91
209.301	36.23
209.766	35.24
210.232	34.2
210.697	33.11
211.163	32.32
211.628	31.68
212.094	30.99
212.559	30.48
213.024	29.76
213.49	29.37
213.955	28.7
214.42	28.26
214.885	27.68
215.35	26.93
215.815	26.01
216.28	24.55
216.745	22.86
217.21	21.12
217.675	19.53
218.14	18.31
218.604	17.13
219.069	16.14
219.534	15.32
219.998	14.59
220.463	13.99
220.927	13.45
221.392	13.06
221.856	12.78
222.32	12.48
222.785	12.2
223.249	11.95
223.713	11.72
224.177	11.53
224.642	11.32
225.106	11.13
225.57	10.93
226.034	10.78
226.497	10.6
226.961	10.42
227.425	10.29
227.889	10.15
228.353	9.99
228.816	9.85
229.28	9.7
229.744	9.56
230.207	9.43
230.671	9.3
231.134	9.18
231.597	9.08
232.061	8.97
232.524	8.84
232.987	8.73
233.45	8.65
233.914	8.54
234.377	8.44
234.84	8.37
235.303	8.3
235.766	8.21
236.229	8.11
236.691	8.01
237.154	7.92
237.617	7.86
238.08	7.78
238.542	7.69
239.005	7.64
239.468	7.56
239.93	7.5
240.393	7.43
240.855	7.35
241.317	7.29
241.78	7.23
242.242	7.16
242.704	7.09
243.166	7.03
243.629	6.98
244.091	6.89
244.553	6.83
245.015	6.76
245.477	6.69
245.939	6.63
246.4	6.58
246.862	6.52
247.324	6.47
247.786	6.4
248.247	6.34
248.709	6.28
249.17	6.22
249.632	6.17
250.093	6.13
250.555	6.08
251.016	6.03
251.477	5.98
251.939	5.95
252.4	5.91
252.861	5.88
253.322	5.85
253.783	5.82
254.244	5.79
254.705	5.75
255.166	5.72
255.627	5.69
256.088	5.66
256.549	5.64
257.009	5.59
257.47	5.56
257.931	5.51
258.391	5.47
258.852	5.43
259.312	5.39
259.773	5.37
260.233	5.33
260.694	5.29
261.154	5.26
261.614	5.23
262.074	5.21
262.534	5.18
262.994	5.16
263.455	5.14
263.915	5.12
264.374	5.1
264.834	5.08
265.294	5.06
265.754	5.05
266.214	5.03
266.673	5.01
267.133	5
267.593	4.98
268.052	4.97
268.512	4.95
268.971	4.95
269.431	4.93
269.89	4.91
270.349	4.9
270.809	4.88
271.268	4.87
271.727	4.86
272.186	4.84
272.645	4.83
273.104	4.82
273.563	4.81
274.022	4.79
274.481	4.78
274.94	4.77
275.399	4.75
275.857	4.74
276.316	4.73
276.775	4.72
277.233	4.71
277.692	4.69
278.15	4.68
278.609	4.66
279.067	4.65
279.525	4.64
279.984	4.63
280.442	4.62
280.9	4.61
281.358	4.6
281.816	4.59
282.274	4.58
282.732	4.58
283.19	4.57
283.648	4.56
284.106	4.55
284.564	4.55
285.021	4.54
285.479	4.54
285.937	4.52
286.394	4.51
286.852	4.5
287.309	4.5
287.767	4.49
288.224	4.47
288.682	4.46
289.139	4.44
289.596	4.42
290.053	4.4
290.511	4.38
290.968	4.36
291.425	4.34
291.882	4.33
292.339	4.31
292.796	4.29
293.252	4.27
293.709	4.26
294.166	4.25
294.623	4.24
295.079	4.23
295.536	4.23
295.992	4.21
296.449	4.2
296.905	4.19
297.362	4.18
297.818	4.17
298.274	4.17
298.731	4.16
299.187	4.15
299.643	4.14
300.099	4.13
300.555	4.12
301.011	4.11
301.467	4.1
301.923	4.09
302.379	4.09
302.835	4.09
303.291	4.08
303.746	4.08
304.202	4.07
304.658	4.06
305.113	4.06
305.569	4.06
306.024	4.06
306.479	4.05
306.935	4.04
307.39	4.03
307.845	4.03
308.301	4.03
308.756	4.02
309.211	4.02
309.666	4.02
310.121	4.02
310.576	4.02
311.031	4.01
311.486	4.01
311.94	4.02
312.395	4.01
312.85	4.01
313.305	4.01
313.759	4.01
314.214	4
314.668	3.99
315.123	3.99
315.577	3.98
316.032	3.97
316.486	3.97
316.94	3.95
317.394	3.95
317.849	3.93
318.303	3.91
318.757	3.89
319.211	3.89
319.665	3.87
320.119	3.86
320.572	3.84
321.026	3.83
321.48	3.82
321.934	3.81
322.387	3.8
322.841	3.79
323.295	3.78
323.748	3.78
324.202	3.77
324.655	3.77
325.108	3.78
325.562	3.77
326.015	3.77
326.468	3.76
326.921	3.76
327.374	3.75
327.827	3.75
328.28	3.74
328.733	3.74
329.186	3.74
329.639	3.74
330.092	3.73
330.545	3.72
330.997	3.73
331.45	3.74
331.903	3.74
332.355	3.74
332.808	3.74
333.26	3.74
333.713	3.74
334.165	3.73
334.617	3.73
335.069	3.73
335.522	3.74
335.974	3.74
336.426	3.72
336.878	3.72
337.33	3.71
337.782	3.72
338.234	3.72
338.686	3.72
339.137	3.72
339.589	3.71
340.041	3.71
340.493	3.68
340.944	3.68
341.396	3.67
341.847	3.66
342.299	3.64
342.75	3.62
343.201	3.61
343.653	3.6
344.104	3.58
344.555	3.57
345.006	3.55
345.457	3.55
345.908	3.54
346.359	3.54
346.81	3.53
347.261	3.53
347.712	3.53
348.163	3.53
348.613	3.53
349.064	3.54
349.515	3.54
349.965	3.53
350.416	3.53
350.866	3.53
351.317	3.52
351.767	3.52
352.217	3.52
352.668	3.52
353.118	3.51
353.568	3.51
354.018	3.51
354.468	3.51
354.918	3.51
355.368	3.51
355.818	3.5
356.268	3.5
356.718	3.51
357.168	3.5
357.617	3.5
358.067	3.5
358.517	3.5
358.966	3.5
359.416	3.51
359.865	3.5
360.315	3.51
360.764	3.51
361.213	3.51
361.663	3.5
362.112	3.51
362.561	3.5
363.01	3.5
363.459	3.48
363.908	3.48
364.357	3.47
364.806	3.47
365.255	3.47
365.703	3.46
366.152	3.47
366.601	3.48
367.05	3.48
367.498	3.48
367.947	3.49
368.395	3.49
368.844	3.5
369.292	3.5
369.74	3.5
370.189	3.5
370.637	3.5
371.085	3.49
371.533	3.49
371.981	3.49
372.429	3.49
372.877	3.49
373.325	3.5
373.773	3.5
374.221	3.5
374.669	3.51
375.116	3.51
375.564	3.51
376.012	3.52
376.459	3.53
376.907	3.55
377.354	3.56
377.801	3.57
378.249	3.58
378.696	3.59
379.143	3.61
379.591	3.62
380.038	3.64
380.485	3.66
380.932	3.68
381.379	3.71
381.826	3.73
382.273	3.74
382.72	3.75
383.166	3.77
383.613	3.79
384.06	3.8
384.506	3.81
384.953	3.84
385.4	3.85
385.846	3.88
386.292	3.89
386.739	3.91
387.185	3.93
387.631	3.97
388.078	3.99
388.524	4.02
388.97	4.05
389.416	4.09
389.862	4.12
390.308	4.17
390.754	4.2
391.2	4.24
391.645	4.27
392.091	4.3
392.537	4.34
392.983	4.37
393.428	4.41
393.874	4.44
394.319	4.46
394.765	4.48
395.21	4.49
395.655	4.53
396.101	4.55
396.546	4.57
396.991	4.59
397.436	4.61
397.881	4.64
398.326	4.67
398.771	4.69
399.216	4.72
399.661	4.75
400.106	4.77
400.551	4.78
400.995	4.79
401.44	4.82
401.885	4.84
402.329	4.86
402.774	4.87
403.218	4.89
403.663	4.92
404.107	4.92
404.551	4.92
404.995	4.93
405.44	4.93
405.884	4.94
406.328	4.95
406.772	4.95
407.216	4.95
407.66	4.96
408.104	4.94
408.547	4.93
408.991	4.95
409.435	4.96
409.879	4.97
410.322	4.98
410.766	4.99
411.209	5
411.653	5.02
412.096	5.02
412.54	5.02
412.983	5.03
413.426	5.06
413.869	5.06
414.312	5.08
414.756	5.08
415.199	5.09
415.642	5.1
416.085	5.09
416.527	5.08
416.97	5.08
417.413	5.07
417.856	5.06
418.298	5.05
418.741	5.05
419.184	5.02
419.626	5.02
420.069	5.02
420.511	5.02
420.953	5.02
421.396	5.03
421.838	5.04
422.28	5.05
422.722	5.06
423.164	5.05
423.606	5.06
424.048	5.08
424.49	5.08
424.932	5.07
425.374	5.04
425.816	5.01
426.258	4.99
426.699	4.97
427.141	4.96
427.582	4.96
428.024	4.96
428.465	4.96
428.907	4.95
429.348	4.93
429.789	4.93
430.231	4.96
430.672	4.97
431.113	4.99
431.554	5.01
431.995	5.03
432.436	5.02
432.877	5.02
433.318	5.03
433.759	5.05
434.2	5.08
434.64	5.09
435.081	5.09
435.522	5.11
435.962	5.13
436.403	5.16
436.843	5.16
437.284	5.16
437.724	5.19
438.164	5.19
438.604	5.19
439.045	5.19
439.485	5.2
439.925	5.22
440.365	5.23
440.805	5.24
441.245	5.24
441.685	5.28
442.125	5.32
442.564	5.34
443.004	5.35
443.444	5.37
443.883	5.4
444.323	5.43
444.762	5.44
445.202	5.47
445.641	5.51
446.081	5.55
446.52	5.56
446.959	5.6
447.398	5.63
447.837	5.66
448.276	5.7
448.716	5.73
449.154	5.77
449.593	5.81
450.032	5.83
450.471	5.85
450.91	5.86
451.349	5.89
451.787	5.88
452.226	5.89
452.664	5.91
453.103	5.9
453.541	5.92
453.98	5.92
454.418	5.91
454.856	5.9
455.295	5.9
455.733	5.88
456.171	5.88
456.609	5.89
457.047	5.89
457.485	5.89
457.923	5.9
458.361	5.88
458.798	5.87
459.236	5.87
459.674	5.87
460.111	5.87
460.549	5.89
460.987	5.89
461.424	5.88
461.862	5.88
462.299	5.88
462.736	5.87
463.173	5.88
463.611	5.88
464.048	5.89
464.485	5.89
464.922	5.89
465.359	5.89
465.796	5.88
466.233	5.88
466.67	5.88
467.106	5.87
467.543	5.89
467.98	5.88
468.416	5.88
468.853	5.88
469.29	5.88
469.726	5.88
470.162	5.88
470.599	5.89
471.035	5.88
471.471	5.88
471.907	5.89
472.344	5.88
472.78	5.89
473.216	5.89
473.652	5.9
474.088	5.89
474.523	5.9
474.959	5.9
475.395	5.89
475.831	5.88
476.266	5.88
476.702	5.88
477.138	5.89
477.573	5.89
478.008	5.89
478.444	5.88
478.879	5.89
479.314	5.88
479.75	5.87
480.185	5.87
480.62	5.87
481.055	5.87
481.49	5.87
481.925	5.86
482.36	5.87
482.795	5.86
483.229	5.87
483.664	5.89
484.099	5.89
484.534	5.89
484.968	5.92
485.403	5.93
485.837	5.96
486.271	5.99
486.706	6.01
487.14	6.04
487.574	6.07
488.009	6.1
488.443	6.13
488.877	6.17
489.311	6.22
489.745	6.27
490.179	6.31
490.613	6.36
491.046	6.42
491.48	6.48
491.914	6.54
492.348	6.61
492.781	6.68
493.215	6.75
493.648	6.83
494.082	6.91
494.515	6.99
494.948	7.09
495.382	7.18
495.815	7.29
496.248	7.39
496.681	7.5
497.114	7.62
497.547	7.74
497.98	7.87
498.413	8
498.846	8.14
499.279	8.28
499.711	8.43
500.144	8.59
500.577	8.74
501.009	8.91
501.442	9.08
501.874	9.27
502.306	9.45
502.739	9.64
503.171	9.84
503.603	10.06
504.036	10.28
504.468	10.51
504.9	10.73
505.332	10.97
505.764	11.22
506.196	11.47
506.627	11.74
507.059	12.01
507.491	12.3
507.923	12.59
508.354	12.89
508.786	13.19
509.217	13.5
509.649	13.82
510.08	14.14
510.512	14.47
510.943	14.81
511.374	15.14
511.805	15.49
512.237	15.84
512.668	16.2
513.099	16.54
513.53	16.91
513.961	17.29
514.391	17.66
514.822	18.04
515.253	18.42
515.684	18.79
516.114	19.18
516.545	19.56
516.975	19.95
517.406	20.33
517.836	20.71
518.267	21.09
518.697	21.45
519.127	21.81
519.558	22.17
519.988	22.53
520.418	22.88
520.848	23.22
521.278	23.56
521.708	24
522.138	24.32
522.567	24.65
522.997	24.96
523.427	25.26
523.857	25.56
524.286	25.85
524.716	26.13
525.145	26.4
525.575	26.66
526.004	26.91
526.433	27.04
526.863	27.26
527.292	27.48
527.721	27.69
528.15	27.9
528.579	28.1
529.008	28.28
529.437	28.45
529.866	28.61
530.295	28.77
530.724	28.93
531.152	29.07
531.581	29.21
532.01	29.34
532.438	29.46
532.867	29.58
533.295	29.68
533.723	29.78
534.152	29.88
534.58	29.99
535.008	30.07
535.436	30.15
535.865	30.22
536.293	30.29
536.721	30.35
537.149	30.41
537.576	30.46
538.004	30.53
538.432	30.59
538.86	30.63
539.287	30.65
539.715	30.72
540.143	30.76
540.57	30.81
540.998	30.85
541.425	30.9
541.852	30.93
542.28	30.97
542.707	31
543.134	31.04
543.561	31.09
543.988	31.14
544.415	31.16
544.842	31.17
545.269	31.21
545.696	31.24
546.123	31.24
546.549	31.29
546.976	31.31
547.403	31.33
547.829	31.33
548.256	31.34
548.682	31.34
549.108	31.35
549.535	31.38
549.961	31.38
550.387	31.38
550.813	31.39
551.24	31.39
551.666	31.37
552.092	31.37
552.518	31.36
552.943	31.34
553.369	31.32
553.795	31.28
554.221	31.24
554.646	31.2
555.072	31.15
555.498	31.1
555.923	31.04
556.349	30.96
556.774	30.88
557.199	30.81
557.625	30.73
558.05	30.65
558.475	30.58
558.9	30.48
559.325	30.39
559.75	30.28
560.175	30.18
560.6	30.05
561.025	29.95
561.449	29.83
561.874	29.7
562.299	29.57
562.723	29.42
563.148	29.26
563.572	29.1
563.997	28.93
564.421	28.77
564.846	28.61
565.27	28.45
565.694	28.3
566.118	28.13
566.542	27.96
566.966	27.78
567.39	27.6
567.814	27.44
568.238	27.28
568.662	27.12
569.086	26.96
569.509	26.78
569.933	26.6
570.357	26.42
570.78	26.25
571.204	26.08
571.627	25.93
572.05	25.76
572.474	25.6
572.897	25.44
573.32	25.27
573.743	25.11
574.166	24.96
574.589	24.8
575.012	24.64
575.435	24.51
575.858	24.35
576.281	24.21
576.704	24.07
577.126	23.93
577.549	23.8
577.972	23.66
578.394	23.54
578.817	23.42
579.239	23.31
579.661	23.2
580.084	23.08
580.506	22.97
580.928	22.86
581.35	22.76
581.772	22.66
582.194	22.55
582.616	22.45
583.038	22.35
583.46	22.25
583.882	22.13
584.303	22.03
584.725	21.94
585.147	21.85
585.568	21.76
585.99	21.67
586.411	21.58
586.833	21.48
587.254	21.4
587.675	21.32
588.096	21.23
588.518	21.16
588.939	21.1
589.36	21.03
589.781	20.96
590.202	20.9
590.623	20.84
591.043	20.77
591.464	20.73
591.885	20.68
592.305	20.62
592.726	20.6
593.147	20.55
593.567	20.5
593.987	20.43
594.408	20.39
594.828	20.35
595.248	20.3
595.669	20.27
596.089	20.22
596.509	20.18
596.929	20.14
597.349	20.08
597.769	20.03
598.189	19.98
598.608	19.96
599.028	19.91
599.448	19.86
599.867	19.81
600.287	19.75
600.706	19.7
601.126	19.65
601.545	19.6
601.965	19.55
602.384	19.48
602.803	19.42
603.222	19.35
603.641	19.28
604.061	19.22
604.48	19.14
604.898	19.06
605.317	18.98
605.736	18.9
606.155	18.8
606.574	18.71
606.992	18.63
607.411	18.53
607.829	18.42
608.248	18.31
608.666	18.21
609.085	18.12
609.503	18.03
609.921	17.92
610.339	17.82
610.758	17.72
611.176	17.62
611.594	17.52
612.012	17.41
612.43	17.34
612.847	17.25
613.265	17.15
613.683	17.05
614.101	16.95
614.518	16.86
614.936	16.77
615.353	16.69
615.771	16.6
616.188	16.51
616.606	16.44
617.023	16.35
617.44	16.29
617.857	16.22
618.274	16.15
618.691	16.08
619.108	16.01
619.525	15.96
619.942	15.9
620.359	15.86
620.776	15.82
621.192	15.77
621.609	15.74
622.026	15.7
622.442	15.67
622.859	15.64
623.275	15.61
623.691	15.59
624.108	15.56
624.524	15.55
624.94	15.53
625.356	15.51
625.772	15.5
626.188	15.48
626.604	15.46
627.02	15.44
627.436	15.43
627.852	15.42
628.268	15.4
628.683	15.39
629.099	15.37
629.514	15.34
629.93	15.31
630.345	15.27
630.761	15.22
631.176	15.16
631.591	15.11
632.007	15.04
632.422	14.97
632.837	14.89
633.252	14.81
633.667	14.71
634.082	14.6
634.497	14.51
634.911	14.38
635.326	14.27
635.741	14.14
636.155	14
636.57	13.86
636.984	13.7
637.399	13.54
637.813	13.38
638.228	13.22
638.642	13.05
639.056	12.86
639.47	12.71
639.884	12.55
640.298	12.39
640.712	12.21
641.126	12.04
641.54	11.87
641.954	11.71
642.368	11.54
642.781	11.37
643.195	11.22
643.609	11.07
644.022	10.91
644.436	10.75
644.849	10.6
645.262	10.47
645.676	10.33
646.089	10.22
646.502	10.11
646.915	10.01
647.328	9.91
647.741	9.82
648.154	9.74
648.567	9.66
648.98	9.59
649.393	9.53
649.805	9.48
650.218	9.44
650.631	9.38
651.043	9.32
651.456	9.26
651.868	9.2
652.28	9.15
652.693	9.09
653.105	9.03
653.517	8.96
653.929	8.89
654.341	8.81
654.753	8.73
655.165	8.64
655.577	8.55
655.989	8.47
656.401	8.38
656.813	8.28
657.224	8.18
657.636	8.06
658.047	7.96
658.459	7.84
658.87	7.73
659.282	7.61
659.693	7.5
660.104	7.38
660.515	7.27
660.926	7.16
661.338	7.04
661.749	6.93
662.159	6.82
662.57	6.73
662.981	6.64
663.392	6.55
663.803	6.46
664.213	6.36
664.624	6.27
665.035	6.19
665.445	6.11
665.855	6.04
666.266	5.99
666.676	5.94
667.086	5.87
667.497	5.83
667.907	5.78
668.317	5.74
668.727	5.71
669.137	5.69
669.547	5.68
669.956	5.66
670.366	5.65
670.776	5.63
671.186	5.62
671.595	5.61
672.005	5.61
672.414	5.62
672.824	5.62
673.233	5.63
673.642	5.64
674.052	5.65
674.461	5.66
674.87	5.68
675.279	5.7
675.688	5.73
676.097	5.77
676.506	5.8
676.915	5.84
677.323	5.9
677.732	5.95
678.141	6
678.549	6.06
678.958	6.14
679.366	6.22
679.775	6.31
680.183	6.4
680.592	6.52
681	6.64
681.408	6.77
681.816	6.91
682.224	7.09
682.632	7.28
683.04	7.48
683.448	7.7
683.856	7.94
684.264	8.21
684.671	8.51
685.079	8.83
685.487	9.19
685.894	9.58
686.302	9.99
686.709	10.43
687.116	10.92
687.524	11.44
687.931	11.99
688.338	12.56
688.745	13.18
689.152	13.8
689.559	14.46
689.966	15.13
690.373	15.83
690.78	16.54
691.187	17.24
691.593	17.96
692	18.7
692.407	19.44
692.813	20.19
693.22	20.92
693.626	21.68
694.032	22.43
694.439	23.17
694.845	23.92
695.251	24.66
695.657	25.39
696.063	26.14
696.469	26.85
696.875	27.55
697.281	28.25
697.687	28.96
698.093	29.62
698.498	30.26
698.904	30.9
699.31	31.52
699.715	32.13
700.12	32.72
700.526	33.31
700.931	33.88
701.337	34.44
701.742	34.97
702.147	35.48
702.552	36.01
702.957	36.49
703.362	36.98
703.767	37.46
704.172	37.92
704.577	38.36
704.981	38.8
705.386	39.24
705.791	39.66
706.195	40.1
706.6	40.52
707.004	40.91
707.408	41.31
707.813	41.74
708.217	42.1
708.621	42.47
709.025	42.83
709.43	43.15
709.834	43.5
710.237	43.82
710.641	44.12
711.045	44.42
711.449	44.75
711.853	45.09
712.256	45.36
712.66	45.66
713.064	45.96
713.467	46.27
713.87	46.55
714.274	46.82
714.677	47.08
715.08	47.35
715.484	47.6
715.887	47.86
716.29	48.07
716.693	48.32
717.096	48.58
717.499	48.79
717.901	49
718.304	49.21
718.707	49.44
719.109	49.66
719.512	49.85
719.915	50.06
720.317	50.19
720.719	50.35
721.122	50.54
721.524	50.71
721.926	50.89
722.328	51.07
722.731	51.22
723.133	51.36
723.535	51.52
723.937	51.68
724.338	51.83
724.74	51.99
725.142	52.18
725.544	52.29
725.945	52.43
726.347	52.54
726.748	52.64
727.15	52.75
727.551	52.88
727.952	52.95
728.354	53.05
728.755	53.12
729.156	53.22
729.557	53.25
729.958	53.31
730.359	53.37
730.76	53.44
731.161	53.53
731.562	53.62
731.962	53.67
732.363	53.74
732.763	53.81
733.164	53.88
733.564	53.94
733.965	54
734.365	54.08
734.766	54.15
735.166	54.21
735.566	54.27
735.966	54.31
736.366	54.37
736.766	54.39
737.166	54.44
737.566	54.47
737.966	54.5
738.365	54.56
738.765	54.6
739.165	54.62
739.564	54.67
739.964	54.68
740.363	54.68
740.763	54.72
741.162	54.78
741.561	54.78
741.96	54.8
742.36	54.83
742.759	54.86
743.158	54.88
743.557	54.89
743.955	54.89
744.354	54.93
744.753	54.97
745.152	54.99
745.55	55.01
745.949	55.03
746.348	55.08
746.746	55.1
747.144	55.12
747.543	55.14
747.941	55.17
748.339	55.14
748.737	55.12
749.136	55.12
749.534	55.11
749.932	55.11
750.33	55.12
750.727	55.11
751.125	55.11
751.523	55.08
751.921	55.06
752.318	55.07
752.716	55.11
753.113	55.12
753.511	55.13
753.908	55.15
754.305	55.16
754.703	55.15
755.1	55.15
755.497	55.16
755.894	55.16
756.291	55.15
756.688	55.12
757.085	55.12
757.482	55.11
757.878	55.1
758.275	55.09
758.672	55.09
759.068	55.12
759.465	55.12
759.861	55.13
760.258	55.16
760.654	55.16
761.05	55.16
761.447	55.16
761.843	55.16
762.239	55.15
762.635	55.12
763.031	55.11
763.427	55.04
763.822	55.02
764.218	55.03
764.614	55.02
765.01	55.01
765.405	55
765.801	54.99
766.196	55
766.592	54.97
766.987	54.98
767.382	54.95
767.778	54.96
768.173	54.94
768.568	54.92
768.963	54.87
769.358	54.88
769.753	54.88
770.148	54.87
770.542	54.86
770.937	54.91
771.332	54.9
771.726	54.92
772.121	54.92
772.515	54.92
772.91	54.91
773.304	54.97
773.699	54.98
774.093	54.97
774.487	54.96
774.881	55
775.275	54.95
775.669	54.95
776.063	54.92
776.457	54.93
776.851	54.92
777.245	54.89
777.638	54.86
778.032	54.82
778.425	54.88
778.819	54.86
779.212	54.86
779.606	54.89
779.999	54.89
780.392	54.94
780.786	54.97
781.179	54.99
781.572	55.03
