Data from C_1_DIV_OH_2N_Splice17_12-51-55-414.txt Node
Date: Sat Mar 07 12:51:55 EST 2020
User: sa697716
Spectrometer: NQ5500242
Trigger mode: 0
Integration Time (sec): 1.450000E-1
Scans to average: 20
Nonlinearity correction enabled: false
Boxcar width: 5
Storing dark spectrum: false
XAxis mode: Wavelengths
Number of Pixels in Spectrum: 512
>>>>>Begin Spectral Data<<<<<
187.83	123.8
188.298	134.79
188.766	117.48
189.233	107.41
189.701	95.44
190.169	111.58
190.636	82.01
191.104	59.59
191.571	-91.86
192.039	-11.52
192.506	-469.99
192.974	92.97
193.441	46.87
193.908	14.74
194.375	39.99
194.842	-28.45
195.31	-36.97
195.777	-443.66
196.244	-2.07
196.711	22.61
197.177	28.33
197.644	29.26
198.111	29.99
198.578	30.96
199.045	31.19
199.511	31.25
199.978	31.51
200.445	31.63
200.911	31.94
201.378	31.98
201.844	32.09
202.31	31.68
202.777	31.57
203.243	31.51
203.709	31.11
204.176	30.78
204.642	30.62
205.108	30.53
205.574	30.45
206.04	30.03
206.506	29.67
206.972	29.64
207.438	29.68
207.903	29.72
208.369	29.16
208.835	28.9
209.301	28.57
209.766	27.65
210.232	26.88
210.697	26.1
211.163	25.48
211.628	24.85
212.094	24.07
212.559	23.6
213.024	22.86
213.49	22.39
213.955	21.72
214.42	21.16
214.885	20.76
215.35	20.1
215.815	19.21
216.28	18.07
216.745	17
217.21	15.76
217.675	14.57
218.14	13.53
218.604	12.66
219.069	12
219.534	11.34
219.998	10.83
220.463	10.37
220.927	9.96
221.392	9.65
221.856	9.34
222.32	9.13
222.785	8.95
223.249	8.76
223.713	8.58
224.177	8.42
224.642	8.28
225.106	8.11
225.57	7.98
226.034	7.87
226.497	7.77
226.961	7.65
227.425	7.53
227.889	7.39
228.353	7.28
228.816	7.19
229.28	7.09
229.744	6.99
230.207	6.9
230.671	6.8
231.134	6.71
231.597	6.64
232.061	6.57
232.524	6.49
232.987	6.43
233.45	6.38
233.914	6.29
234.377	6.21
234.84	6.14
235.303	6.09
235.766	6.05
236.229	6
236.691	5.93
237.154	5.88
237.617	5.82
238.08	5.76
238.542	5.7
239.005	5.66
239.468	5.62
239.93	5.58
240.393	5.53
240.855	5.47
241.317	5.41
241.78	5.35
242.242	5.29
242.704	5.26
243.166	5.21
243.629	5.17
244.091	5.12
244.553	5.07
245.015	5.03
245.477	4.98
245.939	4.94
246.4	4.91
246.862	4.86
247.324	4.83
247.786	4.8
248.247	4.76
248.709	4.71
249.17	4.66
249.632	4.63
250.093	4.6
250.555	4.57
251.016	4.54
251.477	4.5
251.939	4.47
252.4	4.45
252.861	4.41
253.322	4.4
253.783	4.38
254.244	4.36
254.705	4.34
255.166	4.32
255.627	4.29
256.088	4.27
256.549	4.25
257.009	4.22
257.47	4.19
257.931	4.15
258.391	4.12
258.852	4.09
259.312	4.06
259.773	4.04
260.233	4.02
260.694	3.99
261.154	3.97
261.614	3.95
262.074	3.93
262.534	3.91
262.994	3.9
263.455	3.88
263.915	3.86
264.374	3.84
264.834	3.83
265.294	3.81
265.754	3.8
266.214	3.79
266.673	3.77
267.133	3.77
267.593	3.75
268.052	3.74
268.512	3.74
268.971	3.73
269.431	3.72
269.89	3.71
270.349	3.7
270.809	3.69
271.268	3.68
271.727	3.67
272.186	3.65
272.645	3.65
273.104	3.63
273.563	3.62
274.022	3.6
274.481	3.6
274.94	3.59
275.399	3.57
275.857	3.57
276.316	3.56
276.775	3.55
277.233	3.54
277.692	3.53
278.15	3.53
278.609	3.52
279.067	3.51
279.525	3.5
279.984	3.49
280.442	3.48
280.9	3.47
281.358	3.46
281.816	3.46
282.274	3.45
282.732	3.44
283.19	3.43
283.648	3.42
284.106	3.41
284.564	3.41
285.021	3.4
285.479	3.4
285.937	3.38
286.394	3.37
286.852	3.35
287.309	3.34
287.767	3.33
288.224	3.31
288.682	3.3
289.139	3.28
289.596	3.26
290.053	3.24
290.511	3.23
290.968	3.22
291.425	3.2
291.882	3.2
292.339	3.19
292.796	3.18
293.252	3.18
293.709	3.17
294.166	3.16
294.623	3.16
295.079	3.15
295.536	3.14
295.992	3.13
296.449	3.12
296.905	3.11
297.362	3.11
297.818	3.1
298.274	3.09
298.731	3.08
299.187	3.07
299.643	3.06
300.099	3.06
300.555	3.05
301.011	3.04
301.467	3.03
301.923	3.02
302.379	3.02
302.835	3.01
303.291	3.01
303.746	3
304.202	3
304.658	3
305.113	2.99
305.569	2.99
306.024	2.98
306.479	2.98
306.935	2.97
307.39	2.97
307.845	2.96
308.301	2.96
308.756	2.96
309.211	2.95
309.666	2.96
310.121	2.96
310.576	2.95
311.031	2.95
311.486	2.96
311.94	2.96
312.395	2.96
312.85	2.95
313.305	2.95
313.759	2.96
314.214	2.95
314.668	2.95
315.123	2.95
315.577	2.94
316.032	2.94
316.486	2.93
316.94	2.92
317.394	2.92
317.849	2.91
318.303	2.9
318.757	2.88
319.211	2.88
319.665	2.87
320.119	2.86
320.572	2.86
321.026	2.85
321.48	2.84
321.934	2.84
322.387	2.83
322.841	2.82
323.295	2.82
323.748	2.82
324.202	2.82
324.655	2.81
325.108	2.81
325.562	2.81
326.015	2.81
326.468	2.81
326.921	2.8
327.374	2.79
327.827	2.78
328.28	2.78
328.733	2.78
329.186	2.77
329.639	2.77
330.092	2.77
330.545	2.77
330.997	2.77
331.45	2.77
331.903	2.78
332.355	2.8
332.808	2.8
333.26	2.8
333.713	2.79
334.165	2.79
334.617	2.8
335.069	2.79
335.522	2.79
335.974	2.79
336.426	2.79
336.878	2.78
337.33	2.77
337.782	2.78
338.234	2.78
338.686	2.79
339.137	2.8
339.589	2.79
340.041	2.79
340.493	2.78
340.944	2.76
341.396	2.75
341.847	2.74
342.299	2.74
342.75	2.72
343.201	2.71
343.653	2.7
344.104	2.68
344.555	2.67
345.006	2.66
345.457	2.66
345.908	2.66
346.359	2.66
346.81	2.66
347.261	2.65
347.712	2.65
348.163	2.65
348.613	2.65
349.064	2.65
349.515	2.65
349.965	2.64
350.416	2.64
350.866	2.64
351.317	2.64
351.767	2.64
352.217	2.64
352.668	2.64
353.118	2.64
353.568	2.63
354.018	2.63
354.468	2.64
354.918	2.64
355.368	2.64
355.818	2.64
356.268	2.64
356.718	2.64
357.168	2.64
357.617	2.64
358.067	2.64
358.517	2.66
358.966	2.66
359.416	2.67
359.865	2.67
360.315	2.69
360.764	2.69
361.213	2.69
361.663	2.69
362.112	2.7
362.561	2.72
363.01	2.73
363.459	2.71
363.908	2.71
364.357	2.71
364.806	2.71
365.255	2.71
365.703	2.73
366.152	2.74
366.601	2.75
367.05	2.76
367.498	2.75
367.947	2.77
368.395	2.79
368.844	2.8
369.292	2.82
369.74	2.83
370.189	2.84
370.637	2.85
371.085	2.86
371.533	2.87
371.981	2.88
372.429	2.9
372.877	2.91
373.325	2.93
373.773	2.95
374.221	2.96
374.669	2.97
375.116	2.99
375.564	3
376.012	3.02
376.459	3.04
376.907	3.06
377.354	3.08
377.801	3.1
378.249	3.11
378.696	3.13
379.143	3.16
379.591	3.19
380.038	3.22
380.485	3.24
380.932	3.27
381.379	3.29
381.826	3.31
382.273	3.34
382.72	3.36
383.166	3.39
383.613	3.42
384.06	3.44
384.506	3.46
384.953	3.49
385.4	3.51
385.846	3.55
386.292	3.57
386.739	3.6
387.185	3.62
387.631	3.65
388.078	3.68
388.524	3.7
388.97	3.73
389.416	3.76
389.862	3.8
390.308	3.84
390.754	3.87
391.2	3.9
391.645	3.94
392.091	3.99
392.537	4.03
392.983	4.06
393.428	4.09
393.874	4.13
394.319	4.16
394.765	4.19
395.21	4.2
395.655	4.23
396.101	4.27
396.546	4.29
396.991	4.32
397.436	4.34
397.881	4.38
398.326	4.4
398.771	4.42
399.216	4.44
399.661	4.48
400.106	4.5
400.551	4.5
400.995	4.5
401.44	4.53
401.885	4.53
402.329	4.54
402.774	4.55
403.218	4.56
403.663	4.57
404.107	4.59
404.551	4.58
404.995	4.58
405.44	4.59
405.884	4.6
406.328	4.61
406.772	4.62
407.216	4.63
407.66	4.62
408.104	4.61
408.547	4.61
408.991	4.62
409.435	4.63
409.879	4.63
410.322	4.64
410.766	4.65
411.209	4.65
411.653	4.66
412.096	4.67
412.54	4.68
412.983	4.68
413.426	4.71
413.869	4.72
414.312	4.74
414.756	4.77
415.199	4.76
415.642	4.77
416.085	4.78
416.527	4.77
416.97	4.77
417.413	4.76
417.856	4.76
418.298	4.75
418.741	4.75
419.184	4.74
419.626	4.74
420.069	4.76
420.511	4.75
420.953	4.76
421.396	4.77
421.838	4.79
422.28	4.8
422.722	4.83
423.164	4.84
423.606	4.84
424.048	4.85
424.49	4.84
424.932	4.84
425.374	4.83
425.816	4.81
426.258	4.78
426.699	4.77
427.141	4.76
427.582	4.74
428.024	4.75
428.465	4.75
428.907	4.74
429.348	4.73
429.789	4.74
430.231	4.76
430.672	4.78
431.113	4.81
431.554	4.81
431.995	4.82
432.436	4.82
432.877	4.82
433.318	4.82
433.759	4.85
434.2	4.88
434.64	4.88
435.081	4.89
435.522	4.91
435.962	4.93
436.403	4.96
436.843	5
437.284	5
437.724	5.01
438.164	5.02
438.604	5.05
439.045	5.05
439.485	5.06
439.925	5.06
440.365	5.08
440.805	5.1
441.245	5.11
441.685	5.14
442.125	5.19
442.564	5.22
443.004	5.26
443.444	5.27
443.883	5.3
444.323	5.32
444.762	5.37
445.202	5.38
445.641	5.43
446.081	5.47
446.52	5.48
446.959	5.52
447.398	5.56
447.837	5.59
448.276	5.63
448.716	5.68
449.154	5.71
449.593	5.76
450.032	5.79
450.471	5.81
450.91	5.83
451.349	5.86
451.787	5.87
452.226	5.89
452.664	5.91
453.103	5.91
453.541	5.93
453.98	5.95
454.418	5.93
454.856	5.95
455.295	5.94
455.733	5.92
456.171	5.92
456.609	5.92
457.047	5.91
457.485	5.9
457.923	5.91
458.361	5.91
458.798	5.91
459.236	5.92
459.674	5.92
460.111	5.93
460.549	5.95
460.987	5.95
461.424	5.96
461.862	5.97
462.299	5.98
462.736	5.97
463.173	5.97
463.611	5.98
464.048	5.98
464.485	5.98
464.922	5.99
465.359	5.99
465.796	5.99
466.233	6
466.67	6
467.106	6.01
467.543	6.02
467.98	6.02
468.416	6
468.853	6.01
469.29	6.02
469.726	6.02
470.162	6.03
470.599	6.04
471.035	6.03
471.471	6.03
471.907	6.03
472.344	6.04
472.78	6.05
473.216	6.06
473.652	6.07
474.088	6.06
474.523	6.08
474.959	6.08
475.395	6.09
475.831	6.1
476.266	6.11
476.702	6.11
477.138	6.12
477.573	6.13
478.008	6.13
478.444	6.13
478.879	6.13
479.314	6.13
479.75	6.13
480.185	6.12
480.62	6.11
481.055	6.1
481.49	6.1
481.925	6.11
482.36	6.11
482.795	6.11
483.229	6.12
483.664	6.14
484.099	6.14
484.534	6.15
484.968	6.17
485.403	6.19
485.837	6.21
486.271	6.24
486.706	6.26
487.14	6.29
487.574	6.31
488.009	6.35
488.443	6.38
488.877	6.42
489.311	6.46
489.745	6.51
490.179	6.57
490.613	6.62
491.046	6.67
491.48	6.73
491.914	6.78
492.348	6.85
492.781	6.9
493.215	6.98
493.648	7.04
494.082	7.11
494.515	7.17
494.948	7.24
495.382	7.32
495.815	7.4
496.248	7.5
496.681	7.6
497.114	7.69
497.547	7.79
497.98	7.9
498.413	8
498.846	8.11
499.279	8.22
499.711	8.35
500.144	8.48
500.577	8.6
501.009	8.72
501.442	8.84
501.874	8.99
502.306	9.14
502.739	9.3
503.171	9.45
503.603	9.62
504.036	9.79
504.468	9.95
504.9	10.11
505.332	10.29
505.764	10.5
506.196	10.68
506.627	10.88
507.059	11.06
507.491	11.25
507.923	11.45
508.354	11.66
508.786	11.88
509.217	12.11
509.649	12.33
510.08	12.56
510.512	12.78
510.943	13.02
511.374	13.24
511.805	13.47
512.237	13.7
512.668	13.96
513.099	14.19
513.53	14.42
513.961	14.65
514.391	14.91
514.822	15.16
515.253	15.4
515.684	15.65
516.114	15.9
516.545	16.15
516.975	16.41
517.406	16.65
517.836	16.89
518.267	17.15
518.697	17.38
519.127	17.59
519.558	17.82
519.988	18.06
520.418	18.27
520.848	18.47
521.278	18.68
521.708	19.02
522.138	19.23
522.567	19.41
522.997	19.59
523.427	19.79
523.857	19.98
524.286	20.15
524.716	20.32
525.145	20.49
525.575	20.68
526.004	20.85
526.433	20.85
526.863	20.99
527.292	21.15
527.721	21.29
528.15	21.4
528.579	21.51
529.008	21.63
529.437	21.74
529.866	21.83
530.295	21.93
530.724	22.01
531.152	22.1
531.581	22.19
532.01	22.28
532.438	22.36
532.867	22.45
533.295	22.53
533.723	22.6
534.152	22.66
534.58	22.73
535.008	22.77
535.436	22.82
535.865	22.88
536.293	22.93
536.721	22.97
537.149	23.02
537.576	23.05
538.004	23.09
538.432	23.12
538.86	23.16
539.287	23.19
539.715	23.25
540.143	23.28
540.57	23.31
540.998	23.35
541.425	23.37
541.852	23.39
542.28	23.42
542.707	23.46
543.134	23.49
543.561	23.53
543.988	23.55
544.415	23.55
544.842	23.57
545.269	23.59
545.696	23.6
546.123	23.62
546.549	23.63
546.976	23.65
547.403	23.66
547.829	23.67
548.256	23.66
548.682	23.67
549.108	23.67
549.535	23.69
549.961	23.7
550.387	23.69
550.813	23.7
551.24	23.69
551.666	23.68
552.092	23.67
552.518	23.67
552.943	23.66
553.369	23.64
553.795	23.62
554.221	23.6
554.646	23.56
555.072	23.53
555.498	23.49
555.923	23.47
556.349	23.43
556.774	23.38
557.199	23.33
557.625	23.29
558.05	23.23
558.475	23.2
558.9	23.14
559.325	23.09
559.75	23.05
560.175	22.99
560.6	22.92
561.025	22.85
561.449	22.8
561.874	22.72
562.299	22.63
562.723	22.57
563.148	22.48
563.572	22.39
563.997	22.3
564.421	22.2
564.846	22.09
565.27	22.02
565.694	21.93
566.118	21.81
566.542	21.71
566.966	21.62
567.39	21.53
567.814	21.42
568.238	21.33
568.662	21.22
569.086	21.13
569.509	21.05
569.933	20.96
570.357	20.85
570.78	20.76
571.204	20.65
571.627	20.56
572.05	20.44
572.474	20.36
572.897	20.27
573.32	20.18
573.743	20.09
574.166	20
574.589	19.89
575.012	19.81
575.435	19.72
575.858	19.66
576.281	19.56
576.704	19.48
577.126	19.4
577.549	19.31
577.972	19.22
578.394	19.15
578.817	19.07
579.239	19.01
579.661	18.92
580.084	18.85
580.506	18.78
580.928	18.71
581.35	18.64
581.772	18.57
582.194	18.51
582.616	18.46
583.038	18.39
583.46	18.32
583.882	18.27
584.303	18.22
584.725	18.17
585.147	18.11
585.568	18.07
585.99	18.02
586.411	17.97
586.833	17.91
587.254	17.86
587.675	17.81
588.096	17.77
588.518	17.71
588.939	17.67
589.36	17.63
589.781	17.59
590.202	17.55
590.623	17.51
591.043	17.49
591.464	17.46
591.885	17.43
592.305	17.4
592.726	17.39
593.147	17.36
593.567	17.33
593.987	17.29
594.408	17.25
594.828	17.22
595.248	17.2
595.669	17.18
596.089	17.15
596.509	17.13
596.929	17.1
597.349	17.06
597.769	17.04
598.189	17
598.608	16.98
599.028	16.96
599.448	16.91
599.867	16.88
600.287	16.84
600.706	16.8
601.126	16.76
601.545	16.72
601.965	16.69
602.384	16.64
602.803	16.61
603.222	16.57
603.641	16.52
604.061	16.49
604.48	16.45
604.898	16.38
605.317	16.34
605.736	16.29
606.155	16.23
606.574	16.17
606.992	16.12
607.411	16.06
607.829	15.97
608.248	15.89
608.666	15.82
609.085	15.76
609.503	15.7
609.921	15.64
610.339	15.58
610.758	15.52
611.176	15.45
611.594	15.38
612.012	15.31
612.43	15.27
612.847	15.21
613.265	15.14
613.683	15.08
614.101	15.01
614.518	14.93
614.936	14.85
615.353	14.78
615.771	14.73
616.188	14.67
616.606	14.62
617.023	14.57
617.44	14.52
617.857	14.47
618.274	14.42
618.691	14.37
619.108	14.34
619.525	14.3
619.942	14.28
620.359	14.24
620.776	14.2
621.192	14.17
621.609	14.15
622.026	14.12
622.442	14.1
622.859	14.07
623.275	14.04
623.691	14.02
624.108	14.01
624.524	13.99
624.94	13.98
625.356	13.98
625.772	13.96
626.188	13.94
626.604	13.92
627.02	13.9
627.436	13.9
627.852	13.89
628.268	13.89
628.683	13.87
629.099	13.85
629.514	13.83
629.93	13.81
630.345	13.8
630.761	13.77
631.176	13.75
631.591	13.73
632.007	13.69
632.422	13.65
632.837	13.59
633.252	13.55
633.667	13.5
634.082	13.44
634.497	13.37
634.911	13.29
635.326	13.22
635.741	13.16
636.155	13.05
636.57	12.97
636.984	12.89
637.399	12.79
637.813	12.7
638.228	12.58
638.642	12.48
639.056	12.37
639.47	12.27
639.884	12.16
640.298	12.03
640.712	11.92
641.126	11.8
641.54	11.68
641.954	11.58
642.368	11.46
642.781	11.35
643.195	11.23
643.609	11.13
644.022	11.02
644.436	10.92
644.849	10.81
645.262	10.69
645.676	10.6
646.089	10.51
646.502	10.42
646.915	10.34
647.328	10.26
647.741	10.19
648.154	10.12
648.567	10.06
648.98	9.99
649.393	9.94
649.805	9.9
650.218	9.85
650.631	9.8
651.043	9.74
651.456	9.68
651.868	9.63
652.28	9.58
652.693	9.53
653.105	9.48
653.517	9.43
653.929	9.37
654.341	9.29
654.753	9.22
655.165	9.15
655.577	9.07
655.989	8.99
656.401	8.91
656.813	8.83
657.224	8.73
657.636	8.62
658.047	8.53
658.459	8.42
658.87	8.31
659.282	8.19
659.693	8.09
660.104	7.97
660.515	7.85
660.926	7.75
661.338	7.62
661.749	7.51
662.159	7.41
662.57	7.3
662.981	7.21
663.392	7.12
663.803	7.04
664.213	6.93
664.624	6.85
665.035	6.77
665.445	6.69
665.855	6.62
666.266	6.55
666.676	6.49
667.086	6.41
667.497	6.35
667.907	6.3
668.317	6.26
668.727	6.22
669.137	6.18
669.547	6.14
669.956	6.1
670.366	6.08
670.776	6.05
671.186	6.01
671.595	5.99
672.005	5.97
672.414	5.96
672.824	5.94
673.233	5.94
673.642	5.94
674.052	5.94
674.461	5.94
674.87	5.95
675.279	5.96
675.688	5.99
676.097	6.02
676.506	6.04
676.915	6.06
677.323	6.1
677.732	6.13
678.141	6.17
678.549	6.21
678.958	6.26
679.366	6.33
679.775	6.39
680.183	6.46
680.592	6.55
681	6.66
681.408	6.77
681.816	6.91
682.224	7.05
682.632	7.21
683.04	7.38
683.448	7.56
683.856	7.75
684.264	7.98
684.671	8.25
685.079	8.5
685.487	8.79
685.894	9.09
686.302	9.41
686.709	9.76
687.116	10.13
687.524	10.51
687.931	10.92
688.338	11.35
688.745	11.76
689.152	12.18
689.559	12.66
689.966	13.1
690.373	13.57
690.78	14.05
691.187	14.51
691.593	14.98
692	15.45
692.407	15.91
692.813	16.39
693.22	16.86
693.626	17.33
694.032	17.77
694.439	18.23
694.845	18.66
695.251	19.1
695.657	19.53
696.063	19.96
696.469	20.39
696.875	20.81
697.281	21.21
697.687	21.6
698.093	22
698.498	22.38
698.904	22.74
699.31	23.1
699.715	23.45
700.12	23.79
700.526	24.13
700.931	24.46
701.337	24.79
701.742	25.11
702.147	25.41
702.552	25.71
702.957	25.99
703.362	26.26
703.767	26.53
704.172	26.8
704.577	27.05
704.981	27.28
705.386	27.52
705.791	27.74
706.195	27.98
706.6	28.2
707.004	28.42
707.408	28.64
707.813	28.86
708.217	29.08
708.621	29.29
709.025	29.5
709.43	29.67
709.834	29.87
710.237	30.05
710.641	30.21
711.045	30.39
711.449	30.55
711.853	30.73
712.256	30.88
712.66	31.03
713.064	31.19
713.467	31.34
713.87	31.51
714.274	31.64
714.677	31.79
715.08	31.93
715.484	32.07
715.887	32.21
716.29	32.33
716.693	32.47
717.096	32.6
717.499	32.72
717.901	32.83
718.304	32.94
718.707	33.06
719.109	33.17
719.512	33.28
719.915	33.39
720.317	33.48
720.719	33.57
721.122	33.66
721.524	33.77
721.926	33.87
722.328	33.99
722.731	34.08
723.133	34.16
723.535	34.23
723.937	34.32
724.338	34.4
724.74	34.48
725.142	34.64
725.544	34.71
725.945	34.79
726.347	34.82
726.748	34.87
727.15	34.92
727.551	34.98
727.952	35.03
728.354	35.07
728.755	35.11
729.156	35.14
729.557	35.1
729.958	35.14
730.359	35.17
730.76	35.24
731.161	35.27
731.562	35.32
731.962	35.36
732.363	35.4
732.763	35.45
733.164	35.49
733.564	35.53
733.965	35.56
734.365	35.59
734.766	35.61
735.166	35.62
735.566	35.65
735.966	35.69
736.366	35.72
736.766	35.76
737.166	35.79
737.566	35.81
737.966	35.82
738.365	35.87
738.765	35.9
739.165	35.92
739.564	35.95
739.964	35.96
740.363	35.95
740.763	35.95
741.162	35.97
741.561	35.97
741.96	35.98
742.36	35.99
742.759	36.01
743.158	35.99
743.557	35.98
743.955	35.98
744.354	35.99
744.753	36.02
745.152	36.06
745.55	36.07
745.949	36.09
746.348	36.11
746.746	36.11
747.144	36.1
747.543	36.14
747.941	36.14
748.339	36.13
748.737	36.13
749.136	36.12
749.534	36.09
749.932	36.09
750.33	36.08
750.727	36.07
751.125	36.08
751.523	36.1
751.921	36.08
752.318	36.1
752.716	36.11
753.113	36.13
753.511	36.14
753.908	36.16
754.305	36.16
754.703	36.14
755.1	36.13
755.497	36.13
755.894	36.12
756.291	36.11
756.688	36.08
757.085	36.08
757.482	36.05
757.878	36.06
758.275	36.05
758.672	36.03
759.068	36.04
759.465	36.04
759.861	36.04
760.258	36.03
760.654	36.03
761.05	36.05
761.447	36.06
761.843	36.06
762.239	36.04
762.635	36.04
763.031	36.03
763.427	36.03
763.822	36.04
764.218	36.05
764.614	36.08
765.01	36.08
765.405	36.07
765.801	36.05
766.196	36.07
766.592	36.08
766.987	36.07
767.382	36.07
767.778	36.09
768.173	36.08
768.568	36.05
768.963	36.03
769.358	36.04
769.753	36.03
770.148	36.03
770.542	36.01
770.937	36.01
771.332	36.01
771.726	35.99
772.121	35.98
772.515	35.97
772.91	35.96
773.304	35.96
773.699	35.94
774.093	35.94
774.487	35.92
774.881	35.94
775.275	35.93
775.669	35.92
776.063	35.91
776.457	35.91
776.851	35.9
777.245	35.89
777.638	35.87
778.032	35.87
778.425	35.91
778.819	35.94
779.212	35.93
779.606	35.94
779.999	35.94
780.392	35.97
780.786	35.97
781.179	35.97
781.572	35.98
781.965	35.99
