Data from C_1_HIR_WI_4N_Splice17_12-59-53-460.txt Node
Date: Sat Mar 07 12:59:53 EST 2020
User: sa697716
Spectrometer: NQ5500242
Trigger mode: 0
Integration Time (sec): 1.450000E-1
Scans to average: 20
Nonlinearity correction enabled: false
Boxcar width: 5
Storing dark spectrum: false
XAxis mode: Wavelengths
Number of Pixels in Spectrum: 512
>>>>>Begin Spectral Data<<<<<
187.83	139.96
188.298	151.79
188.766	131.66
189.233	103.61
189.701	100.18
190.169	105.32
190.636	110.58
191.104	147.56
191.571	-17.31
192.039	-304.64
192.506	-560.07
192.974	147.97
193.441	246.51
193.908	43.46
194.375	-19.58
194.842	-26.5
195.31	-34.38
195.777	-32.32
196.244	37.75
196.711	36
197.177	36.65
197.644	36.58
198.111	36.34
198.578	36.04
199.045	36.89
199.511	37.2
199.978	36.95
200.445	37.27
200.911	37.3
201.378	37.34
201.844	37.18
202.31	37.03
202.777	36.97
203.243	37.11
203.709	37.14
204.176	36.95
204.642	36.97
205.108	37.19
205.574	36.89
206.04	36.38
206.506	36.17
206.972	36.24
207.438	35.75
207.903	35.46
208.369	34.82
208.835	34.28
209.301	33.59
209.766	32.52
210.232	31.59
210.697	30.73
211.163	30.22
211.628	29.74
212.094	28.94
212.559	28.67
213.024	28.14
213.49	27.63
213.955	27.06
214.42	26.54
214.885	26.01
215.35	25.19
215.815	24.29
216.28	22.89
216.745	21.2
217.21	19.77
217.675	18.31
218.14	17.16
218.604	16.19
219.069	15.36
219.534	14.66
219.998	14.07
220.463	13.54
220.927	13.05
221.392	12.75
221.856	12.49
222.32	12.23
222.785	12.03
223.249	11.82
223.713	11.62
224.177	11.47
224.642	11.3
225.106	11.11
225.57	10.92
226.034	10.8
226.497	10.63
226.961	10.48
227.425	10.34
227.889	10.19
228.353	10.07
228.816	9.92
229.28	9.77
229.744	9.63
230.207	9.53
230.671	9.43
231.134	9.31
231.597	9.22
232.061	9.11
232.524	9.01
232.987	8.92
233.45	8.84
233.914	8.76
234.377	8.67
234.84	8.59
235.303	8.52
235.766	8.45
236.229	8.36
236.691	8.27
237.154	8.2
237.617	8.13
238.08	8.05
238.542	7.96
239.005	7.89
239.468	7.81
239.93	7.75
240.393	7.67
240.855	7.59
241.317	7.53
241.78	7.45
242.242	7.37
242.704	7.32
243.166	7.26
243.629	7.21
244.091	7.15
244.553	7.09
245.015	7.02
245.477	6.95
245.939	6.9
246.4	6.83
246.862	6.78
247.324	6.74
247.786	6.68
248.247	6.63
248.709	6.56
249.17	6.49
249.632	6.45
250.093	6.41
250.555	6.37
251.016	6.33
251.477	6.29
251.939	6.26
252.4	6.21
252.861	6.17
253.322	6.13
253.783	6.1
254.244	6.07
254.705	6.03
255.166	5.99
255.627	5.95
256.088	5.91
256.549	5.87
257.009	5.82
257.47	5.78
257.931	5.74
258.391	5.7
258.852	5.66
259.312	5.62
259.773	5.59
260.233	5.56
260.694	5.53
261.154	5.5
261.614	5.48
262.074	5.45
262.534	5.42
262.994	5.4
263.455	5.38
263.915	5.36
264.374	5.34
264.834	5.33
265.294	5.31
265.754	5.3
266.214	5.28
266.673	5.27
267.133	5.26
267.593	5.26
268.052	5.25
268.512	5.24
268.971	5.23
269.431	5.21
269.89	5.2
270.349	5.19
270.809	5.17
271.268	5.16
271.727	5.14
272.186	5.13
272.645	5.12
273.104	5.1
273.563	5.08
274.022	5.06
274.481	5.05
274.94	5.04
275.399	5.02
275.857	5.01
276.316	4.99
276.775	4.98
277.233	4.97
277.692	4.96
278.15	4.96
278.609	4.95
279.067	4.93
279.525	4.92
279.984	4.91
280.442	4.9
280.9	4.9
281.358	4.89
281.816	4.88
282.274	4.86
282.732	4.85
283.19	4.83
283.648	4.81
284.106	4.8
284.564	4.79
285.021	4.79
285.479	4.77
285.937	4.75
286.394	4.75
286.852	4.73
287.309	4.71
287.767	4.69
288.224	4.68
288.682	4.66
289.139	4.65
289.596	4.63
290.053	4.6
290.511	4.59
290.968	4.58
291.425	4.55
291.882	4.53
292.339	4.51
292.796	4.51
293.252	4.5
293.709	4.49
294.166	4.48
294.623	4.46
295.079	4.45
295.536	4.45
295.992	4.44
296.449	4.44
296.905	4.43
297.362	4.43
297.818	4.41
298.274	4.41
298.731	4.41
299.187	4.39
299.643	4.39
300.099	4.39
300.555	4.38
301.011	4.37
301.467	4.36
301.923	4.35
302.379	4.35
302.835	4.35
303.291	4.34
303.746	4.33
304.202	4.33
304.658	4.33
305.113	4.32
305.569	4.32
306.024	4.31
306.479	4.3
306.935	4.3
307.39	4.29
307.845	4.28
308.301	4.28
308.756	4.27
309.211	4.27
309.666	4.27
310.121	4.26
310.576	4.26
311.031	4.26
311.486	4.26
311.94	4.26
312.395	4.26
312.85	4.26
313.305	4.26
313.759	4.26
314.214	4.26
314.668	4.25
315.123	4.24
315.577	4.24
316.032	4.23
316.486	4.22
316.94	4.21
317.394	4.2
317.849	4.18
318.303	4.17
318.757	4.15
319.211	4.14
319.665	4.12
320.119	4.11
320.572	4.1
321.026	4.1
321.48	4.1
321.934	4.09
322.387	4.08
322.841	4.08
323.295	4.08
323.748	4.08
324.202	4.08
324.655	4.08
325.108	4.08
325.562	4.07
326.015	4.06
326.468	4.06
326.921	4.06
327.374	4.06
327.827	4.06
328.28	4.06
328.733	4.06
329.186	4.05
329.639	4.06
330.092	4.06
330.545	4.06
330.997	4.06
331.45	4.06
331.903	4.06
332.355	4.07
332.808	4.06
333.26	4.05
333.713	4.04
334.165	4.04
334.617	4.03
335.069	4.02
335.522	4.01
335.974	4.01
336.426	4.01
336.878	3.99
337.33	3.99
337.782	3.99
338.234	4
338.686	4
339.137	4
339.589	3.99
340.041	3.99
340.493	3.99
340.944	3.96
341.396	3.95
341.847	3.95
342.299	3.94
342.75	3.93
343.201	3.91
343.653	3.9
344.104	3.88
344.555	3.88
345.006	3.86
345.457	3.85
345.908	3.85
346.359	3.85
346.81	3.84
347.261	3.83
347.712	3.82
348.163	3.81
348.613	3.81
349.064	3.81
349.515	3.8
349.965	3.8
350.416	3.79
350.866	3.79
351.317	3.78
351.767	3.78
352.217	3.77
352.668	3.77
353.118	3.77
353.568	3.76
354.018	3.76
354.468	3.77
354.918	3.77
355.368	3.78
355.818	3.78
356.268	3.78
356.718	3.78
357.168	3.78
357.617	3.77
358.067	3.76
358.517	3.77
358.966	3.77
359.416	3.76
359.865	3.76
360.315	3.76
360.764	3.75
361.213	3.74
361.663	3.72
362.112	3.72
362.561	3.73
363.01	3.73
363.459	3.71
363.908	3.7
364.357	3.7
364.806	3.69
365.255	3.68
365.703	3.69
366.152	3.69
366.601	3.71
367.05	3.7
367.498	3.69
367.947	3.68
368.395	3.7
368.844	3.69
369.292	3.68
369.74	3.68
370.189	3.68
370.637	3.66
371.085	3.66
371.533	3.64
371.981	3.64
372.429	3.64
372.877	3.64
373.325	3.63
373.773	3.61
374.221	3.61
374.669	3.6
375.116	3.59
375.564	3.59
376.012	3.58
376.459	3.58
376.907	3.59
377.354	3.57
377.801	3.57
378.249	3.56
378.696	3.56
379.143	3.56
379.591	3.57
380.038	3.58
380.485	3.57
380.932	3.57
381.379	3.57
381.826	3.56
382.273	3.57
382.72	3.56
383.166	3.55
383.613	3.55
384.06	3.53
384.506	3.53
384.953	3.52
385.4	3.51
385.846	3.52
386.292	3.51
386.739	3.5
387.185	3.5
387.631	3.51
388.078	3.51
388.524	3.51
388.97	3.51
389.416	3.52
389.862	3.52
390.308	3.53
390.754	3.54
391.2	3.55
391.645	3.55
392.091	3.56
392.537	3.56
392.983	3.56
393.428	3.57
393.874	3.58
394.319	3.59
394.765	3.58
395.21	3.58
395.655	3.59
396.101	3.6
396.546	3.62
396.991	3.62
397.436	3.62
397.881	3.64
398.326	3.65
398.771	3.67
399.216	3.67
399.661	3.69
400.106	3.7
400.551	3.7
400.995	3.7
401.44	3.69
401.885	3.7
402.329	3.72
402.774	3.73
403.218	3.75
403.663	3.76
404.107	3.77
404.551	3.78
404.995	3.79
405.44	3.8
405.884	3.81
406.328	3.84
406.772	3.84
407.216	3.84
407.66	3.84
408.104	3.83
408.547	3.83
408.991	3.85
409.435	3.85
409.879	3.86
410.322	3.88
410.766	3.9
411.209	3.91
411.653	3.94
412.096	3.96
412.54	3.97
412.983	3.99
413.426	4.03
413.869	4.03
414.312	4.07
414.756	4.08
415.199	4.09
415.642	4.1
416.085	4.11
416.527	4.1
416.97	4.09
417.413	4.09
417.856	4.09
418.298	4.09
418.741	4.09
419.184	4.07
419.626	4.07
420.069	4.08
420.511	4.08
420.953	4.1
421.396	4.12
421.838	4.14
422.28	4.15
422.722	4.17
423.164	4.17
423.606	4.18
424.048	4.19
424.49	4.2
424.932	4.2
425.374	4.19
425.816	4.17
426.258	4.15
426.699	4.15
427.141	4.16
427.582	4.16
428.024	4.16
428.465	4.16
428.907	4.15
429.348	4.15
429.789	4.14
430.231	4.17
430.672	4.19
431.113	4.22
431.554	4.22
431.995	4.23
432.436	4.24
432.877	4.25
433.318	4.27
433.759	4.29
434.2	4.32
434.64	4.34
435.081	4.35
435.522	4.36
435.962	4.36
436.403	4.38
436.843	4.38
437.284	4.38
437.724	4.39
438.164	4.37
438.604	4.39
439.045	4.38
439.485	4.39
439.925	4.38
440.365	4.37
440.805	4.38
441.245	4.39
441.685	4.42
442.125	4.44
442.564	4.45
443.004	4.44
443.444	4.43
443.883	4.45
444.323	4.43
444.762	4.44
445.202	4.44
445.641	4.45
446.081	4.45
446.52	4.44
446.959	4.45
447.398	4.46
447.837	4.49
448.276	4.49
448.716	4.51
449.154	4.54
449.593	4.55
450.032	4.55
450.471	4.54
450.91	4.54
451.349	4.54
451.787	4.52
452.226	4.5
452.664	4.5
453.103	4.5
453.541	4.49
453.98	4.5
454.418	4.49
454.856	4.49
455.295	4.48
455.733	4.47
456.171	4.47
456.609	4.46
457.047	4.45
457.485	4.44
457.923	4.44
458.361	4.43
458.798	4.42
459.236	4.43
459.674	4.41
460.111	4.41
460.549	4.43
460.987	4.44
461.424	4.46
461.862	4.47
462.299	4.48
462.736	4.48
463.173	4.48
463.611	4.49
464.048	4.49
464.485	4.51
464.922	4.51
465.359	4.5
465.796	4.51
466.233	4.5
466.67	4.51
467.106	4.52
467.543	4.52
467.98	4.53
468.416	4.52
468.853	4.52
469.29	4.51
469.726	4.51
470.162	4.5
470.599	4.49
471.035	4.48
471.471	4.46
471.907	4.43
472.344	4.43
472.78	4.44
473.216	4.42
473.652	4.42
474.088	4.4
474.523	4.4
474.959	4.4
475.395	4.39
475.831	4.39
476.266	4.39
476.702	4.39
477.138	4.39
477.573	4.38
478.008	4.38
478.444	4.37
478.879	4.39
479.314	4.37
479.75	4.36
480.185	4.34
480.62	4.34
481.055	4.33
481.49	4.32
481.925	4.31
482.36	4.31
482.795	4.3
483.229	4.29
483.664	4.29
484.099	4.3
484.534	4.3
484.968	4.31
485.403	4.3
485.837	4.29
486.271	4.3
486.706	4.31
487.14	4.31
487.574	4.32
488.009	4.33
488.443	4.34
488.877	4.35
489.311	4.37
489.745	4.38
490.179	4.4
490.613	4.42
491.046	4.44
491.48	4.46
491.914	4.49
492.348	4.51
492.781	4.54
493.215	4.57
493.648	4.59
494.082	4.62
494.515	4.65
494.948	4.68
495.382	4.7
495.815	4.75
496.248	4.78
496.681	4.82
497.114	4.87
497.547	4.91
497.98	4.96
498.413	5
498.846	5.05
499.279	5.1
499.711	5.15
500.144	5.23
500.577	5.28
501.009	5.35
501.442	5.42
501.874	5.49
502.306	5.57
502.739	5.66
503.171	5.75
503.603	5.85
504.036	5.95
504.468	6.05
504.9	6.15
505.332	6.26
505.764	6.37
506.196	6.5
506.627	6.62
507.059	6.76
507.491	6.88
507.923	7.03
508.354	7.18
508.786	7.34
509.217	7.51
509.649	7.67
510.08	7.85
510.512	8.03
510.943	8.2
511.374	8.4
511.805	8.59
512.237	8.78
512.668	8.98
513.099	9.18
513.53	9.39
513.961	9.6
514.391	9.82
514.822	10.06
515.253	10.28
515.684	10.51
516.114	10.75
516.545	10.98
516.975	11.24
517.406	11.48
517.836	11.72
518.267	11.98
518.697	12.22
519.127	12.47
519.558	12.68
519.988	12.94
520.418	13.17
520.848	13.41
521.278	13.65
521.708	14.09
522.138	14.32
522.567	14.54
522.997	14.76
523.427	14.98
523.857	15.21
524.286	15.43
524.716	15.64
525.145	15.86
525.575	16.05
526.004	16.25
526.433	16.22
526.863	16.4
527.292	16.58
527.721	16.74
528.15	16.89
528.579	17.04
529.008	17.19
529.437	17.32
529.866	17.45
530.295	17.58
530.724	17.7
531.152	17.83
531.581	17.95
532.01	18.07
532.438	18.18
532.867	18.28
533.295	18.37
533.723	18.47
534.152	18.57
534.58	18.66
535.008	18.73
535.436	18.81
535.865	18.87
536.293	18.94
536.721	18.99
537.149	19.06
537.576	19.13
538.004	19.2
538.432	19.23
538.86	19.26
539.287	19.29
539.715	19.36
540.143	19.39
540.57	19.44
540.998	19.47
541.425	19.52
541.852	19.55
542.28	19.59
542.707	19.61
543.134	19.64
543.561	19.69
543.988	19.73
544.415	19.74
544.842	19.77
545.269	19.79
545.696	19.82
546.123	19.84
546.549	19.85
546.976	19.87
547.403	19.9
547.829	19.93
548.256	19.93
548.682	19.94
549.108	19.96
549.535	19.98
549.961	19.99
550.387	19.99
550.813	20
551.24	20
551.666	19.98
552.092	19.96
552.518	19.95
552.943	19.95
553.369	19.93
553.795	19.92
554.221	19.89
554.646	19.87
555.072	19.84
555.498	19.79
555.923	19.74
556.349	19.69
556.774	19.64
557.199	19.59
557.625	19.51
558.05	19.44
558.475	19.36
558.9	19.29
559.325	19.22
559.75	19.14
560.175	19.06
560.6	18.98
561.025	18.9
561.449	18.81
561.874	18.71
562.299	18.62
562.723	18.51
563.148	18.39
563.572	18.27
563.997	18.15
564.421	18.02
564.846	17.9
565.27	17.76
565.694	17.65
566.118	17.51
566.542	17.38
566.966	17.24
567.39	17.12
567.814	16.99
568.238	16.86
568.662	16.72
569.086	16.6
569.509	16.48
569.933	16.36
570.357	16.23
570.78	16.1
571.204	15.98
571.627	15.86
572.05	15.74
572.474	15.64
572.897	15.53
573.32	15.43
573.743	15.31
574.166	15.19
574.589	15.07
575.012	14.96
575.435	14.86
575.858	14.76
576.281	14.66
576.704	14.57
577.126	14.47
577.549	14.37
577.972	14.28
578.394	14.19
578.817	14.11
579.239	14.04
579.661	13.97
580.084	13.9
580.506	13.82
580.928	13.76
581.35	13.69
581.772	13.61
582.194	13.55
582.616	13.48
583.038	13.41
583.46	13.34
583.882	13.28
584.303	13.21
584.725	13.14
585.147	13.08
585.568	13.02
585.99	12.96
586.411	12.9
586.833	12.84
587.254	12.77
587.675	12.72
588.096	12.68
588.518	12.63
588.939	12.58
589.36	12.53
589.781	12.49
590.202	12.45
590.623	12.42
591.043	12.39
591.464	12.37
591.885	12.35
592.305	12.32
592.726	12.3
593.147	12.27
593.567	12.24
593.987	12.22
594.408	12.19
594.828	12.16
595.248	12.13
595.669	12.11
596.089	12.08
596.509	12.05
596.929	12.03
597.349	11.99
597.769	11.97
598.189	11.94
598.608	11.92
599.028	11.89
599.448	11.86
599.867	11.82
600.287	11.78
600.706	11.74
601.126	11.69
601.545	11.66
601.965	11.63
602.384	11.58
602.803	11.52
603.222	11.47
603.641	11.42
604.061	11.37
604.48	11.31
604.898	11.26
605.317	11.2
605.736	11.15
606.155	11.08
606.574	11.01
606.992	10.94
607.411	10.9
607.829	10.8
608.248	10.73
608.666	10.67
609.085	10.61
609.503	10.55
609.921	10.49
610.339	10.43
610.758	10.38
611.176	10.31
611.594	10.25
612.012	10.17
612.43	10.14
612.847	10.07
613.265	10
613.683	9.93
614.101	9.88
614.518	9.81
614.936	9.74
615.353	9.67
615.771	9.62
616.188	9.55
616.606	9.52
617.023	9.46
617.44	9.42
617.857	9.37
618.274	9.32
618.691	9.27
619.108	9.23
619.525	9.19
619.942	9.16
620.359	9.12
620.776	9.1
621.192	9.05
621.609	9.03
622.026	9.01
622.442	8.99
622.859	8.97
623.275	8.96
623.691	8.94
624.108	8.93
624.524	8.91
624.94	8.91
625.356	8.89
625.772	8.89
626.188	8.87
626.604	8.86
627.02	8.85
627.436	8.85
627.852	8.84
628.268	8.83
628.683	8.83
629.099	8.82
629.514	8.81
629.93	8.81
630.345	8.8
630.761	8.78
631.176	8.75
631.591	8.73
632.007	8.7
632.422	8.67
632.837	8.64
633.252	8.6
633.667	8.55
634.082	8.5
634.497	8.45
634.911	8.4
635.326	8.36
635.741	8.31
636.155	8.24
636.57	8.19
636.984	8.13
637.399	8.05
637.813	7.98
638.228	7.91
638.642	7.82
639.056	7.74
639.47	7.66
639.884	7.58
640.298	7.51
640.712	7.42
641.126	7.33
641.54	7.25
641.954	7.17
642.368	7.08
642.781	7.01
643.195	6.94
643.609	6.86
644.022	6.78
644.436	6.71
644.849	6.63
645.262	6.57
645.676	6.51
646.089	6.45
646.502	6.4
646.915	6.36
647.328	6.31
647.741	6.26
648.154	6.22
648.567	6.18
648.98	6.15
649.393	6.12
649.805	6.08
650.218	6.05
650.631	6.02
651.043	5.99
651.456	5.95
651.868	5.92
652.28	5.89
652.693	5.86
653.105	5.83
653.517	5.8
653.929	5.76
654.341	5.73
654.753	5.68
655.165	5.64
655.577	5.6
655.989	5.54
656.401	5.49
656.813	5.45
657.224	5.4
657.636	5.33
658.047	5.28
658.459	5.21
658.87	5.15
659.282	5.09
659.693	5.04
660.104	4.98
660.515	4.94
660.926	4.88
661.338	4.82
661.749	4.77
662.159	4.72
662.57	4.69
662.981	4.65
663.392	4.62
663.803	4.58
664.213	4.54
664.624	4.52
665.035	4.49
665.445	4.48
665.855	4.46
666.266	4.44
666.676	4.43
667.086	4.4
667.497	4.38
667.907	4.36
668.317	4.36
668.727	4.35
669.137	4.34
669.547	4.33
669.956	4.31
670.366	4.31
670.776	4.3
671.186	4.3
671.595	4.31
672.005	4.32
672.414	4.33
672.824	4.33
673.233	4.33
673.642	4.35
674.052	4.36
674.461	4.37
674.87	4.38
675.279	4.4
675.688	4.42
676.097	4.44
676.506	4.45
676.915	4.47
677.323	4.5
677.732	4.52
678.141	4.54
678.549	4.56
678.958	4.58
679.366	4.62
679.775	4.64
680.183	4.68
680.592	4.72
681	4.77
681.408	4.82
681.816	4.87
682.224	4.93
682.632	5
683.04	5.06
683.448	5.14
683.856	5.22
684.264	5.32
684.671	5.43
685.079	5.54
685.487	5.68
685.894	5.83
686.302	6
686.709	6.19
687.116	6.39
687.524	6.62
687.931	6.88
688.338	7.16
688.745	7.43
689.152	7.73
689.559	8.08
689.966	8.43
690.373	8.78
690.78	9.16
691.187	9.56
691.593	9.98
692	10.4
692.407	10.82
692.813	11.27
693.22	11.74
693.626	12.23
694.032	12.69
694.439	13.18
694.845	13.68
695.251	14.17
695.657	14.66
696.063	15.17
696.469	15.68
696.875	16.2
697.281	16.7
697.687	17.2
698.093	17.7
698.498	18.19
698.904	18.68
699.31	19.16
699.715	19.66
700.12	20.15
700.526	20.62
700.931	21.1
701.337	21.56
701.742	22.01
702.147	22.46
702.552	22.91
702.957	23.34
703.362	23.77
703.767	24.19
704.172	24.6
704.577	25
704.981	25.4
705.386	25.81
705.791	26.22
706.195	26.62
706.6	27.02
707.004	27.4
707.408	27.79
707.813	28.18
708.217	28.56
708.621	28.92
709.025	29.29
709.43	29.66
709.834	30.02
710.237	30.35
710.641	30.69
711.045	31.03
711.449	31.39
711.853	31.73
712.256	32.03
712.66	32.34
713.064	32.66
713.467	32.98
713.87	33.28
714.274	33.55
714.677	33.86
715.08	34.15
715.484	34.43
715.887	34.72
716.29	34.96
716.693	35.23
717.096	35.51
717.499	35.77
717.901	36
718.304	36.25
718.707	36.51
719.109	36.77
719.512	37.01
719.915	37.24
720.317	37.44
720.719	37.67
721.122	37.88
721.524	38.07
721.926	38.28
722.328	38.49
722.731	38.69
723.133	38.88
723.535	39.04
723.937	39.22
724.338	39.38
724.74	39.54
725.142	39.8
725.544	39.97
725.945	40.18
726.347	40.31
726.748	40.45
727.15	40.59
727.551	40.76
727.952	40.87
728.354	41
728.755	41.13
729.156	41.25
729.557	41.27
729.958	41.38
730.359	41.45
730.76	41.59
731.161	41.68
731.562	41.79
731.962	41.83
732.363	41.94
732.763	42.02
733.164	42.1
733.564	42.21
733.965	42.29
734.365	42.37
734.766	42.45
735.166	42.51
735.566	42.58
735.966	42.65
736.366	42.71
736.766	42.78
737.166	42.83
737.566	42.89
737.966	42.93
738.365	43
738.765	43.05
739.165	43.06
739.564	43.1
739.964	43.14
740.363	43.17
740.763	43.22
741.162	43.25
741.561	43.29
741.96	43.32
742.36	43.36
742.759	43.38
743.158	43.4
743.557	43.44
743.955	43.49
744.354	43.53
744.753	43.57
745.152	43.62
745.55	43.67
745.949	43.72
746.348	43.75
746.746	43.76
747.144	43.79
747.543	43.81
747.941	43.83
748.339	43.82
748.737	43.83
749.136	43.82
749.534	43.82
749.932	43.82
750.33	43.81
750.727	43.83
751.125	43.85
751.523	43.85
751.921	43.88
752.318	43.9
752.716	43.92
753.113	43.94
753.511	43.98
753.908	44
754.305	44.03
754.703	44.05
755.1	44.05
755.497	44.06
755.894	44.07
756.291	44.09
756.688	44.1
757.085	44.13
757.482	44.13
757.878	44.13
758.275	44.14
758.672	44.12
759.068	44.14
759.465	44.14
759.861	44.15
760.258	44.17
760.654	44.19
761.05	44.21
761.447	44.21
761.843	44.2
762.239	44.21
762.635	44.21
763.031	44.22
763.427	44.18
763.822	44.2
764.218	44.23
764.614	44.23
765.01	44.19
765.405	44.17
765.801	44.16
766.196	44.19
766.592	44.18
766.987	44.18
767.382	44.17
767.778	44.19
768.173	44.17
768.568	44.14
768.963	44.13
769.358	44.15
769.753	44.17
770.148	44.19
770.542	44.19
770.937	44.18
771.332	44.17
771.726	44.19
772.121	44.2
772.515	44.21
772.91	44.19
773.304	44.2
773.699	44.2
774.093	44.19
774.487	44.17
774.881	44.18
775.275	44.19
775.669	44.18
776.063	44.17
776.457	44.17
776.851	44.15
777.245	44.16
777.638	44.15
778.032	44.15
778.425	44.16
778.819	44.15
779.212	44.16
779.606	44.16
779.999	44.18
780.392	44.21
780.786	44.21
781.179	44.26
781.572	44.28
781.965	44.31
782.358	44.31
782.751	44.31
783.143	44.34
783.536	44.33
783.929	44.34
784.322	44.37
784.714	44.36
