Data from C_1_HIR_IL_4N_Splice17_12-49-35-916.txt Node
Date: Sat Mar 07 12:49:35 EST 2020
User: sa697716
Spectrometer: NQ5500242
Trigger mode: 0
Integration Time (sec): 1.450000E-1
Scans to average: 20
Nonlinearity correction enabled: false
Boxcar width: 5
Storing dark spectrum: false
XAxis mode: Wavelengths
Number of Pixels in Spectrum: 512
>>>>>Begin Spectral Data<<<<<
187.83	31.44
188.298	35.23
188.766	10.63
189.233	13.95
189.701	6.11
190.169	26.78
190.636	13.29
191.104	-46.89
191.571	-11.21
192.039	-49.36
192.506	-247.36
192.974	42.66
193.441	56.87
193.908	-69.77
194.375	-48.28
194.842	-88.54
195.31	-42.28
195.777	-151.37
196.244	38.23
196.711	51.03
197.177	53.37
197.644	52.78
198.111	52.24
198.578	51.51
199.045	51.56
199.511	51.28
199.978	51.05
200.445	50.88
200.911	50.97
201.378	50.93
201.844	50.41
202.31	49.56
202.777	49.29
203.243	49.25
203.709	48.76
204.176	48.28
204.642	47.9
205.108	47.68
205.574	47.36
206.04	46.58
206.506	45.87
206.972	45.51
207.438	45
207.903	44.21
208.369	42.92
208.835	42.13
209.301	40.69
209.766	39.51
210.232	38.21
210.697	36.83
211.163	35.87
211.628	34.89
212.094	33.9
212.559	33.08
213.024	32.15
213.49	31.34
213.955	30.46
214.42	29.9
214.885	28.77
215.35	27.46
215.815	25.78
216.28	23.52
216.745	21.17
217.21	18.85
217.675	16.68
218.14	14.77
218.604	13.14
219.069	11.8
219.534	10.61
219.998	9.69
220.463	8.91
220.927	8.2
221.392	7.72
221.856	7.32
222.32	6.95
222.785	6.62
223.249	6.35
223.713	6.1
224.177	5.88
224.642	5.7
225.106	5.49
225.57	5.31
226.034	5.18
226.497	5.03
226.961	4.87
227.425	4.73
227.889	4.61
228.353	4.49
228.816	4.38
229.28	4.28
229.744	4.18
230.207	4.09
230.671	4
231.134	3.93
231.597	3.87
232.061	3.8
232.524	3.73
232.987	3.68
233.45	3.64
233.914	3.59
234.377	3.53
234.84	3.48
235.303	3.46
235.766	3.43
236.229	3.38
236.691	3.33
237.154	3.3
237.617	3.27
238.08	3.23
238.542	3.18
239.005	3.14
239.468	3.11
239.93	3.08
240.393	3.04
240.855	3
241.317	2.97
241.78	2.94
242.242	2.9
242.704	2.88
243.166	2.85
243.629	2.83
244.091	2.8
244.553	2.78
245.015	2.76
245.477	2.72
245.939	2.7
246.4	2.68
246.862	2.66
247.324	2.63
247.786	2.6
248.247	2.58
248.709	2.55
249.17	2.52
249.632	2.5
250.093	2.48
250.555	2.47
251.016	2.46
251.477	2.44
251.939	2.43
252.4	2.42
252.861	2.41
253.322	2.4
253.783	2.39
254.244	2.39
254.705	2.37
255.166	2.36
255.627	2.34
256.088	2.33
256.549	2.32
257.009	2.3
257.47	2.28
257.931	2.26
258.391	2.23
258.852	2.2
259.312	2.18
259.773	2.16
260.233	2.15
260.694	2.14
261.154	2.11
261.614	2.09
262.074	2.07
262.534	2.05
262.994	2.04
263.455	2.03
263.915	2.02
264.374	2.01
264.834	2
265.294	1.98
265.754	1.97
266.214	1.96
266.673	1.95
267.133	1.95
267.593	1.95
268.052	1.94
268.512	1.94
268.971	1.93
269.431	1.92
269.89	1.91
270.349	1.91
270.809	1.9
271.268	1.89
271.727	1.89
272.186	1.89
272.645	1.88
273.104	1.87
273.563	1.87
274.022	1.87
274.481	1.87
274.94	1.87
275.399	1.86
275.857	1.86
276.316	1.86
276.775	1.86
277.233	1.86
277.692	1.86
278.15	1.86
278.609	1.86
279.067	1.86
279.525	1.87
279.984	1.87
280.442	1.87
280.9	1.87
281.358	1.88
281.816	1.88
282.274	1.88
282.732	1.87
283.19	1.87
283.648	1.87
284.106	1.87
284.564	1.86
285.021	1.87
285.479	1.87
285.937	1.87
286.394	1.87
286.852	1.86
287.309	1.86
287.767	1.86
288.224	1.85
288.682	1.84
289.139	1.84
289.596	1.83
290.053	1.8
290.511	1.8
290.968	1.79
291.425	1.78
291.882	1.77
292.339	1.76
292.796	1.75
293.252	1.74
293.709	1.74
294.166	1.73
294.623	1.73
295.079	1.73
295.536	1.72
295.992	1.72
296.449	1.72
296.905	1.72
297.362	1.71
297.818	1.71
298.274	1.71
298.731	1.7
299.187	1.7
299.643	1.69
300.099	1.69
300.555	1.68
301.011	1.68
301.467	1.68
301.923	1.67
302.379	1.67
302.835	1.67
303.291	1.67
303.746	1.67
304.202	1.68
304.658	1.68
305.113	1.68
305.569	1.68
306.024	1.68
306.479	1.69
306.935	1.69
307.39	1.69
307.845	1.7
308.301	1.7
308.756	1.7
309.211	1.7
309.666	1.72
310.121	1.72
310.576	1.72
311.031	1.73
311.486	1.73
311.94	1.74
312.395	1.74
312.85	1.75
313.305	1.75
313.759	1.76
314.214	1.76
314.668	1.75
315.123	1.75
315.577	1.75
316.032	1.75
316.486	1.74
316.94	1.74
317.394	1.74
317.849	1.73
318.303	1.72
318.757	1.71
319.211	1.7
319.665	1.69
320.119	1.69
320.572	1.68
321.026	1.67
321.48	1.67
321.934	1.66
322.387	1.65
322.841	1.64
323.295	1.65
323.748	1.65
324.202	1.66
324.655	1.66
325.108	1.66
325.562	1.66
326.015	1.66
326.468	1.66
326.921	1.67
327.374	1.67
327.827	1.68
328.28	1.68
328.733	1.68
329.186	1.68
329.639	1.68
330.092	1.69
330.545	1.7
330.997	1.7
331.45	1.7
331.903	1.71
332.355	1.73
332.808	1.73
333.26	1.73
333.713	1.73
334.165	1.73
334.617	1.74
335.069	1.73
335.522	1.74
335.974	1.75
336.426	1.74
336.878	1.74
337.33	1.73
337.782	1.74
338.234	1.75
338.686	1.75
339.137	1.75
339.589	1.74
340.041	1.74
340.493	1.73
340.944	1.72
341.396	1.71
341.847	1.71
342.299	1.7
342.75	1.68
343.201	1.67
343.653	1.67
344.104	1.65
344.555	1.65
345.006	1.64
345.457	1.65
345.908	1.65
346.359	1.65
346.81	1.65
347.261	1.64
347.712	1.64
348.163	1.64
348.613	1.64
349.064	1.64
349.515	1.64
349.965	1.64
350.416	1.65
350.866	1.65
351.317	1.64
351.767	1.65
352.217	1.65
352.668	1.66
353.118	1.66
353.568	1.65
354.018	1.66
354.468	1.67
354.918	1.67
355.368	1.68
355.818	1.68
356.268	1.68
356.718	1.68
357.168	1.68
357.617	1.68
358.067	1.68
358.517	1.7
358.966	1.71
359.416	1.71
359.865	1.71
360.315	1.71
360.764	1.72
361.213	1.72
361.663	1.72
362.112	1.72
362.561	1.73
363.01	1.73
363.459	1.71
363.908	1.71
364.357	1.71
364.806	1.71
365.255	1.72
365.703	1.72
366.152	1.73
366.601	1.74
367.05	1.75
367.498	1.75
367.947	1.75
368.395	1.77
368.844	1.78
369.292	1.78
369.74	1.79
370.189	1.78
370.637	1.78
371.085	1.78
371.533	1.78
371.981	1.79
372.429	1.79
372.877	1.79
373.325	1.79
373.773	1.78
374.221	1.79
374.669	1.79
375.116	1.79
375.564	1.79
376.012	1.79
376.459	1.79
376.907	1.8
377.354	1.8
377.801	1.82
378.249	1.82
378.696	1.83
379.143	1.84
379.591	1.86
380.038	1.88
380.485	1.9
380.932	1.92
381.379	1.94
381.826	1.96
382.273	2
382.72	2.02
383.166	2.05
383.613	2.11
384.06	2.16
384.506	2.24
384.953	2.33
385.4	2.45
385.846	2.6
386.292	2.78
386.739	2.99
387.185	3.22
387.631	3.47
388.078	3.69
388.524	3.9
388.97	4.12
389.416	4.4
389.862	4.8
390.308	5.32
390.754	5.92
391.2	6.53
391.645	7.08
392.091	7.58
392.537	8.15
392.983	8.97
393.428	10.1
393.874	11.46
394.319	13
394.765	14.58
395.21	16.19
395.655	17.9
396.101	19.76
396.546	21.81
396.991	24.1
397.436	26.5
397.881	28.91
398.326	31.15
398.771	33.26
399.216	35.2
399.661	36.96
400.106	38.51
400.551	39.85
400.995	41
401.44	42.05
401.885	43.07
402.329	44.06
402.774	45.11
403.218	46.27
403.663	47.48
404.107	48.79
404.551	50.09
404.995	51.36
405.44	52.61
405.884	53.92
406.328	55.38
406.772	56.93
407.216	58.55
407.66	59.98
408.104	61.22
408.547	62.32
408.991	63.36
409.435	64.51
409.879	65.85
410.322	67.41
410.766	68.99
411.209	70.48
411.653	71.8
412.096	72.99
412.54	74.16
412.983	75.45
413.426	76.82
413.869	78.16
414.312	79.46
414.756	80.6
415.199	81.52
415.642	82.33
416.085	82.94
416.527	83.32
416.97	83.42
417.413	83.32
417.856	83.1
418.298	82.9
418.741	82.87
419.184	82.93
419.626	83.18
420.069	83.47
420.511	83.87
420.953	84.33
421.396	85.11
421.838	86.18
422.28	87.34
422.722	88.56
423.164	89.63
423.606	90.48
424.048	91.07
424.49	91.16
424.932	90.71
425.374	89.43
425.816	87.76
426.258	86.02
426.699	84.84
427.141	84.65
427.582	85.26
428.024	86.3
428.465	87.36
428.907	88.23
429.348	89.08
429.789	90.5
430.231	93
430.672	96.33
431.113	99.98
431.554	103.18
431.995	105.54
432.436	107.11
432.877	108.36
433.318	109.52
433.759	110.99
434.2	112.83
434.64	114.8
435.081	116.54
435.522	118.05
435.962	119.13
436.403	120.14
436.843	120.88
437.284	121.56
437.724	122.36
438.164	123.41
438.604	124.65
439.045	125.79
439.485	126.68
439.925	127.36
440.365	127.82
440.805	128.21
441.245	128.35
441.685	128.83
442.125	129.23
442.564	129.7
443.004	130.03
443.444	130.53
443.883	131.07
444.323	131.68
444.762	132.34
445.202	132.99
445.641	133.81
446.081	135.03
446.52	135.81
446.959	136.79
447.398	137.45
447.837	137.59
448.276	137.28
448.716	136.88
449.154	136.56
449.593	136.14
450.032	135.44
450.471	134.43
450.91	133.16
451.349	131.93
451.787	130.68
452.226	129.44
452.664	128.43
453.103	127.52
453.541	126.3
453.98	124.96
454.418	123.46
454.856	122.1
455.295	121.1
455.733	119.9
456.171	118.93
456.609	118.12
457.047	116.98
457.485	116.37
457.923	115.98
458.361	115.84
458.798	115.9
459.236	115.95
459.674	116.25
460.111	116.31
460.549	116.79
460.987	117.2
461.424	117.46
461.862	118.14
462.299	118.49
462.736	118.79
463.173	119.39
463.611	120
464.048	120.86
464.485	121.64
464.922	122.48
465.359	123.26
465.796	123.89
466.233	124.85
466.67	125.66
467.106	126.53
467.543	127.36
467.98	127.97
468.416	128.5
468.853	128.87
469.29	129.14
469.726	129.46
470.162	129.65
470.599	129.7
471.035	129.5
471.471	129.23
471.907	128.81
472.344	128.37
472.78	127.76
473.216	127.03
473.652	126.32
474.088	125.46
474.523	124.41
474.959	123.38
475.395	122.32
475.831	121.22
476.266	120.1
476.702	118.99
477.138	117.7
477.573	116.42
478.008	115.07
478.444	113.56
478.879	112.1
479.314	110.68
479.75	109.16
480.185	107.62
480.62	105.97
481.055	104.22
481.49	102.24
481.925	100.3
482.36	98.49
482.795	96.91
483.229	95.57
483.664	94.28
484.099	92.99
484.534	91.81
484.968	90.86
485.403	89.96
485.837	89.36
486.271	88.94
486.706	88.5
487.14	88.16
487.574	87.68
488.009	87.15
488.443	86.64
488.877	86.24
489.311	85.89
489.745	85.55
490.179	85.35
490.613	85.09
491.046	84.94
491.48	84.89
491.914	84.8
492.348	84.81
492.781	84.85
493.215	84.94
493.648	85
494.082	85.06
494.515	85.13
494.948	85.2
495.382	85.25
495.815	85.27
496.248	85.37
496.681	85.43
497.114	85.45
497.547	85.47
497.98	85.52
498.413	85.62
498.846	85.78
499.279	85.88
499.711	85.99
500.144	86.16
500.577	86.37
501.009	86.61
501.442	86.96
501.874	87.24
502.306	87.63
502.739	87.95
503.171	88.35
503.603	88.6
504.036	88.91
504.468	89.26
504.9	89.62
505.332	89.96
505.764	90.27
506.196	90.54
506.627	90.91
507.059	91.26
507.491	91.61
507.923	91.84
508.354	92.24
508.786	92.62
509.217	92.95
509.649	93.31
510.08	93.66
510.512	94.06
510.943	94.5
511.374	94.94
511.805	95.24
512.237	95.53
512.668	95.87
513.099	96.14
513.53	96.45
513.961	96.82
514.391	97.16
514.822	97.53
515.253	97.88
515.684	98.2
516.114	98.57
516.545	98.93
516.975	99.36
517.406	99.76
517.836	100.17
518.267	100.5
518.697	100.76
519.127	100.98
519.558	101.19
519.988	101.4
520.418	101.58
520.848	101.66
521.278	101.79
521.708	101.78
522.138	101.88
522.567	101.91
522.997	101.97
523.427	102.11
523.857	102.22
524.286	102.41
524.716	102.57
525.145	102.68
525.575	102.91
526.004	103.11
526.433	103.46
526.863	103.78
527.292	104.06
527.721	104.29
528.15	104.43
528.579	104.53
529.008	104.65
529.437	104.68
529.866	104.78
530.295	104.85
530.724	104.94
531.152	105
531.581	105.04
532.01	105.1
532.438	105.13
532.867	105.26
533.295	105.39
533.723	105.48
534.152	105.62
534.58	105.68
535.008	105.68
535.436	105.71
535.865	105.67
536.293	105.63
536.721	105.67
537.149	105.78
537.576	105.98
538.004	106.22
538.432	106.34
538.86	106.5
539.287	106.68
539.715	106.94
540.143	107.26
540.57	107.67
540.998	108.08
541.425	108.39
541.852	108.81
542.28	109.14
542.707	109.48
543.134	109.88
543.561	110.19
543.988	110.54
544.415	110.9
544.842	111.24
545.269	111.55
545.696	111.87
546.123	112.32
546.549	112.61
546.976	112.88
547.403	113.11
547.829	113.4
548.256	113.72
548.682	113.98
549.108	114.31
549.535	114.62
549.961	114.82
550.387	115.02
550.813	115.2
551.24	115.41
551.666	115.54
552.092	115.67
552.518	115.8
552.943	115.86
553.369	115.97
553.795	116.01
554.221	115.94
554.646	115.9
555.072	115.73
555.498	115.53
555.923	115.37
556.349	115.21
556.774	115.03
557.199	114.77
557.625	114.6
558.05	114.34
558.475	114.03
558.9	113.75
559.325	113.47
559.75	113.19
560.175	112.87
560.6	112.47
561.025	111.98
561.449	111.48
561.874	110.92
562.299	110.3
562.723	109.73
563.148	109.04
563.572	108.29
563.997	107.55
564.421	106.73
564.846	105.98
565.27	105.16
565.694	104.44
566.118	103.58
566.542	102.83
566.966	102.04
567.39	101.27
567.814	100.61
568.238	100.08
568.662	99.55
569.086	99.13
569.509	98.77
569.933	98.5
570.357	98.28
570.78	98.15
571.204	98.05
571.627	98.07
572.05	98.12
572.474	98.23
572.897	98.4
573.32	98.54
573.743	98.75
574.166	98.91
574.589	99.11
575.012	99.32
575.435	99.67
575.858	99.97
576.281	100.31
576.704	100.66
577.126	100.96
577.549	101.2
577.972	101.57
578.394	101.91
578.817	102.24
579.239	102.61
579.661	102.97
580.084	103.21
580.506	103.55
580.928	103.81
581.35	104.09
581.772	104.32
582.194	104.58
582.616	104.8
583.038	105.08
583.46	105.29
583.882	105.43
584.303	105.47
584.725	105.54
585.147	105.47
585.568	105.47
585.99	105.42
586.411	105.54
586.833	105.57
587.254	105.59
587.675	105.58
588.096	105.63
588.518	105.69
588.939	105.83
589.36	105.94
589.781	106.09
590.202	106.13
590.623	106.16
591.043	105.99
591.464	105.87
591.885	105.69
592.305	105.54
592.726	105.28
593.147	104.92
593.567	104.54
593.987	104.06
594.408	103.59
594.828	103.15
595.248	102.63
595.669	102.05
596.089	101.39
596.509	100.78
596.929	100.05
597.349	99.36
597.769	98.67
598.189	97.99
598.608	97.45
599.028	96.87
599.448	96.33
599.867	95.82
600.287	95.45
600.706	95.03
601.126	94.6
601.545	94.29
601.965	94.02
602.384	93.82
602.803	93.62
603.222	93.38
603.641	93.19
604.061	93.05
604.48	92.89
604.898	92.77
605.317	92.72
605.736	92.68
606.155	92.63
606.574	92.57
606.992	92.55
607.411	92.54
607.829	92.57
608.248	92.62
608.666	92.61
609.085	92.63
609.503	92.59
609.921	92.61
610.339	92.61
610.758	92.62
611.176	92.63
611.594	92.61
612.012	92.58
612.43	92.49
612.847	92.44
613.265	92.39
613.683	92.4
614.101	92.46
614.518	92.46
614.936	92.47
615.353	92.45
615.771	92.47
616.188	92.51
616.606	92.56
617.023	92.66
617.44	92.71
617.857	92.7
618.274	92.69
618.691	92.62
619.108	92.55
619.525	92.47
619.942	92.37
620.359	92.23
620.776	92.04
621.192	91.87
621.609	91.71
622.026	91.53
622.442	91.47
622.859	91.34
623.275	91.2
623.691	91.05
624.108	90.96
624.524	90.89
624.94	90.84
625.356	90.78
625.772	90.72
626.188	90.72
626.604	90.68
627.02	90.61
627.436	90.55
627.852	90.58
628.268	90.6
628.683	90.68
629.099	90.77
629.514	90.83
629.93	90.93
630.345	91.07
630.761	91.11
631.176	91.21
631.591	91.26
632.007	91.39
632.422	91.49
632.837	91.61
633.252	91.68
633.667	91.78
634.082	91.84
634.497	91.97
634.911	92.02
635.326	92.06
635.741	92.08
636.155	92.08
636.57	92.04
636.984	92.02
637.399	91.94
637.813	91.89
638.228	91.76
638.642	91.69
639.056	91.55
639.47	91.5
639.884	91.41
640.298	91.33
640.712	91.31
641.126	91.22
641.54	91.11
641.954	91.01
642.368	90.86
642.781	90.72
643.195	90.59
643.609	90.44
644.022	90.28
644.436	90.12
644.849	89.96
645.262	89.72
645.676	89.55
646.089	89.45
646.502	89.39
646.915	89.34
647.328	89.32
647.741	89.24
648.154	89.2
648.567	89.12
648.98	89.1
649.393	89.09
649.805	89.13
650.218	89.16
650.631	89
651.043	88.72
651.456	88.2
651.868	87.47
652.28	86.71
652.693	86.09
653.105	85.57
653.517	85.21
653.929	84.89
654.341	84.66
654.753	84.42
655.165	84.33
655.577	84.38
655.989	84.69
656.401	85.18
656.813	85.76
657.224	86.16
657.636	86.47
658.047	86.66
658.459	86.73
658.87	86.71
659.282	86.67
659.693	86.59
660.104	86.45
660.515	86.27
660.926	86.15
661.338	85.97
661.749	85.79
662.159	85.57
662.57	85.34
662.981	85.14
663.392	84.91
663.803	84.71
664.213	84.5
664.624	84.32
665.035	84.16
665.445	83.92
665.855	83.68
666.266	83.47
666.676	83.26
667.086	82.96
667.497	82.66
667.907	82.44
668.317	82.19
668.727	81.96
669.137	81.71
669.547	81.48
669.956	81.25
670.366	81.05
670.776	80.84
671.186	80.66
671.595	80.53
672.005	80.39
672.414	80.29
672.824	80.15
673.233	80.03
673.642	79.93
674.052	79.84
674.461	79.77
674.87	79.68
675.279	79.63
675.688	79.59
676.097	79.55
676.506	79.54
676.915	79.5
677.323	79.51
677.732	79.54
678.141	79.58
678.549	79.57
678.958	79.61
679.366	79.65
679.775	79.63
680.183	79.62
680.592	79.62
681	79.64
681.408	79.65
681.816	79.52
682.224	79.07
682.632	78.22
683.04	77.11
683.448	76.02
683.856	75.02
684.264	74.19
684.671	73.39
685.079	72.62
685.487	71.94
685.894	71.36
686.302	71.05
686.709	71.12
687.116	71.71
687.524	72.69
687.931	73.76
688.338	74.79
688.745	75.78
689.152	76.73
689.559	77.75
689.966	78.67
690.373	79.54
690.78	80.33
691.187	81.09
691.593	81.79
692	82.45
692.407	83.07
692.813	83.71
693.22	84.25
693.626	84.85
694.032	85.39
694.439	85.88
694.845	86.41
695.251	86.88
695.657	87.31
696.063	87.72
696.469	88.04
696.875	88.33
697.281	88.59
697.687	88.85
698.093	89.09
698.498	89.36
698.904	89.71
699.31	90.05
699.715	90.43
700.12	90.85
700.526	91.28
700.931	91.78
701.337	92.26
701.742	92.7
702.147	93.19
702.552	93.69
702.957	94.14
703.362	94.59
703.767	94.97
704.172	95.33
704.577	95.67
704.981	96
705.386	96.32
705.791	96.64
706.195	96.99
706.6	97.36
707.004	97.65
707.408	97.96
707.813	98.25
708.217	98.52
708.621	98.81
709.025	99.04
709.43	99.3
709.834	99.57
710.237	99.78
710.641	99.98
711.045	100.14
711.449	100.35
711.853	100.47
712.256	100.46
712.66	100.38
713.064	100.18
713.467	99.87
713.87	99.42
714.274	98.83
714.677	98.24
715.08	97.57
715.484	96.97
715.887	96.37
716.29	95.94
716.693	95.76
717.096	95.84
717.499	96.17
717.901	96.73
718.304	97.42
718.707	98.14
719.109	98.83
719.512	99.51
719.915	100.08
720.317	100.59
720.719	100.98
721.122	101.28
721.524	101.4
721.926	101.43
722.328	101.38
722.731	101.28
723.133	101.27
723.535	101.29
723.937	101.39
724.338	101.51
724.74	101.66
725.142	101.86
725.544	102.02
725.945	102.21
726.347	102.34
726.748	102.46
727.15	102.6
727.551	102.81
727.952	103.1
728.354	103.44
728.755	103.85
729.156	104.29
729.557	104.7
729.958	105.1
730.359	105.54
730.76	105.94
731.161	106.31
731.562	106.65
731.962	106.91
732.363	107.12
732.763	107.29
733.164	107.43
733.564	107.55
733.965	107.61
734.365	107.65
734.766	107.6
735.166	107.57
735.566	107.58
735.966	107.63
736.366	107.63
736.766	107.59
737.166	107.58
737.566	107.53
737.966	107.44
738.365	107.45
738.765	107.48
739.165	107.56
739.564	107.69
739.964	107.74
740.363	107.8
740.763	107.9
741.162	108.05
741.561	108.13
741.96	108.26
742.36	108.43
742.759	108.53
743.158	108.63
743.557	108.68
743.955	108.71
744.354	108.77
744.753	108.81
745.152	108.82
745.55	108.79
745.949	108.73
746.348	108.65
746.746	108.5
747.144	108.32
747.543	108.09
747.941	107.87
748.339	107.57
748.737	107.31
749.136	107
749.534	106.68
749.932	106.43
750.33	106.16
750.727	105.88
751.125	105.59
751.523	105.29
751.921	105.03
752.318	104.76
752.716	104.52
753.113	104.32
753.511	104.08
753.908	103.91
754.305	103.57
754.703	102.99
755.1	101.83
755.497	99.64
755.894	96.04
756.291	91.39
756.688	86.36
757.085	81.71
757.482	77.52
757.878	73.71
758.275	69.91
758.672	66.03
759.068	62.42
759.465	59.46
759.861	57.88
760.258	58.08
760.654	59.71
761.05	62.11
761.447	64.53
761.843	66.75
762.239	68.93
762.635	71.47
