Data from C_1_DEC_VA_2N_Splice17_12-41-32-070.txt Node
Date: Sat Mar 07 12:41:32 EST 2020
User: sa697716
Spectrometer: NQ5500242
Trigger mode: 0
Integration Time (sec): 1.450000E-1
Scans to average: 20
Nonlinearity correction enabled: false
Boxcar width: 5
Storing dark spectrum: false
XAxis mode: Wavelengths
Number of Pixels in Spectrum: 512
>>>>>Begin Spectral Data<<<<<
187.83	97.38
188.298	114.65
188.766	77.27
189.233	71.06
189.701	66.76
190.169	76.1
190.636	20.75
191.104	-111.34
191.571	-438.43
192.039	-297.38
192.506	-637.28
192.974	182
193.441	171.8
193.908	17.75
194.375	5.67
194.842	-16.62
195.31	-69.06
195.777	-467.39
196.244	1.79
196.711	30.12
197.177	35.43
197.644	36.45
198.111	36.48
198.578	38.14
199.045	38.63
199.511	38.85
199.978	38.72
200.445	39
200.911	38.83
201.378	39.15
201.844	39.42
202.31	39.26
202.777	39.42
203.243	39.67
203.709	39.27
204.176	38.73
204.642	38.42
205.108	38.3
205.574	38.15
206.04	38.1
206.506	37.81
206.972	37.5
207.438	37.12
207.903	36.43
208.369	35.63
208.835	35.25
209.301	34.8
209.766	34.08
210.232	33.4
210.697	32.68
211.163	32.11
211.628	31.47
212.094	30.64
212.559	30.19
213.024	29.61
213.49	29.19
213.955	28.41
214.42	27.83
214.885	27.41
215.35	26.6
215.815	25.46
216.28	23.84
216.745	22.19
217.21	20.57
217.675	19.03
218.14	17.79
218.604	16.66
219.069	15.73
219.534	14.9
219.998	14.17
220.463	13.6
220.927	13.1
221.392	12.75
221.856	12.4
222.32	12.11
222.785	11.88
223.249	11.62
223.713	11.42
224.177	11.23
224.642	11.07
225.106	10.89
225.57	10.69
226.034	10.53
226.497	10.36
226.961	10.22
227.425	10.08
227.889	9.94
228.353	9.82
228.816	9.67
229.28	9.53
229.744	9.39
230.207	9.26
230.671	9.15
231.134	9.03
231.597	8.94
232.061	8.81
232.524	8.7
232.987	8.59
233.45	8.49
233.914	8.38
234.377	8.28
234.84	8.2
235.303	8.12
235.766	8.03
236.229	7.96
236.691	7.86
237.154	7.79
237.617	7.72
238.08	7.64
238.542	7.56
239.005	7.49
239.468	7.42
239.93	7.35
240.393	7.29
240.855	7.21
241.317	7.14
241.78	7.08
242.242	7.01
242.704	6.95
243.166	6.89
243.629	6.83
244.091	6.77
244.553	6.71
245.015	6.64
245.477	6.58
245.939	6.51
246.4	6.45
246.862	6.4
247.324	6.35
247.786	6.28
248.247	6.23
248.709	6.17
249.17	6.11
249.632	6.07
250.093	6.02
250.555	5.96
251.016	5.92
251.477	5.87
251.939	5.83
252.4	5.79
252.861	5.76
253.322	5.73
253.783	5.69
254.244	5.67
254.705	5.64
255.166	5.6
255.627	5.57
256.088	5.55
256.549	5.52
257.009	5.48
257.47	5.46
257.931	5.41
258.391	5.37
258.852	5.33
259.312	5.29
259.773	5.26
260.233	5.24
260.694	5.21
261.154	5.18
261.614	5.15
262.074	5.13
262.534	5.1
262.994	5.07
263.455	5.06
263.915	5.04
264.374	5.02
264.834	5
265.294	4.98
265.754	4.96
266.214	4.95
266.673	4.94
267.133	4.92
267.593	4.91
268.052	4.9
268.512	4.89
268.971	4.88
269.431	4.87
269.89	4.85
270.349	4.84
270.809	4.82
271.268	4.81
271.727	4.8
272.186	4.79
272.645	4.78
273.104	4.75
273.563	4.74
274.022	4.72
274.481	4.72
274.94	4.71
275.399	4.69
275.857	4.68
276.316	4.67
276.775	4.65
277.233	4.64
277.692	4.63
278.15	4.62
278.609	4.6
279.067	4.6
279.525	4.58
279.984	4.57
280.442	4.56
280.9	4.55
281.358	4.53
281.816	4.52
282.274	4.52
282.732	4.51
283.19	4.49
283.648	4.49
284.106	4.47
284.564	4.47
285.021	4.46
285.479	4.45
285.937	4.44
286.394	4.44
286.852	4.42
287.309	4.41
287.767	4.39
288.224	4.38
288.682	4.37
289.139	4.35
289.596	4.33
290.053	4.31
290.511	4.29
290.968	4.28
291.425	4.26
291.882	4.25
292.339	4.23
292.796	4.22
293.252	4.2
293.709	4.19
294.166	4.18
294.623	4.17
295.079	4.16
295.536	4.15
295.992	4.14
296.449	4.13
296.905	4.12
297.362	4.12
297.818	4.1
298.274	4.1
298.731	4.09
299.187	4.08
299.643	4.06
300.099	4.06
300.555	4.05
301.011	4.04
301.467	4.04
301.923	4.02
302.379	4.01
302.835	4.01
303.291	4.01
303.746	4
304.202	4
304.658	3.99
305.113	3.99
305.569	3.98
306.024	3.98
306.479	3.98
306.935	3.97
307.39	3.97
307.845	3.96
308.301	3.96
308.756	3.95
309.211	3.94
309.666	3.94
310.121	3.94
310.576	3.94
311.031	3.93
311.486	3.94
311.94	3.94
312.395	3.93
312.85	3.93
313.305	3.92
313.759	3.93
314.214	3.93
314.668	3.91
315.123	3.91
315.577	3.9
316.032	3.9
316.486	3.89
316.94	3.89
317.394	3.87
317.849	3.86
318.303	3.85
318.757	3.83
319.211	3.82
319.665	3.81
320.119	3.79
320.572	3.78
321.026	3.77
321.48	3.76
321.934	3.74
322.387	3.74
322.841	3.73
323.295	3.73
323.748	3.73
324.202	3.73
324.655	3.73
325.108	3.73
325.562	3.73
326.015	3.73
326.468	3.73
326.921	3.73
327.374	3.72
327.827	3.72
328.28	3.71
328.733	3.7
329.186	3.7
329.639	3.69
330.092	3.68
330.545	3.67
330.997	3.66
331.45	3.67
331.903	3.67
332.355	3.67
332.808	3.67
333.26	3.67
333.713	3.67
334.165	3.66
334.617	3.66
335.069	3.66
335.522	3.67
335.974	3.68
336.426	3.66
336.878	3.66
337.33	3.66
337.782	3.66
338.234	3.66
338.686	3.65
339.137	3.66
339.589	3.66
340.041	3.65
340.493	3.64
340.944	3.62
341.396	3.61
341.847	3.6
342.299	3.58
342.75	3.57
343.201	3.56
343.653	3.54
344.104	3.53
344.555	3.51
345.006	3.51
345.457	3.5
345.908	3.5
346.359	3.5
346.81	3.49
347.261	3.49
347.712	3.48
348.163	3.47
348.613	3.47
349.064	3.47
349.515	3.47
349.965	3.47
350.416	3.46
350.866	3.46
351.317	3.45
351.767	3.45
352.217	3.45
352.668	3.45
353.118	3.46
353.568	3.45
354.018	3.45
354.468	3.46
354.918	3.46
355.368	3.46
355.818	3.46
356.268	3.46
356.718	3.46
357.168	3.45
357.617	3.46
358.067	3.46
358.517	3.47
358.966	3.47
359.416	3.46
359.865	3.45
360.315	3.45
360.764	3.46
361.213	3.46
361.663	3.45
362.112	3.46
362.561	3.47
363.01	3.46
363.459	3.44
363.908	3.44
364.357	3.45
364.806	3.44
365.255	3.44
365.703	3.44
366.152	3.45
366.601	3.46
367.05	3.46
367.498	3.45
367.947	3.45
368.395	3.46
368.844	3.47
369.292	3.47
369.74	3.47
370.189	3.47
370.637	3.47
371.085	3.46
371.533	3.46
371.981	3.46
372.429	3.47
372.877	3.47
373.325	3.47
373.773	3.47
374.221	3.47
374.669	3.47
375.116	3.48
375.564	3.47
376.012	3.49
376.459	3.5
376.907	3.51
377.354	3.51
377.801	3.53
378.249	3.54
378.696	3.55
379.143	3.57
379.591	3.59
380.038	3.61
380.485	3.62
380.932	3.63
381.379	3.64
381.826	3.66
382.273	3.67
382.72	3.67
383.166	3.7
383.613	3.72
384.06	3.74
384.506	3.76
384.953	3.78
385.4	3.8
385.846	3.84
386.292	3.87
386.739	3.89
387.185	3.92
387.631	3.94
388.078	3.96
388.524	3.98
388.97	4
389.416	4.04
389.862	4.07
390.308	4.1
390.754	4.13
391.2	4.16
391.645	4.19
392.091	4.23
392.537	4.27
392.983	4.29
393.428	4.33
393.874	4.37
394.319	4.39
394.765	4.41
395.21	4.43
395.655	4.46
396.101	4.49
396.546	4.52
396.991	4.55
397.436	4.58
397.881	4.62
398.326	4.64
398.771	4.67
399.216	4.7
399.661	4.74
400.106	4.76
400.551	4.77
400.995	4.78
401.44	4.79
401.885	4.8
402.329	4.81
402.774	4.83
403.218	4.84
403.663	4.85
404.107	4.86
404.551	4.86
404.995	4.87
405.44	4.88
405.884	4.89
406.328	4.9
406.772	4.9
407.216	4.91
407.66	4.91
408.104	4.9
408.547	4.91
408.991	4.92
409.435	4.91
409.879	4.92
410.322	4.92
410.766	4.93
411.209	4.96
411.653	4.96
412.096	4.97
412.54	4.98
412.983	4.99
413.426	5.02
413.869	5.03
414.312	5.05
414.756	5.07
415.199	5.07
415.642	5.07
416.085	5.07
416.527	5.07
416.97	5.04
417.413	5.04
417.856	5.04
418.298	5.02
418.741	5
419.184	5
419.626	4.99
420.069	4.99
420.511	5
420.953	4.99
421.396	4.99
421.838	5.01
422.28	5
422.722	5.01
423.164	5.01
423.606	5.01
424.048	5.01
424.49	5.01
424.932	4.99
425.374	4.97
425.816	4.94
426.258	4.92
426.699	4.89
427.141	4.88
427.582	4.87
428.024	4.86
428.465	4.86
428.907	4.84
429.348	4.82
429.789	4.81
430.231	4.82
430.672	4.84
431.113	4.87
431.554	4.89
431.995	4.9
432.436	4.9
432.877	4.91
433.318	4.93
433.759	4.96
434.2	4.99
434.64	5.02
435.081	5.03
435.522	5.05
435.962	5.06
436.403	5.07
436.843	5.08
437.284	5.09
437.724	5.1
438.164	5.1
438.604	5.12
439.045	5.13
439.485	5.14
439.925	5.14
440.365	5.15
440.805	5.16
441.245	5.2
441.685	5.22
442.125	5.25
442.564	5.28
443.004	5.31
443.444	5.31
443.883	5.33
444.323	5.35
444.762	5.4
445.202	5.43
445.641	5.46
446.081	5.48
446.52	5.5
446.959	5.54
447.398	5.58
447.837	5.6
448.276	5.63
448.716	5.67
449.154	5.71
449.593	5.73
450.032	5.75
450.471	5.76
450.91	5.78
451.349	5.8
451.787	5.81
452.226	5.8
452.664	5.82
453.103	5.82
453.541	5.81
453.98	5.81
454.418	5.81
454.856	5.8
455.295	5.79
455.733	5.77
456.171	5.77
456.609	5.76
457.047	5.76
457.485	5.74
457.923	5.74
458.361	5.74
458.798	5.72
459.236	5.72
459.674	5.73
460.111	5.74
460.549	5.75
460.987	5.76
461.424	5.76
461.862	5.76
462.299	5.78
462.736	5.78
463.173	5.78
463.611	5.79
464.048	5.79
464.485	5.79
464.922	5.79
465.359	5.79
465.796	5.79
466.233	5.8
466.67	5.81
467.106	5.81
467.543	5.81
467.98	5.81
468.416	5.81
468.853	5.82
469.29	5.81
469.726	5.81
470.162	5.81
470.599	5.81
471.035	5.8
471.471	5.79
471.907	5.78
472.344	5.79
472.78	5.8
473.216	5.79
473.652	5.79
474.088	5.79
474.523	5.79
474.959	5.8
475.395	5.79
475.831	5.79
476.266	5.79
476.702	5.8
477.138	5.8
477.573	5.79
478.008	5.78
478.444	5.78
478.879	5.79
479.314	5.78
479.75	5.78
480.185	5.78
480.62	5.77
481.055	5.77
481.49	5.76
481.925	5.76
482.36	5.76
482.795	5.77
483.229	5.77
483.664	5.79
484.099	5.79
484.534	5.8
484.968	5.83
485.403	5.84
485.837	5.87
486.271	5.9
486.706	5.92
487.14	5.94
487.574	5.97
488.009	6
488.443	6.02
488.877	6.06
489.311	6.11
489.745	6.15
490.179	6.2
490.613	6.25
491.046	6.29
491.48	6.35
491.914	6.42
492.348	6.48
492.781	6.55
493.215	6.64
493.648	6.72
494.082	6.79
494.515	6.87
494.948	6.95
495.382	7.05
495.815	7.16
496.248	7.26
496.681	7.37
497.114	7.48
497.547	7.6
497.98	7.72
498.413	7.84
498.846	7.98
499.279	8.12
499.711	8.27
500.144	8.43
500.577	8.59
501.009	8.75
501.442	8.91
501.874	9.09
502.306	9.27
502.739	9.48
503.171	9.67
503.603	9.87
504.036	10.08
504.468	10.3
504.9	10.52
505.332	10.75
505.764	10.99
506.196	11.25
506.627	11.51
507.059	11.78
507.491	12.03
507.923	12.32
508.354	12.62
508.786	12.93
509.217	13.25
509.649	13.56
510.08	13.88
510.512	14.19
510.943	14.52
511.374	14.85
511.805	15.19
512.237	15.53
512.668	15.88
513.099	16.23
513.53	16.58
513.961	16.93
514.391	17.29
514.822	17.66
515.253	18.03
515.684	18.4
516.114	18.78
516.545	19.15
516.975	19.53
517.406	19.9
517.836	20.27
518.267	20.66
518.697	21.02
519.127	21.38
519.558	21.75
519.988	22.1
520.418	22.46
520.848	22.8
521.278	23.13
521.708	23.58
522.138	23.9
522.567	24.2
522.997	24.47
523.427	24.79
523.857	25.07
524.286	25.34
524.716	25.62
525.145	25.88
525.575	26.14
526.004	26.38
526.433	26.51
526.863	26.74
527.292	26.97
527.721	27.19
528.15	27.37
528.579	27.56
529.008	27.75
529.437	27.91
529.866	28.05
530.295	28.2
530.724	28.37
531.152	28.51
531.581	28.63
532.01	28.77
532.438	28.88
532.867	28.99
533.295	29.1
533.723	29.21
534.152	29.3
534.58	29.42
535.008	29.49
535.436	29.56
535.865	29.63
536.293	29.7
536.721	29.76
537.149	29.85
537.576	29.93
538.004	30
538.432	30.05
538.86	30.1
539.287	30.14
539.715	30.22
540.143	30.27
540.57	30.3
540.998	30.34
541.425	30.39
541.852	30.41
542.28	30.45
542.707	30.47
543.134	30.51
543.561	30.55
543.988	30.58
544.415	30.6
544.842	30.63
545.269	30.67
545.696	30.7
546.123	30.72
546.549	30.75
546.976	30.77
547.403	30.81
547.829	30.84
548.256	30.84
548.682	30.86
549.108	30.88
549.535	30.9
549.961	30.89
550.387	30.88
550.813	30.9
551.24	30.89
551.666	30.89
552.092	30.87
552.518	30.85
552.943	30.82
553.369	30.79
553.795	30.76
554.221	30.71
554.646	30.67
555.072	30.64
555.498	30.59
555.923	30.54
556.349	30.46
556.774	30.38
557.199	30.31
557.625	30.24
558.05	30.17
558.475	30.09
558.9	30
559.325	29.92
559.75	29.82
560.175	29.71
560.6	29.61
561.025	29.5
561.449	29.38
561.874	29.25
562.299	29.11
562.723	28.96
563.148	28.82
563.572	28.67
563.997	28.49
564.421	28.34
564.846	28.18
565.27	28.02
565.694	27.86
566.118	27.7
566.542	27.53
566.966	27.37
567.39	27.21
567.814	27.02
568.238	26.86
568.662	26.71
569.086	26.54
569.509	26.37
569.933	26.19
570.357	26
570.78	25.82
571.204	25.66
571.627	25.49
572.05	25.32
572.474	25.19
572.897	25.04
573.32	24.87
573.743	24.71
574.166	24.57
574.589	24.44
575.012	24.31
575.435	24.18
575.858	24.04
576.281	23.9
576.704	23.76
577.126	23.62
577.549	23.47
577.972	23.36
578.394	23.24
578.817	23.1
579.239	22.97
579.661	22.85
580.084	22.73
580.506	22.61
580.928	22.51
581.35	22.4
581.772	22.27
582.194	22.17
582.616	22.07
583.038	21.96
583.46	21.85
583.882	21.77
584.303	21.68
584.725	21.58
585.147	21.48
585.568	21.39
585.99	21.32
586.411	21.25
586.833	21.17
587.254	21.09
587.675	21.02
588.096	20.94
588.518	20.86
588.939	20.79
589.36	20.72
589.781	20.67
590.202	20.61
590.623	20.55
591.043	20.48
591.464	20.42
591.885	20.36
592.305	20.3
592.726	20.26
593.147	20.22
593.567	20.17
593.987	20.11
594.408	20.06
594.828	20.02
595.248	19.98
595.669	19.95
596.089	19.91
596.509	19.87
596.929	19.82
597.349	19.78
597.769	19.72
598.189	19.67
598.608	19.63
599.028	19.6
599.448	19.55
599.867	19.5
600.287	19.45
600.706	19.4
601.126	19.36
601.545	19.32
601.965	19.27
602.384	19.22
602.803	19.16
603.222	19.09
603.641	19
604.061	18.93
604.48	18.85
604.898	18.76
605.317	18.69
605.736	18.6
606.155	18.52
606.574	18.42
606.992	18.34
607.411	18.26
607.829	18.14
608.248	18.04
608.666	17.95
609.085	17.85
609.503	17.76
609.921	17.65
610.339	17.55
610.758	17.44
611.176	17.33
611.594	17.24
612.012	17.14
612.43	17.06
612.847	16.97
613.265	16.88
613.683	16.8
614.101	16.71
614.518	16.62
614.936	16.54
615.353	16.43
615.771	16.35
616.188	16.26
616.606	16.18
617.023	16.11
617.44	16.04
617.857	15.97
618.274	15.89
618.691	15.82
619.108	15.76
619.525	15.7
619.942	15.66
620.359	15.61
620.776	15.57
621.192	15.53
621.609	15.49
622.026	15.46
622.442	15.42
622.859	15.4
623.275	15.38
623.691	15.35
624.108	15.34
624.524	15.32
624.94	15.31
625.356	15.28
625.772	15.26
626.188	15.25
626.604	15.24
627.02	15.22
627.436	15.21
627.852	15.19
628.268	15.17
628.683	15.14
629.099	15.12
629.514	15.09
629.93	15.07
630.345	15.02
630.761	14.96
631.176	14.92
631.591	14.87
632.007	14.8
632.422	14.73
632.837	14.66
633.252	14.58
633.667	14.49
634.082	14.39
634.497	14.29
634.911	14.17
635.326	14.06
635.741	13.92
636.155	13.78
636.57	13.65
636.984	13.51
637.399	13.35
637.813	13.19
638.228	13.02
638.642	12.86
639.056	12.69
639.47	12.52
639.884	12.35
640.298	12.18
640.712	12.01
641.126	11.82
641.54	11.65
641.954	11.49
642.368	11.32
642.781	11.16
643.195	11
643.609	10.85
644.022	10.7
644.436	10.56
644.849	10.43
645.262	10.3
645.676	10.18
646.089	10.07
646.502	9.95
646.915	9.86
647.328	9.76
647.741	9.66
648.154	9.58
648.567	9.51
648.98	9.43
649.393	9.36
649.805	9.29
650.218	9.23
650.631	9.16
651.043	9.11
651.456	9.05
651.868	9
652.28	8.95
652.693	8.89
653.105	8.84
653.517	8.78
653.929	8.72
654.341	8.65
654.753	8.58
655.165	8.51
655.577	8.43
655.989	8.33
656.401	8.23
656.813	8.14
657.224	8.02
657.636	7.91
658.047	7.8
658.459	7.68
658.87	7.56
659.282	7.44
659.693	7.33
660.104	7.21
660.515	7.09
660.926	6.99
661.338	6.87
661.749	6.78
662.159	6.67
662.57	6.58
662.981	6.49
663.392	6.39
663.803	6.3
664.213	6.2
664.624	6.12
665.035	6.04
665.445	5.98
665.855	5.91
666.266	5.85
666.676	5.8
667.086	5.72
667.497	5.67
667.907	5.63
668.317	5.6
668.727	5.58
669.137	5.55
669.547	5.52
669.956	5.49
670.366	5.47
670.776	5.45
671.186	5.44
671.595	5.44
672.005	5.43
672.414	5.43
672.824	5.43
673.233	5.43
673.642	5.45
674.052	5.45
674.461	5.47
674.87	5.48
675.279	5.51
675.688	5.54
676.097	5.57
676.506	5.62
676.915	5.65
677.323	5.7
677.732	5.75
678.141	5.8
678.549	5.86
678.958	5.92
679.366	6.01
679.775	6.09
680.183	6.18
680.592	6.28
681	6.4
681.408	6.54
681.816	6.68
682.224	6.85
682.632	7.03
683.04	7.24
683.448	7.46
683.856	7.7
684.264	7.97
684.671	8.27
685.079	8.6
685.487	8.97
685.894	9.36
686.302	9.78
686.709	10.23
687.116	10.71
687.524	11.22
687.931	11.76
688.338	12.33
688.745	12.92
689.152	13.54
689.559	14.19
689.966	14.84
690.373	15.51
690.78	16.21
691.187	16.92
691.593	17.65
692	18.38
692.407	19.11
692.813	19.86
693.22	20.6
693.626	21.34
694.032	22.08
694.439	22.83
694.845	23.6
695.251	24.31
695.657	25.02
696.063	25.75
696.469	26.47
696.875	27.17
697.281	27.85
697.687	28.53
698.093	29.2
698.498	29.84
698.904	30.48
699.31	31.08
699.715	31.69
700.12	32.29
700.526	32.85
700.931	33.41
701.337	33.96
701.742	34.49
702.147	35.01
702.552	35.51
702.957	36
703.362	36.48
703.767	36.92
704.172	37.38
704.577	37.85
704.981	38.29
705.386	38.71
705.791	39.11
706.195	39.52
706.6	39.95
707.004	40.34
707.408	40.74
707.813	41.12
708.217	41.5
708.621	41.89
709.025	42.22
709.43	42.57
709.834	42.93
710.237	43.25
710.641	43.58
711.045	43.89
711.449	44.18
711.853	44.49
712.256	44.8
712.66	45.11
713.064	45.37
713.467	45.65
713.87	45.91
714.274	46.15
714.677	46.43
715.08	46.69
715.484	46.95
715.887	47.23
716.29	47.47
716.693	47.72
717.096	47.93
717.499	48.18
717.901	48.4
718.304	48.62
718.707	48.84
719.109	49.06
719.512	49.26
719.915	49.46
720.317	49.58
720.719	49.75
721.122	49.9
721.524	50.08
721.926	50.23
722.328	50.4
722.731	50.56
723.133	50.72
723.535	50.86
723.937	51
724.338	51.12
724.74	51.3
725.142	51.49
725.544	51.61
725.945	51.71
726.347	51.83
726.748	51.94
727.15	52.05
727.551	52.15
727.952	52.25
728.354	52.34
728.755	52.43
729.156	52.5
729.557	52.52
729.958	52.6
730.359	52.68
730.76	52.74
731.161	52.81
731.562	52.89
731.962	52.93
732.363	52.97
732.763	53.03
733.164	53.08
733.564	53.14
733.965	53.17
734.365	53.24
734.766	53.29
735.166	53.35
735.566	53.4
735.966	53.44
736.366	53.48
736.766	53.54
737.166	53.61
737.566	53.67
737.966	53.72
738.365	53.8
738.765	53.85
739.165	53.9
739.564	53.96
739.964	53.99
740.363	54.01
740.763	54.05
741.162	54.1
741.561	54.1
741.96	54.1
742.36	54.11
742.759	54.13
743.158	54.13
743.557	54.14
743.955	54.12
744.354	54.14
744.753	54.19
745.152	54.23
745.55	54.24
745.949	54.28
746.348	54.32
746.746	54.32
747.144	54.35
747.543	54.36
747.941	54.4
748.339	54.41
748.737	54.44
749.136	54.44
749.534	54.43
749.932	54.43
750.33	54.43
750.727	54.44
751.125	54.45
751.523	54.43
751.921	54.44
752.318	54.45
752.716	54.45
753.113	54.47
753.511	54.46
753.908	54.49
754.305	54.48
754.703	54.47
755.1	54.46
755.497	54.46
755.894	54.47
756.291	54.48
756.688	54.46
757.085	54.47
757.482	54.45
757.878	54.44
758.275	54.41
758.672	54.43
759.068	54.45
759.465	54.44
759.861	54.44
760.258	54.44
760.654	54.45
761.05	54.45
761.447	54.45
761.843	54.44
762.239	54.43
762.635	54.42
763.031	54.4
763.427	54.36
763.822	54.38
764.218	54.38
764.614	54.39
765.01	54.35
765.405	54.32
765.801	54.29
766.196	54.29
766.592	54.31
766.987	54.3
767.382	54.28
767.778	54.29
768.173	54.27
768.568	54.26
768.963	54.25
769.358	54.27
769.753	54.28
770.148	54.3
770.542	54.29
770.937	54.3
771.332	54.31
771.726	54.33
772.121	54.31
772.515	54.31
772.91	54.31
773.304	54.31
773.699	54.3
774.093	54.29
774.487	54.28
774.881	54.28
775.275	54.25
775.669	54.24
776.063	54.23
776.457	54.23
776.851	54.22
777.245	54.18
777.638	54.19
778.032	54.19
778.425	54.2
778.819	54.19
779.212	54.2
779.606	54.24
779.999	54.23
780.392	54.26
780.786	54.26
781.179	54.28
781.572	54.32
781.965	54.34
782.358	54.36
