Data from C_2_HIR_IL_4N_Splice17_13-13-02-166.txt Node
Date: Sat Mar 07 13:13:02 EST 2020
User: sa697716
Spectrometer: NQ5500242
Trigger mode: 0
Integration Time (sec): 1.450000E-1
Scans to average: 20
Nonlinearity correction enabled: false
Boxcar width: 5
Storing dark spectrum: false
XAxis mode: Wavelengths
Number of Pixels in Spectrum: 512
>>>>>Begin Spectral Data<<<<<
187.83	173.77
188.298	187.99
188.766	170.84
189.233	151.07
189.701	140.86
190.169	150.8
190.636	179.21
191.104	251.42
191.571	248.76
192.039	11.66
192.506	-98.35
192.974	207.09
193.441	344.11
193.908	194.15
194.375	127.8
194.842	70.8
195.31	105.31
195.777	332.17
196.244	71.52
196.711	54.48
197.177	54.02
197.644	53.01
198.111	51.87
198.578	51.81
199.045	51.8
199.511	52.06
199.978	52
200.445	51.59
200.911	51.37
201.378	50.9
201.844	50.81
202.31	50.41
202.777	50.21
203.243	50.26
203.709	49.74
204.176	49.41
204.642	49.07
205.108	48.93
205.574	48.88
206.04	48.32
206.506	48.11
206.972	47.93
207.438	47.23
207.903	46.81
208.369	45.94
208.835	45.23
209.301	44.38
209.766	43.14
210.232	41.99
210.697	41
211.163	40.19
211.628	39.51
212.094	38.65
212.559	38.16
213.024	37.29
213.49	36.57
213.955	35.83
214.42	35.03
214.885	34.3
215.35	33.14
215.815	31.67
216.28	30.05
216.745	27.99
217.21	26.05
217.675	24.33
218.14	22.9
218.604	21.6
219.069	20.48
219.534	19.58
219.998	18.78
220.463	18.13
220.927	17.56
221.392	17.07
221.856	16.71
222.32	16.34
222.785	16.06
223.249	15.75
223.713	15.49
224.177	15.26
224.642	15.01
225.106	14.78
225.57	14.55
226.034	14.35
226.497	14.17
226.961	13.97
227.425	13.8
227.889	13.6
228.353	13.42
228.816	13.23
229.28	13.06
229.744	12.91
230.207	12.72
230.671	12.56
231.134	12.39
231.597	12.23
232.061	12.06
232.524	11.9
232.987	11.75
233.45	11.62
233.914	11.48
234.377	11.33
234.84	11.2
235.303	11.12
235.766	11
236.229	10.88
236.691	10.77
237.154	10.67
237.617	10.58
238.08	10.46
238.542	10.35
239.005	10.26
239.468	10.18
239.93	10.08
240.393	9.98
240.855	9.87
241.317	9.79
241.78	9.69
242.242	9.6
242.704	9.52
243.166	9.44
243.629	9.37
244.091	9.28
244.553	9.19
245.015	9.1
245.477	9.02
245.939	8.95
246.4	8.87
246.862	8.81
247.324	8.75
247.786	8.67
248.247	8.61
248.709	8.53
249.17	8.47
249.632	8.42
250.093	8.38
250.555	8.32
251.016	8.27
251.477	8.21
251.939	8.17
252.4	8.12
252.861	8.07
253.322	8.02
253.783	7.99
254.244	7.94
254.705	7.89
255.166	7.85
255.627	7.81
256.088	7.77
256.549	7.73
257.009	7.68
257.47	7.65
257.931	7.6
258.391	7.55
258.852	7.51
259.312	7.47
259.773	7.44
260.233	7.4
260.694	7.36
261.154	7.32
261.614	7.29
262.074	7.26
262.534	7.22
262.994	7.2
263.455	7.17
263.915	7.15
264.374	7.12
264.834	7.1
265.294	7.08
265.754	7.07
266.214	7.05
266.673	7.03
267.133	7.01
267.593	7
268.052	6.98
268.512	6.98
268.971	6.97
269.431	6.96
269.89	6.94
270.349	6.94
270.809	6.92
271.268	6.91
271.727	6.9
272.186	6.89
272.645	6.88
273.104	6.87
273.563	6.85
274.022	6.83
274.481	6.82
274.94	6.82
275.399	6.8
275.857	6.79
276.316	6.78
276.775	6.78
277.233	6.76
277.692	6.75
278.15	6.74
278.609	6.74
279.067	6.72
279.525	6.72
279.984	6.69
280.442	6.68
280.9	6.67
281.358	6.66
281.816	6.66
282.274	6.64
282.732	6.63
283.19	6.62
283.648	6.61
284.106	6.59
284.564	6.58
285.021	6.58
285.479	6.57
285.937	6.55
286.394	6.54
286.852	6.51
287.309	6.5
287.767	6.48
288.224	6.47
288.682	6.45
289.139	6.43
289.596	6.41
290.053	6.38
290.511	6.36
290.968	6.34
291.425	6.33
291.882	6.32
292.339	6.3
292.796	6.28
293.252	6.27
293.709	6.26
294.166	6.25
294.623	6.25
295.079	6.25
295.536	6.24
295.992	6.23
296.449	6.22
296.905	6.21
297.362	6.21
297.818	6.2
298.274	6.2
298.731	6.19
299.187	6.18
299.643	6.17
300.099	6.16
300.555	6.16
301.011	6.15
301.467	6.14
301.923	6.14
302.379	6.13
302.835	6.13
303.291	6.12
303.746	6.12
304.202	6.12
304.658	6.12
305.113	6.11
305.569	6.1
306.024	6.11
306.479	6.1
306.935	6.09
307.39	6.1
307.845	6.09
308.301	6.08
308.756	6.08
309.211	6.07
309.666	6.08
310.121	6.07
310.576	6.07
311.031	6.06
311.486	6.06
311.94	6.06
312.395	6.06
312.85	6.05
313.305	6.05
313.759	6.04
314.214	6.04
314.668	6.03
315.123	6.02
315.577	6.02
316.032	6.02
316.486	6.01
316.94	6
317.394	5.99
317.849	5.98
318.303	5.97
318.757	5.95
319.211	5.95
319.665	5.93
320.119	5.92
320.572	5.9
321.026	5.88
321.48	5.87
321.934	5.86
322.387	5.84
322.841	5.83
323.295	5.83
323.748	5.81
324.202	5.81
324.655	5.8
325.108	5.81
325.562	5.81
326.015	5.81
326.468	5.8
326.921	5.8
327.374	5.8
327.827	5.8
328.28	5.79
328.733	5.79
329.186	5.78
329.639	5.78
330.092	5.77
330.545	5.76
330.997	5.75
331.45	5.75
331.903	5.75
332.355	5.75
332.808	5.74
333.26	5.74
333.713	5.73
334.165	5.72
334.617	5.72
335.069	5.72
335.522	5.73
335.974	5.73
336.426	5.72
336.878	5.71
337.33	5.69
337.782	5.69
338.234	5.69
338.686	5.69
339.137	5.69
339.589	5.67
340.041	5.66
340.493	5.64
340.944	5.62
341.396	5.61
341.847	5.6
342.299	5.58
342.75	5.57
343.201	5.55
343.653	5.53
344.104	5.51
344.555	5.49
345.006	5.48
345.457	5.46
345.908	5.46
346.359	5.45
346.81	5.44
347.261	5.44
347.712	5.44
348.163	5.42
348.613	5.42
349.064	5.42
349.515	5.42
349.965	5.42
350.416	5.41
350.866	5.41
351.317	5.4
351.767	5.4
352.217	5.39
352.668	5.38
353.118	5.39
353.568	5.39
354.018	5.39
354.468	5.39
354.918	5.39
355.368	5.39
355.818	5.39
356.268	5.39
356.718	5.4
357.168	5.39
357.617	5.39
358.067	5.38
358.517	5.4
358.966	5.4
359.416	5.41
359.865	5.41
360.315	5.42
360.764	5.41
361.213	5.41
361.663	5.4
362.112	5.41
362.561	5.42
363.01	5.42
363.459	5.41
363.908	5.4
364.357	5.41
364.806	5.41
365.255	5.42
365.703	5.44
366.152	5.46
366.601	5.48
367.05	5.49
367.498	5.5
367.947	5.53
368.395	5.57
368.844	5.6
369.292	5.63
369.74	5.66
370.189	5.69
370.637	5.73
371.085	5.76
371.533	5.81
371.981	5.86
372.429	5.92
372.877	5.98
373.325	6.04
373.773	6.11
374.221	6.19
374.669	6.28
375.116	6.38
375.564	6.48
376.012	6.61
376.459	6.73
376.907	6.86
377.354	7
377.801	7.14
378.249	7.29
378.696	7.44
379.143	7.61
379.591	7.77
380.038	7.94
380.485	8.11
380.932	8.29
381.379	8.47
381.826	8.66
382.273	8.85
382.72	9.04
383.166	9.24
383.613	9.44
384.06	9.63
384.506	9.83
384.953	10.05
385.4	10.25
385.846	10.46
386.292	10.66
386.739	10.85
387.185	11.05
387.631	11.26
388.078	11.46
388.524	11.66
388.97	11.86
389.416	12.05
389.862	12.23
390.308	12.4
390.754	12.57
391.2	12.73
391.645	12.88
392.091	13.05
392.537	13.19
392.983	13.33
393.428	13.47
393.874	13.59
394.319	13.71
394.765	13.8
395.21	13.9
395.655	13.99
396.101	14.09
396.546	14.16
396.991	14.23
397.436	14.3
397.881	14.38
398.326	14.44
398.771	14.51
399.216	14.55
399.661	14.59
400.106	14.62
400.551	14.63
400.995	14.63
401.44	14.65
401.885	14.65
402.329	14.65
402.774	14.66
403.218	14.67
403.663	14.67
404.107	14.67
404.551	14.66
404.995	14.65
405.44	14.66
405.884	14.65
406.328	14.65
406.772	14.63
407.216	14.62
407.66	14.57
408.104	14.53
408.547	14.5
408.991	14.48
409.435	14.45
409.879	14.44
410.322	14.42
410.766	14.41
411.209	14.4
411.653	14.36
412.096	14.35
412.54	14.32
412.983	14.31
413.426	14.31
413.869	14.29
414.312	14.29
414.756	14.27
415.199	14.23
415.642	14.19
416.085	14.14
416.527	14.09
416.97	14.01
417.413	13.97
417.856	13.93
418.298	13.87
418.741	13.83
419.184	13.77
419.626	13.74
420.069	13.71
420.511	13.69
420.953	13.68
421.396	13.67
421.838	13.65
422.28	13.64
422.722	13.63
423.164	13.61
423.606	13.57
424.048	13.55
424.49	13.5
424.932	13.46
425.374	13.4
425.816	13.34
426.258	13.3
426.699	13.29
427.141	13.29
427.582	13.27
428.024	13.26
428.465	13.26
428.907	13.25
429.348	13.24
429.789	13.25
430.231	13.28
430.672	13.31
431.113	13.35
431.554	13.35
431.995	13.34
432.436	13.34
432.877	13.35
433.318	13.38
433.759	13.39
434.2	13.43
434.64	13.44
435.081	13.47
435.522	13.48
435.962	13.49
436.403	13.52
436.843	13.55
437.284	13.55
437.724	13.56
438.164	13.57
438.604	13.61
439.045	13.64
439.485	13.65
439.925	13.67
440.365	13.71
440.805	13.73
441.245	13.79
441.685	13.84
442.125	13.92
442.564	13.98
443.004	14.03
443.444	14.08
443.883	14.15
444.323	14.21
444.762	14.29
445.202	14.36
445.641	14.43
446.081	14.49
446.52	14.55
446.959	14.63
447.398	14.7
447.837	14.79
448.276	14.85
448.716	14.94
449.154	15.03
449.593	15.08
450.032	15.13
450.471	15.19
450.91	15.23
451.349	15.3
451.787	15.35
452.226	15.39
452.664	15.44
453.103	15.48
453.541	15.52
453.98	15.58
454.418	15.62
454.856	15.68
455.295	15.72
455.733	15.78
456.171	15.82
456.609	15.87
457.047	15.91
457.485	15.96
457.923	16
458.361	16.04
458.798	16.07
459.236	16.12
459.674	16.17
460.111	16.22
460.549	16.29
460.987	16.33
461.424	16.37
461.862	16.43
462.299	16.46
462.736	16.5
463.173	16.54
463.611	16.56
464.048	16.58
464.485	16.6
464.922	16.6
465.359	16.59
465.796	16.59
466.233	16.59
466.67	16.6
467.106	16.61
467.543	16.6
467.98	16.57
468.416	16.56
468.853	16.55
469.29	16.52
469.726	16.51
470.162	16.49
470.599	16.46
471.035	16.42
471.471	16.38
471.907	16.36
472.344	16.34
472.78	16.32
473.216	16.29
473.652	16.28
474.088	16.26
474.523	16.25
474.959	16.24
475.395	16.21
475.831	16.2
476.266	16.2
476.702	16.18
477.138	16.17
477.573	16.18
478.008	16.19
478.444	16.19
478.879	16.21
479.314	16.21
479.75	16.23
480.185	16.25
480.62	16.27
481.055	16.29
481.49	16.34
481.925	16.38
482.36	16.44
482.795	16.5
483.229	16.57
483.664	16.66
484.099	16.75
484.534	16.83
484.968	16.94
485.403	17.04
485.837	17.16
486.271	17.3
486.706	17.43
487.14	17.57
487.574	17.72
488.009	17.89
488.443	18.04
488.877	18.22
489.311	18.42
489.745	18.63
490.179	18.85
490.613	19.06
491.046	19.28
491.48	19.51
491.914	19.75
492.348	19.98
492.781	20.23
493.215	20.49
493.648	20.75
494.082	21
494.515	21.26
494.948	21.54
495.382	21.82
495.815	22.11
496.248	22.41
496.681	22.71
497.114	23.02
497.547	23.32
497.98	23.62
498.413	23.94
498.846	24.26
499.279	24.58
499.711	24.91
500.144	25.26
500.577	25.6
501.009	25.92
501.442	26.26
501.874	26.61
502.306	26.97
502.739	27.35
503.171	27.71
503.603	28.07
504.036	28.44
504.468	28.81
504.9	29.17
505.332	29.57
505.764	29.96
506.196	30.34
506.627	30.72
507.059	31.11
507.491	31.49
507.923	31.88
508.354	32.29
508.786	32.68
509.217	33.07
509.649	33.46
510.08	33.83
510.512	34.2
510.943	34.58
511.374	34.97
511.805	35.32
512.237	35.69
512.668	36.07
513.099	36.41
513.53	36.77
513.961	37.12
514.391	37.47
514.822	37.83
515.253	38.17
515.684	38.47
516.114	38.79
516.545	39.11
516.975	39.43
517.406	39.73
517.836	40.02
518.267	40.32
518.697	40.58
519.127	40.84
519.558	41.09
519.988	41.36
520.418	41.62
520.848	41.86
521.278	42.11
521.708	42.5
522.138	42.71
522.567	42.93
522.997	43.12
523.427	43.33
523.857	43.53
524.286	43.71
524.716	43.88
525.145	44.05
525.575	44.22
526.004	44.37
526.433	44.35
526.863	44.51
527.292	44.66
527.721	44.81
528.15	44.92
528.579	45.05
529.008	45.18
529.437	45.29
529.866	45.43
530.295	45.56
530.724	45.67
531.152	45.79
531.581	45.9
532.01	46.01
532.438	46.08
532.867	46.21
533.295	46.29
533.723	46.38
534.152	46.47
534.58	46.55
535.008	46.59
535.436	46.66
535.865	46.73
536.293	46.79
536.721	46.86
537.149	46.93
537.576	46.99
538.004	47.06
538.432	47.12
538.86	47.18
539.287	47.21
539.715	47.27
540.143	47.31
540.57	47.34
540.998	47.35
541.425	47.38
541.852	47.41
542.28	47.44
542.707	47.47
543.134	47.51
543.561	47.54
543.988	47.56
544.415	47.57
544.842	47.6
545.269	47.61
545.696	47.65
546.123	47.67
546.549	47.68
546.976	47.68
547.403	47.7
547.829	47.7
548.256	47.71
548.682	47.73
549.108	47.76
549.535	47.77
549.961	47.79
550.387	47.78
550.813	47.79
551.24	47.8
551.666	47.8
552.092	47.79
552.518	47.78
552.943	47.77
553.369	47.76
553.795	47.77
554.221	47.76
554.646	47.76
555.072	47.74
555.498	47.72
555.923	47.7
556.349	47.68
556.774	47.66
557.199	47.64
557.625	47.6
558.05	47.59
558.475	47.54
558.9	47.54
559.325	47.5
559.75	47.47
560.175	47.45
560.6	47.38
561.025	47.33
561.449	47.27
561.874	47.21
562.299	47.16
562.723	47.09
563.148	47.02
563.572	46.91
563.997	46.82
564.421	46.73
564.846	46.66
565.27	46.59
565.694	46.51
566.118	46.45
566.542	46.39
566.966	46.3
567.39	46.23
567.814	46.14
568.238	46.06
568.662	46
569.086	45.94
569.509	45.84
569.933	45.76
570.357	45.68
570.78	45.57
571.204	45.49
571.627	45.4
572.05	45.32
572.474	45.27
572.897	45.22
573.32	45.12
573.743	45.02
574.166	44.96
574.589	44.87
575.012	44.79
575.435	44.72
575.858	44.64
576.281	44.56
576.704	44.48
577.126	44.38
577.549	44.3
577.972	44.22
578.394	44.15
578.817	44.07
579.239	44.03
579.661	43.96
580.084	43.9
580.506	43.83
580.928	43.78
581.35	43.73
581.772	43.67
582.194	43.62
582.616	43.57
583.038	43.53
583.46	43.47
583.882	43.41
584.303	43.33
584.725	43.29
585.147	43.23
585.568	43.16
585.99	43.11
586.411	43.05
586.833	42.99
587.254	42.93
587.675	42.87
588.096	42.82
588.518	42.77
588.939	42.74
589.36	42.67
589.781	42.64
590.202	42.63
590.623	42.59
591.043	42.55
591.464	42.52
591.885	42.48
592.305	42.45
592.726	42.41
593.147	42.39
593.567	42.33
593.987	42.29
594.408	42.23
594.828	42.17
595.248	42.12
595.669	42.06
596.089	42.01
596.509	42
596.929	41.95
597.349	41.89
597.769	41.85
598.189	41.82
598.608	41.8
599.028	41.75
599.448	41.73
599.867	41.66
600.287	41.65
600.706	41.6
601.126	41.55
601.545	41.53
601.965	41.51
602.384	41.46
602.803	41.4
603.222	41.36
603.641	41.31
604.061	41.26
604.48	41.23
604.898	41.17
605.317	41.12
605.736	41.06
606.155	41
606.574	40.92
606.992	40.86
607.411	40.83
607.829	40.75
608.248	40.69
608.666	40.61
609.085	40.55
609.503	40.5
609.921	40.44
610.339	40.38
610.758	40.3
611.176	40.25
611.594	40.17
612.012	40.1
612.43	40.04
612.847	39.98
613.265	39.91
613.683	39.84
614.101	39.76
614.518	39.67
614.936	39.59
615.353	39.51
615.771	39.44
616.188	39.39
616.606	39.33
617.023	39.28
617.44	39.23
617.857	39.16
618.274	39.11
618.691	39.06
619.108	39.02
619.525	38.98
619.942	38.95
620.359	38.92
620.776	38.86
621.192	38.82
621.609	38.79
622.026	38.75
622.442	38.73
622.859	38.7
623.275	38.68
623.691	38.66
624.108	38.63
624.524	38.6
624.94	38.59
625.356	38.58
625.772	38.56
626.188	38.56
626.604	38.56
627.02	38.56
627.436	38.55
627.852	38.55
628.268	38.54
628.683	38.54
629.099	38.54
629.514	38.51
629.93	38.49
630.345	38.49
630.761	38.44
631.176	38.41
631.591	38.34
632.007	38.28
632.422	38.22
632.837	38.16
633.252	38.07
633.667	37.98
634.082	37.88
634.497	37.8
634.911	37.68
635.326	37.55
635.741	37.4
636.155	37.24
636.57	37.1
636.984	36.91
637.399	36.72
637.813	36.54
638.228	36.31
638.642	36.08
639.056	35.83
639.47	35.58
639.884	35.34
640.298	35.09
640.712	34.85
641.126	34.58
641.54	34.31
641.954	34.05
642.368	33.79
642.781	33.54
643.195	33.3
643.609	33.05
644.022	32.8
644.436	32.56
644.849	32.34
645.262	32.11
645.676	31.9
646.089	31.71
646.502	31.52
646.915	31.35
647.328	31.19
647.741	31.03
648.154	30.89
648.567	30.78
648.98	30.65
649.393	30.54
649.805	30.47
650.218	30.38
650.631	30.31
651.043	30.22
651.456	30.14
651.868	30.05
652.28	29.98
652.693	29.92
653.105	29.84
653.517	29.77
653.929	29.69
654.341	29.59
654.753	29.48
655.165	29.35
655.577	29.23
655.989	29.1
656.401	28.97
656.813	28.82
657.224	28.65
657.636	28.47
658.047	28.29
658.459	28.11
658.87	27.9
659.282	27.69
659.693	27.49
660.104	27.26
660.515	27.04
660.926	26.8
661.338	26.57
661.749	26.34
662.159	26.1
662.57	25.87
662.981	25.63
663.392	25.4
663.803	25.19
664.213	24.97
664.624	24.77
665.035	24.56
665.445	24.37
665.855	24.19
666.266	24.01
666.676	23.86
667.086	23.69
667.497	23.54
667.907	23.4
668.317	23.27
668.727	23.16
669.137	23.06
669.547	22.96
669.956	22.88
670.366	22.8
670.776	22.73
671.186	22.67
671.595	22.63
672.005	22.58
672.414	22.56
672.824	22.55
673.233	22.55
673.642	22.55
674.052	22.57
674.461	22.61
674.87	22.64
675.279	22.7
675.688	22.77
676.097	22.86
676.506	22.96
676.915	23.08
677.323	23.21
677.732	23.35
678.141	23.52
678.549	23.73
678.958	23.96
679.366	24.23
679.775	24.53
680.183	24.86
680.592	25.23
681	25.62
681.408	26.07
681.816	26.53
682.224	27.04
682.632	27.6
683.04	28.14
683.448	28.73
683.856	29.33
684.264	29.98
684.671	30.65
685.079	31.32
685.487	32.02
685.894	32.75
686.302	33.48
686.709	34.21
687.116	34.91
687.524	35.67
687.931	36.4
688.338	37.13
688.745	37.85
689.152	38.53
689.559	39.25
689.966	39.94
690.373	40.61
690.78	41.26
691.187	41.89
691.593	42.52
692	43.12
692.407	43.66
692.813	44.22
693.22	44.72
693.626	45.23
694.032	45.73
694.439	46.21
694.845	46.65
695.251	47.08
695.657	47.47
696.063	47.86
696.469	48.24
696.875	48.64
697.281	49
697.687	49.35
698.093	49.69
698.498	50
698.904	50.28
699.31	50.57
699.715	50.84
700.12	51.1
700.526	51.34
700.931	51.56
701.337	51.77
701.742	51.98
702.147	52.18
702.552	52.35
702.957	52.48
703.362	52.65
703.767	52.8
704.172	52.95
704.577	53.11
704.981	53.27
705.386	53.41
705.791	53.53
706.195	53.66
706.6	53.81
707.004	53.94
707.408	54.12
707.813	54.26
708.217	54.38
708.621	54.51
709.025	54.63
709.43	54.73
709.834	54.84
710.237	54.93
710.641	55.02
711.045	55.09
711.449	55.19
711.853	55.28
712.256	55.38
712.66	55.45
713.064	55.52
713.467	55.59
713.87	55.66
714.274	55.75
714.677	55.84
715.08	55.89
715.484	55.98
715.887	56.07
716.29	56.12
716.693	56.18
717.096	56.28
717.499	56.35
717.901	56.39
718.304	56.47
718.707	56.53
719.109	56.6
719.512	56.67
719.915	56.73
720.317	56.74
720.719	56.76
721.122	56.79
721.524	56.82
721.926	56.88
722.328	56.96
722.731	57.01
723.133	57.05
723.535	57.08
723.937	57.13
724.338	57.16
724.74	57.21
725.142	57.35
725.544	57.38
725.945	57.44
726.347	57.44
726.748	57.46
727.15	57.46
727.551	57.49
727.952	57.5
728.354	57.53
728.755	57.54
729.156	57.55
729.557	57.47
729.958	57.47
730.359	57.43
730.76	57.47
731.161	57.47
731.562	57.51
731.962	57.5
732.363	57.5
732.763	57.53
733.164	57.53
733.564	57.56
733.965	57.59
734.365	57.62
734.766	57.64
735.166	57.65
735.566	57.66
735.966	57.68
736.366	57.67
736.766	57.68
737.166	57.69
737.566	57.71
737.966	57.72
738.365	57.73
738.765	57.75
739.165	57.76
739.564	57.76
739.964	57.73
740.363	57.71
740.763	57.72
741.162	57.74
741.561	57.74
741.96	57.7
742.36	57.69
742.759	57.65
743.158	57.64
743.557	57.61
743.955	57.59
744.354	57.62
744.753	57.63
745.152	57.65
745.55	57.66
745.949	57.65
746.348	57.68
746.746	57.67
747.144	57.7
747.543	57.69
747.941	57.72
748.339	57.71
748.737	57.71
749.136	57.7
749.534	57.66
749.932	57.64
750.33	57.62
750.727	57.61
751.125	57.6
751.523	57.58
751.921	57.6
752.318	57.58
752.716	57.6
753.113	57.59
753.511	57.58
753.908	57.6
754.305	57.59
754.703	57.59
755.1	57.58
755.497	57.57
755.894	57.55
756.291	57.53
756.688	57.52
757.085	57.5
757.482	57.5
757.878	57.51
758.275	57.47
758.672	57.47
759.068	57.47
759.465	57.5
759.861	57.52
760.258	57.57
760.654	57.55
761.05	57.57
761.447	57.6
761.843	57.57
762.239	57.55
762.635	57.56
763.031	57.57
763.427	57.57
763.822	57.55
764.218	57.52
764.614	57.51
765.01	57.51
765.405	57.5
765.801	57.46
766.196	57.48
766.592	57.48
766.987	57.48
767.382	57.44
767.778	57.43
768.173	57.42
768.568	57.39
768.963	57.35
769.358	57.35
769.753	57.33
770.148	57.33
770.542	57.32
770.937	57.31
771.332	57.3
