Data from C_2_DIV_IL_4N_Splice17_13-40-53-798.txt Node
Date: Sat Mar 07 13:40:53 EST 2020
User: sa697716
Spectrometer: NQ5500242
Trigger mode: 0
Integration Time (sec): 1.450000E-1
Scans to average: 20
Nonlinearity correction enabled: false
Boxcar width: 5
Storing dark spectrum: false
XAxis mode: Wavelengths
Number of Pixels in Spectrum: 512
>>>>>Begin Spectral Data<<<<<
187.83	229.4
188.298	249.15
188.766	214.5
189.233	164.23
189.701	163.47
190.169	217.34
190.636	232.12
191.104	276.55
191.571	138.74
192.039	-252.09
192.506	-519.41
192.974	102.83
193.441	183.84
193.908	26.22
194.375	45.91
194.842	-80.73
195.31	27.65
195.777	45.91
196.244	85.83
196.711	91.1
197.177	93.85
197.644	94.28
198.111	93.98
198.578	94.41
199.045	95.34
199.511	95.04
199.978	95.4
200.445	95.93
200.911	95.98
201.378	96.12
201.844	96.08
202.31	95.86
202.777	95.51
203.243	95.26
203.709	94.47
204.176	93.36
204.642	92.52
205.108	91.88
205.574	90.54
206.04	89.29
206.506	88.29
206.972	87.44
207.438	86.32
207.903	85.25
208.369	83.42
208.835	81.69
209.301	79.93
209.766	77.72
210.232	75.72
210.697	73.61
211.163	71.8
211.628	70.13
212.094	68.5
212.559	66.88
213.024	65.07
213.49	63.84
213.955	62.39
214.42	60.78
214.885	59.2
215.35	56.91
215.815	54.09
216.28	50.35
216.745	46.12
217.21	41.94
217.675	38.03
218.14	34.79
218.604	31.98
219.069	29.63
219.534	27.74
219.998	26
220.463	24.62
220.927	23.39
221.392	22.46
221.856	21.69
222.32	21.02
222.785	20.47
223.249	19.9
223.713	19.4
224.177	18.96
224.642	18.54
225.106	18.14
225.57	17.76
226.034	17.46
226.497	17.16
226.961	16.87
227.425	16.59
227.889	16.3
228.353	16.04
228.816	15.76
229.28	15.51
229.744	15.25
230.207	15.02
230.671	14.79
231.134	14.53
231.597	14.33
232.061	14.11
232.524	13.9
232.987	13.72
233.45	13.54
233.914	13.36
234.377	13.19
234.84	13.03
235.303	12.88
235.766	12.75
236.229	12.62
236.691	12.46
237.154	12.31
237.617	12.2
238.08	12.06
238.542	11.93
239.005	11.82
239.468	11.69
239.93	11.57
240.393	11.45
240.855	11.32
241.317	11.2
241.78	11.08
242.242	10.96
242.704	10.86
243.166	10.74
243.629	10.66
244.091	10.55
244.553	10.45
245.015	10.35
245.477	10.26
245.939	10.17
246.4	10.08
246.862	9.99
247.324	9.91
247.786	9.8
248.247	9.72
248.709	9.61
249.17	9.52
249.632	9.46
250.093	9.39
250.555	9.3
251.016	9.24
251.477	9.17
251.939	9.09
252.4	9.02
252.861	8.96
253.322	8.91
253.783	8.85
254.244	8.8
254.705	8.72
255.166	8.66
255.627	8.59
256.088	8.53
256.549	8.46
257.009	8.4
257.47	8.34
257.931	8.27
258.391	8.19
258.852	8.12
259.312	8.05
259.773	7.98
260.233	7.92
260.694	7.86
261.154	7.8
261.614	7.74
262.074	7.68
262.534	7.62
262.994	7.57
263.455	7.53
263.915	7.48
264.374	7.44
264.834	7.41
265.294	7.36
265.754	7.33
266.214	7.29
266.673	7.27
267.133	7.25
267.593	7.22
268.052	7.2
268.512	7.18
268.971	7.16
269.431	7.13
269.89	7.11
270.349	7.1
270.809	7.08
271.268	7.06
271.727	7.03
272.186	7.02
272.645	7
273.104	6.97
273.563	6.95
274.022	6.93
274.481	6.92
274.94	6.91
275.399	6.88
275.857	6.86
276.316	6.85
276.775	6.83
277.233	6.82
277.692	6.81
278.15	6.8
278.609	6.79
279.067	6.79
279.525	6.78
279.984	6.75
280.442	6.74
280.9	6.74
281.358	6.73
281.816	6.72
282.274	6.71
282.732	6.7
283.19	6.68
283.648	6.66
284.106	6.64
284.564	6.61
285.021	6.61
285.479	6.59
285.937	6.57
286.394	6.55
286.852	6.53
287.309	6.5
287.767	6.47
288.224	6.45
288.682	6.42
289.139	6.38
289.596	6.35
290.053	6.31
290.511	6.28
290.968	6.25
291.425	6.21
291.882	6.19
292.339	6.17
292.796	6.15
293.252	6.12
293.709	6.11
294.166	6.1
294.623	6.08
295.079	6.06
295.536	6.05
295.992	6.04
296.449	6.03
296.905	6.01
297.362	6
297.818	5.98
298.274	5.97
298.731	5.96
299.187	5.94
299.643	5.93
300.099	5.92
300.555	5.91
301.011	5.9
301.467	5.89
301.923	5.88
302.379	5.87
302.835	5.87
303.291	5.87
303.746	5.86
304.202	5.86
304.658	5.85
305.113	5.84
305.569	5.85
306.024	5.84
306.479	5.83
306.935	5.83
307.39	5.83
307.845	5.83
308.301	5.82
308.756	5.83
309.211	5.82
309.666	5.83
310.121	5.84
310.576	5.84
311.031	5.84
311.486	5.84
311.94	5.84
312.395	5.85
312.85	5.85
313.305	5.85
313.759	5.84
314.214	5.84
314.668	5.82
315.123	5.81
315.577	5.8
316.032	5.79
316.486	5.77
316.94	5.76
317.394	5.73
317.849	5.71
318.303	5.68
318.757	5.66
319.211	5.64
319.665	5.61
320.119	5.6
320.572	5.57
321.026	5.56
321.48	5.55
321.934	5.53
322.387	5.52
322.841	5.51
323.295	5.52
323.748	5.51
324.202	5.51
324.655	5.51
325.108	5.51
325.562	5.51
326.015	5.51
326.468	5.51
326.921	5.51
327.374	5.51
327.827	5.51
328.28	5.51
328.733	5.5
329.186	5.5
329.639	5.5
330.092	5.5
330.545	5.51
330.997	5.52
331.45	5.52
331.903	5.53
332.355	5.53
332.808	5.53
333.26	5.53
333.713	5.53
334.165	5.53
334.617	5.54
335.069	5.53
335.522	5.53
335.974	5.53
336.426	5.53
336.878	5.51
337.33	5.51
337.782	5.51
338.234	5.52
338.686	5.51
339.137	5.52
339.589	5.49
340.041	5.48
340.493	5.46
340.944	5.43
341.396	5.41
341.847	5.39
342.299	5.36
342.75	5.34
343.201	5.31
343.653	5.29
344.104	5.25
344.555	5.24
345.006	5.21
345.457	5.2
345.908	5.18
346.359	5.18
346.81	5.17
347.261	5.17
347.712	5.17
348.163	5.16
348.613	5.16
349.064	5.17
349.515	5.17
349.965	5.17
350.416	5.16
350.866	5.17
351.317	5.16
351.767	5.17
352.217	5.16
352.668	5.16
353.118	5.16
353.568	5.15
354.018	5.15
354.468	5.16
354.918	5.16
355.368	5.17
355.818	5.18
356.268	5.18
356.718	5.18
357.168	5.18
357.617	5.17
358.067	5.17
358.517	5.19
358.966	5.19
359.416	5.19
359.865	5.18
360.315	5.18
360.764	5.18
361.213	5.17
361.663	5.16
362.112	5.17
362.561	5.17
363.01	5.17
363.459	5.14
363.908	5.14
364.357	5.14
364.806	5.14
365.255	5.13
365.703	5.14
366.152	5.16
366.601	5.17
367.05	5.16
367.498	5.16
367.947	5.16
368.395	5.17
368.844	5.17
369.292	5.16
369.74	5.17
370.189	5.17
370.637	5.15
371.085	5.13
371.533	5.12
371.981	5.12
372.429	5.12
372.877	5.12
373.325	5.12
373.773	5.11
374.221	5.11
374.669	5.1
375.116	5.09
375.564	5.09
376.012	5.1
376.459	5.1
376.907	5.1
377.354	5.09
377.801	5.09
378.249	5.08
378.696	5.09
379.143	5.08
379.591	5.08
380.038	5.07
380.485	5.07
380.932	5.06
381.379	5.07
381.826	5.07
382.273	5.07
382.72	5.05
383.166	5.05
383.613	5.04
384.06	5.04
384.506	5.05
384.953	5.06
385.4	5.07
385.846	5.08
386.292	5.08
386.739	5.08
387.185	5.09
387.631	5.1
388.078	5.12
388.524	5.13
388.97	5.16
389.416	5.17
389.862	5.2
390.308	5.22
390.754	5.25
391.2	5.28
391.645	5.32
392.091	5.36
392.537	5.39
392.983	5.41
393.428	5.45
393.874	5.47
394.319	5.5
394.765	5.52
395.21	5.54
395.655	5.57
396.101	5.61
396.546	5.64
396.991	5.66
397.436	5.7
397.881	5.75
398.326	5.79
398.771	5.83
399.216	5.86
399.661	5.9
400.106	5.93
400.551	5.95
400.995	5.96
401.44	5.99
401.885	6.01
402.329	6.05
402.774	6.07
403.218	6.13
403.663	6.15
404.107	6.2
404.551	6.23
404.995	6.27
405.44	6.3
405.884	6.34
406.328	6.38
406.772	6.41
407.216	6.44
407.66	6.46
408.104	6.46
408.547	6.48
408.991	6.51
409.435	6.54
409.879	6.57
410.322	6.61
410.766	6.66
411.209	6.7
411.653	6.73
412.096	6.78
412.54	6.82
412.983	6.86
413.426	6.93
413.869	6.97
414.312	7.02
414.756	7.05
415.199	7.08
415.642	7.1
416.085	7.11
416.527	7.12
416.97	7.12
417.413	7.14
417.856	7.15
418.298	7.15
418.741	7.15
419.184	7.16
419.626	7.17
420.069	7.19
420.511	7.21
420.953	7.24
421.396	7.27
421.838	7.31
422.28	7.33
422.722	7.38
423.164	7.39
423.606	7.41
424.048	7.42
424.49	7.42
424.932	7.41
425.374	7.39
425.816	7.36
426.258	7.36
426.699	7.35
427.141	7.35
427.582	7.35
428.024	7.38
428.465	7.38
428.907	7.37
429.348	7.37
429.789	7.4
430.231	7.45
430.672	7.52
431.113	7.56
431.554	7.59
431.995	7.61
432.436	7.62
432.877	7.65
433.318	7.7
433.759	7.75
434.2	7.8
434.64	7.83
435.081	7.85
435.522	7.85
435.962	7.87
436.403	7.89
436.843	7.91
437.284	7.9
437.724	7.9
438.164	7.88
438.604	7.9
439.045	7.91
439.485	7.91
439.925	7.9
440.365	7.92
440.805	7.92
441.245	7.95
441.685	7.98
442.125	8.02
442.564	8.01
443.004	8.03
443.444	8.06
443.883	8.08
444.323	8.09
444.762	8.11
445.202	8.11
445.641	8.14
446.081	8.14
446.52	8.15
446.959	8.19
447.398	8.22
447.837	8.24
448.276	8.25
448.716	8.26
449.154	8.29
449.593	8.3
450.032	8.31
450.471	8.29
450.91	8.29
451.349	8.29
451.787	8.26
452.226	8.24
452.664	8.24
453.103	8.22
453.541	8.21
453.98	8.2
454.418	8.18
454.856	8.18
455.295	8.18
455.733	8.14
456.171	8.12
456.609	8.12
457.047	8.09
457.485	8.08
457.923	8.08
458.361	8.06
458.798	8.05
459.236	8.04
459.674	8.04
460.111	8.03
460.549	8.05
460.987	8.06
461.424	8.06
461.862	8.08
462.299	8.08
462.736	8.09
463.173	8.1
463.611	8.11
464.048	8.13
464.485	8.14
464.922	8.13
465.359	8.13
465.796	8.17
466.233	8.18
466.67	8.19
467.106	8.2
467.543	8.19
467.98	8.18
468.416	8.16
468.853	8.16
469.29	8.15
469.726	8.16
470.162	8.16
470.599	8.12
471.035	8.1
471.471	8.09
471.907	8.08
472.344	8.07
472.78	8.07
473.216	8.05
473.652	8.03
474.088	8
474.523	8
474.959	7.99
475.395	7.96
475.831	7.95
476.266	7.93
476.702	7.92
477.138	7.91
477.573	7.89
478.008	7.89
478.444	7.88
478.879	7.89
479.314	7.87
479.75	7.86
480.185	7.83
480.62	7.83
481.055	7.81
481.49	7.79
481.925	7.78
482.36	7.79
482.795	7.77
483.229	7.76
483.664	7.75
484.099	7.74
484.534	7.74
484.968	7.76
485.403	7.76
485.837	7.77
486.271	7.78
486.706	7.78
487.14	7.78
487.574	7.8
488.009	7.82
488.443	7.82
488.877	7.85
489.311	7.88
489.745	7.89
490.179	7.93
490.613	7.96
491.046	7.99
491.48	8.03
491.914	8.06
492.348	8.11
492.781	8.16
493.215	8.22
493.648	8.26
494.082	8.3
494.515	8.35
494.948	8.4
495.382	8.46
495.815	8.52
496.248	8.6
496.681	8.67
497.114	8.74
497.547	8.81
497.98	8.88
498.413	8.96
498.846	9.05
499.279	9.14
499.711	9.22
500.144	9.32
500.577	9.43
501.009	9.53
501.442	9.64
501.874	9.76
502.306	9.87
502.739	10.02
503.171	10.15
503.603	10.3
504.036	10.44
504.468	10.59
504.9	10.74
505.332	10.91
505.764	11.07
506.196	11.24
506.627	11.42
507.059	11.61
507.491	11.78
507.923	11.98
508.354	12.19
508.786	12.41
509.217	12.64
509.649	12.87
510.08	13.09
510.512	13.34
510.943	13.59
511.374	13.85
511.805	14.11
512.237	14.38
512.668	14.65
513.099	14.92
513.53	15.2
513.961	15.48
514.391	15.79
514.822	16.1
515.253	16.4
515.684	16.69
516.114	17
516.545	17.31
516.975	17.61
517.406	17.92
517.836	18.22
518.267	18.54
518.697	18.85
519.127	19.13
519.558	19.43
519.988	19.73
520.418	20.04
520.848	20.33
521.278	20.63
521.708	21.17
522.138	21.45
522.567	21.73
522.997	22
523.427	22.26
523.857	22.53
524.286	22.8
524.716	23.06
525.145	23.3
525.575	23.54
526.004	23.76
526.433	23.76
526.863	24
527.292	24.23
527.721	24.44
528.15	24.63
528.579	24.83
529.008	25.01
529.437	25.18
529.866	25.35
530.295	25.5
530.724	25.67
531.152	25.82
531.581	25.96
532.01	26.09
532.438	26.22
532.867	26.35
533.295	26.49
533.723	26.6
534.152	26.72
534.58	26.82
535.008	26.92
535.436	27
535.865	27.09
536.293	27.17
536.721	27.24
537.149	27.32
537.576	27.38
538.004	27.44
538.432	27.5
538.86	27.56
539.287	27.61
539.715	27.68
540.143	27.73
540.57	27.78
540.998	27.82
541.425	27.87
541.852	27.92
542.28	27.98
542.707	28.04
543.134	28.07
543.561	28.12
543.988	28.17
544.415	28.2
544.842	28.25
545.269	28.3
545.696	28.35
546.123	28.39
546.549	28.43
546.976	28.47
547.403	28.49
547.829	28.53
548.256	28.56
548.682	28.59
549.108	28.65
549.535	28.68
549.961	28.7
550.387	28.7
550.813	28.72
551.24	28.71
551.666	28.71
552.092	28.72
552.518	28.73
552.943	28.72
553.369	28.7
553.795	28.67
554.221	28.65
554.646	28.61
555.072	28.6
555.498	28.54
555.923	28.51
556.349	28.46
556.774	28.41
557.199	28.35
557.625	28.29
558.05	28.23
558.475	28.15
558.9	28.08
559.325	28.02
559.75	27.93
560.175	27.86
560.6	27.76
561.025	27.68
561.449	27.58
561.874	27.45
562.299	27.33
562.723	27.2
563.148	27.07
563.572	26.91
563.997	26.77
564.421	26.63
564.846	26.49
565.27	26.34
565.694	26.19
566.118	26.03
566.542	25.88
566.966	25.72
567.39	25.58
567.814	25.43
568.238	25.29
568.662	25.14
569.086	24.98
569.509	24.83
569.933	24.7
570.357	24.56
570.78	24.4
571.204	24.27
571.627	24.15
572.05	24
572.474	23.89
572.897	23.77
573.32	23.65
573.743	23.53
574.166	23.4
574.589	23.27
575.012	23.15
575.435	23.05
575.858	22.93
576.281	22.8
576.704	22.68
577.126	22.56
577.549	22.44
577.972	22.32
578.394	22.21
578.817	22.12
579.239	22.03
579.661	21.94
580.084	21.84
580.506	21.75
580.928	21.66
581.35	21.59
581.772	21.49
582.194	21.41
582.616	21.35
583.038	21.27
583.46	21.18
583.882	21.09
584.303	21
584.725	20.91
585.147	20.85
585.568	20.77
585.99	20.71
586.411	20.66
586.833	20.59
587.254	20.52
587.675	20.46
588.096	20.41
588.518	20.35
588.939	20.31
589.36	20.26
589.781	20.21
590.202	20.19
590.623	20.14
591.043	20.09
591.464	20.06
591.885	20.01
592.305	19.98
592.726	19.94
593.147	19.9
593.567	19.87
593.987	19.82
594.408	19.78
594.828	19.71
595.248	19.67
595.669	19.62
596.089	19.56
596.509	19.53
596.929	19.49
597.349	19.46
597.769	19.42
598.189	19.37
598.608	19.34
599.028	19.32
599.448	19.28
599.867	19.24
600.287	19.2
600.706	19.16
601.126	19.12
601.545	19.08
601.965	19.03
602.384	18.98
602.803	18.92
603.222	18.85
603.641	18.78
604.061	18.73
604.48	18.64
604.898	18.57
605.317	18.5
605.736	18.41
606.155	18.34
606.574	18.25
606.992	18.17
607.411	18.1
607.829	18
608.248	17.91
608.666	17.81
609.085	17.74
609.503	17.67
609.921	17.58
610.339	17.51
610.758	17.42
611.176	17.33
611.594	17.26
612.012	17.17
612.43	17.1
612.847	17.02
613.265	16.94
613.683	16.86
614.101	16.78
614.518	16.69
614.936	16.62
615.353	16.54
615.771	16.47
616.188	16.39
616.606	16.32
617.023	16.27
617.44	16.21
617.857	16.15
618.274	16.09
618.691	16.04
619.108	15.99
619.525	15.92
619.942	15.88
620.359	15.83
620.776	15.79
621.192	15.75
621.609	15.71
622.026	15.68
622.442	15.65
622.859	15.62
623.275	15.58
623.691	15.57
624.108	15.55
624.524	15.53
624.94	15.52
625.356	15.51
625.772	15.5
626.188	15.49
626.604	15.48
627.02	15.47
627.436	15.47
627.852	15.46
628.268	15.45
628.683	15.44
629.099	15.44
629.514	15.42
629.93	15.4
630.345	15.38
630.761	15.35
631.176	15.31
631.591	15.29
632.007	15.26
632.422	15.2
632.837	15.16
633.252	15.12
633.667	15.05
634.082	14.99
634.497	14.93
634.911	14.85
635.326	14.77
635.741	14.71
636.155	14.61
636.57	14.53
636.984	14.45
637.399	14.36
637.813	14.24
638.228	14.14
638.642	14.02
639.056	13.9
639.47	13.8
639.884	13.68
640.298	13.54
640.712	13.43
641.126	13.3
641.54	13.16
641.954	13.03
642.368	12.91
642.781	12.79
643.195	12.67
643.609	12.55
644.022	12.43
644.436	12.32
644.849	12.21
645.262	12.1
645.676	12
646.089	11.91
646.502	11.83
646.915	11.76
647.328	11.68
647.741	11.61
648.154	11.54
648.567	11.49
648.98	11.41
649.393	11.35
649.805	11.3
650.218	11.24
650.631	11.19
651.043	11.14
651.456	11.08
651.868	11.02
652.28	10.97
652.693	10.92
653.105	10.86
653.517	10.82
653.929	10.76
654.341	10.69
654.753	10.61
655.165	10.54
655.577	10.47
655.989	10.4
656.401	10.32
656.813	10.24
657.224	10.14
657.636	10.04
658.047	9.95
658.459	9.85
658.87	9.76
659.282	9.66
659.693	9.56
660.104	9.44
660.515	9.32
660.926	9.22
661.338	9.11
661.749	9.02
662.159	8.93
662.57	8.84
662.981	8.74
663.392	8.67
663.803	8.59
664.213	8.51
664.624	8.45
665.035	8.39
665.445	8.32
665.855	8.27
666.266	8.21
666.676	8.17
667.086	8.1
667.497	8.07
667.907	8.03
668.317	7.99
668.727	7.98
669.137	7.94
669.547	7.93
669.956	7.91
670.366	7.9
670.776	7.88
671.186	7.87
671.595	7.87
672.005	7.86
672.414	7.86
672.824	7.86
673.233	7.85
673.642	7.86
674.052	7.87
674.461	7.87
674.87	7.89
675.279	7.91
675.688	7.92
676.097	7.95
676.506	7.99
676.915	8.02
677.323	8.05
677.732	8.07
678.141	8.12
678.549	8.15
678.958	8.2
679.366	8.25
679.775	8.3
680.183	8.39
680.592	8.47
681	8.55
681.408	8.65
681.816	8.76
682.224	8.88
682.632	9.02
683.04	9.17
683.448	9.34
683.856	9.52
684.264	9.73
684.671	9.94
685.079	10.17
685.487	10.44
685.894	10.74
686.302	11.05
686.709	11.39
687.116	11.75
687.524	12.14
687.931	12.57
688.338	13.01
688.745	13.46
689.152	13.95
689.559	14.47
689.966	15
690.373	15.53
690.78	16.11
691.187	16.67
691.593	17.27
692	17.88
692.407	18.47
692.813	19.09
693.22	19.72
693.626	20.35
694.032	20.99
694.439	21.63
694.845	22.28
695.251	22.9
695.657	23.53
696.063	24.17
696.469	24.82
696.875	25.45
697.281	26.08
697.687	26.7
698.093	27.32
698.498	27.93
698.904	28.51
699.31	29.08
699.715	29.67
700.12	30.26
700.526	30.82
700.931	31.36
701.337	31.9
701.742	32.42
702.147	32.93
702.552	33.44
702.957	33.91
703.362	34.38
703.767	34.84
704.172	35.3
704.577	35.76
704.981	36.19
705.386	36.61
705.791	37.02
706.195	37.45
706.6	37.86
707.004	38.24
707.408	38.64
707.813	39.06
708.217	39.44
708.621	39.82
709.025	40.15
709.43	40.51
709.834	40.88
710.237	41.22
710.641	41.54
711.045	41.85
711.449	42.17
711.853	42.51
712.256	42.8
712.66	43.1
713.064	43.39
713.467	43.69
713.87	43.99
714.274	44.26
714.677	44.55
715.08	44.82
715.484	45.13
715.887	45.42
716.29	45.66
716.693	45.93
717.096	46.21
717.499	46.45
717.901	46.7
718.304	46.92
718.707	47.16
719.109	47.41
719.512	47.62
719.915	47.83
720.317	48.01
720.719	48.17
721.122	48.36
721.524	48.53
721.926	48.74
722.328	48.91
722.731	49.09
723.133	49.27
723.535	49.44
723.937	49.63
724.338	49.78
724.74	49.93
725.142	50.28
725.544	50.43
725.945	50.63
726.347	50.74
726.748	50.87
727.15	50.97
727.551	51.11
727.952	51.2
728.354	51.3
728.755	51.39
729.156	51.51
729.557	51.43
729.958	51.53
730.359	51.56
730.76	51.69
731.161	51.8
731.562	51.91
731.962	51.94
732.363	52.04
732.763	52.13
733.164	52.23
733.564	52.29
733.965	52.37
734.365	52.46
734.766	52.53
735.166	52.57
735.566	52.63
735.966	52.7
736.366	52.78
736.766	52.81
737.166	52.87
737.566	52.9
737.966	52.95
738.365	53
738.765	53.06
739.165	53.11
739.564	53.16
739.964	53.19
740.363	53.21
740.763	53.24
741.162	53.28
741.561	53.28
741.96	53.29
742.36	53.32
742.759	53.35
743.158	53.36
743.557	53.37
743.955	53.41
744.354	53.41
744.753	53.47
745.152	53.53
745.55	53.56
745.949	53.61
746.348	53.65
746.746	53.64
747.144	53.67
747.543	53.67
747.941	53.67
748.339	53.64
748.737	53.67
749.136	53.65
749.534	53.6
749.932	53.59
750.33	53.55
750.727	53.56
751.125	53.58
751.523	53.56
751.921	53.59
752.318	53.62
752.716	53.64
753.113	53.64
753.511	53.66
753.908	53.71
754.305	53.76
754.703	53.81
755.1	53.84
755.497	53.85
755.894	53.89
756.291	53.91
756.688	53.94
757.085	53.97
757.482	53.98
757.878	54.02
758.275	54.03
758.672	54.02
759.068	54.03
759.465	54.04
759.861	54.06
760.258	54.09
760.654	54.09
761.05	54.1
761.447	54.12
761.843	54.11
762.239	54.1
762.635	54.07
763.031	54.07
763.427	54.05
763.822	54.04
764.218	54.05
764.614	54.03
765.01	54.04
765.405	54.04
765.801	53.99
766.196	54.01
766.592	54.01
766.987	54.02
767.382	54
767.778	54.02
768.173	54.04
768.568	54.04
768.963	54.02
769.358	54.03
769.753	54
770.148	54.05
770.542	54.05
770.937	54.07
771.332	54.08
771.726	54.08
772.121	54.1
772.515	54.06
772.91	54.07
773.304	54.11
773.699	54.1
774.093	54.11
774.487	54.08
774.881	54.12
775.275	54.09
775.669	54.1
776.063	54.12
776.457	54.15
776.851	54.14
777.245	54.11
777.638	54.08
778.032	54.08
778.425	54.1
778.819	54.1
779.212	54.1
779.606	54.12
779.999	54.12
