Data from C_2_HIR_IL_4N_Splice17_13-13-33-968.txt Node
Date: Sat Mar 07 13:13:33 EST 2020
User: sa697716
Spectrometer: NQ5500242
Trigger mode: 0
Integration Time (sec): 1.450000E-1
Scans to average: 20
Nonlinearity correction enabled: false
Boxcar width: 5
Storing dark spectrum: false
XAxis mode: Wavelengths
Number of Pixels in Spectrum: 512
>>>>>Begin Spectral Data<<<<<
187.83	107.99
188.298	126.82
188.766	110.16
189.233	91.95
189.701	77.22
190.169	111.24
190.636	108.7
191.104	5.75
191.571	-217.08
192.039	-116.4
192.506	-44.48
192.974	179.93
193.441	197.75
193.908	49.33
194.375	77.24
194.842	-8.27
195.31	56.29
195.777	53.29
196.244	34.23
196.711	44.41
197.177	47.18
197.644	47.23
198.111	46.41
198.578	47.22
199.045	47.74
199.511	47.47
199.978	47.64
200.445	47.83
200.911	47.71
201.378	47.57
201.844	47.54
202.31	47.26
202.777	47.01
203.243	47.09
203.709	46.86
204.176	46.35
204.642	45.65
205.108	45.47
205.574	45.29
206.04	44.9
206.506	44.43
206.972	44.51
207.438	44.06
207.903	43.9
208.369	42.88
208.835	41.93
209.301	41.15
209.766	40.15
210.232	39.13
210.697	38.1
211.163	37.3
211.628	36.68
212.094	35.46
212.559	34.88
213.024	33.86
213.49	33.38
213.955	32.67
214.42	32.06
214.885	31.34
215.35	30.44
215.815	28.98
216.28	27.08
216.745	25.04
217.21	23
217.675	21.18
218.14	19.66
218.604	18.27
219.069	17.25
219.534	16.34
219.998	15.57
220.463	14.88
220.927	14.3
221.392	13.86
221.856	13.5
222.32	13.23
222.785	12.97
223.249	12.73
223.713	12.5
224.177	12.27
224.642	12.06
225.106	11.86
225.57	11.66
226.034	11.5
226.497	11.33
226.961	11.16
227.425	11
227.889	10.85
228.353	10.67
228.816	10.53
229.28	10.38
229.744	10.22
230.207	10.08
230.671	9.95
231.134	9.81
231.597	9.72
232.061	9.6
232.524	9.49
232.987	9.37
233.45	9.27
233.914	9.16
234.377	9.06
234.84	8.97
235.303	8.89
235.766	8.81
236.229	8.73
236.691	8.62
237.154	8.54
237.617	8.46
238.08	8.39
238.542	8.31
239.005	8.24
239.468	8.17
239.93	8.1
240.393	8.03
240.855	7.94
241.317	7.87
241.78	7.8
242.242	7.72
242.704	7.65
243.166	7.58
243.629	7.52
244.091	7.46
244.553	7.39
245.015	7.33
245.477	7.27
245.939	7.21
246.4	7.16
246.862	7.1
247.324	7.06
247.786	7.01
248.247	6.95
248.709	6.89
249.17	6.84
249.632	6.81
250.093	6.76
250.555	6.72
251.016	6.68
251.477	6.64
251.939	6.61
252.4	6.58
252.861	6.55
253.322	6.52
253.783	6.5
254.244	6.47
254.705	6.43
255.166	6.4
255.627	6.37
256.088	6.35
256.549	6.32
257.009	6.28
257.47	6.25
257.931	6.21
258.391	6.18
258.852	6.15
259.312	6.12
259.773	6.08
260.233	6.06
260.694	6.02
261.154	5.99
261.614	5.96
262.074	5.93
262.534	5.9
262.994	5.88
263.455	5.86
263.915	5.83
264.374	5.81
264.834	5.8
265.294	5.77
265.754	5.77
266.214	5.75
266.673	5.73
267.133	5.73
267.593	5.72
268.052	5.71
268.512	5.7
268.971	5.69
269.431	5.67
269.89	5.66
270.349	5.66
270.809	5.64
271.268	5.63
271.727	5.62
272.186	5.6
272.645	5.59
273.104	5.57
273.563	5.56
274.022	5.55
274.481	5.55
274.94	5.54
275.399	5.52
275.857	5.52
276.316	5.51
276.775	5.49
277.233	5.49
277.692	5.48
278.15	5.48
278.609	5.47
279.067	5.46
279.525	5.45
279.984	5.44
280.442	5.43
280.9	5.43
281.358	5.42
281.816	5.43
282.274	5.41
282.732	5.41
283.19	5.4
283.648	5.39
284.106	5.38
284.564	5.38
285.021	5.38
285.479	5.38
285.937	5.37
286.394	5.36
286.852	5.35
287.309	5.35
287.767	5.33
288.224	5.32
288.682	5.3
289.139	5.29
289.596	5.27
290.053	5.25
290.511	5.23
290.968	5.22
291.425	5.2
291.882	5.2
292.339	5.18
292.796	5.17
293.252	5.17
293.709	5.18
294.166	5.17
294.623	5.17
295.079	5.17
295.536	5.17
295.992	5.17
296.449	5.17
296.905	5.16
297.362	5.17
297.818	5.16
298.274	5.17
298.731	5.16
299.187	5.15
299.643	5.14
300.099	5.15
300.555	5.15
301.011	5.14
301.467	5.14
301.923	5.14
302.379	5.14
302.835	5.14
303.291	5.14
303.746	5.14
304.202	5.15
304.658	5.16
305.113	5.15
305.569	5.15
306.024	5.16
306.479	5.15
306.935	5.16
307.39	5.16
307.845	5.17
308.301	5.18
308.756	5.18
309.211	5.18
309.666	5.19
310.121	5.2
310.576	5.2
311.031	5.21
311.486	5.23
311.94	5.23
312.395	5.23
312.85	5.23
313.305	5.23
313.759	5.24
314.214	5.25
314.668	5.24
315.123	5.23
315.577	5.23
316.032	5.23
316.486	5.22
316.94	5.22
317.394	5.22
317.849	5.21
318.303	5.2
318.757	5.19
319.211	5.17
319.665	5.16
320.119	5.16
320.572	5.15
321.026	5.14
321.48	5.14
321.934	5.12
322.387	5.11
322.841	5.12
323.295	5.12
323.748	5.11
324.202	5.12
324.655	5.13
325.108	5.13
325.562	5.14
326.015	5.14
326.468	5.14
326.921	5.14
327.374	5.14
327.827	5.15
328.28	5.15
328.733	5.15
329.186	5.15
329.639	5.15
330.092	5.14
330.545	5.14
330.997	5.14
331.45	5.15
331.903	5.15
332.355	5.16
332.808	5.15
333.26	5.15
333.713	5.15
334.165	5.14
334.617	5.15
335.069	5.14
335.522	5.15
335.974	5.15
336.426	5.14
336.878	5.14
337.33	5.13
337.782	5.13
338.234	5.14
338.686	5.14
339.137	5.14
339.589	5.11
340.041	5.11
340.493	5.09
340.944	5.08
341.396	5.06
341.847	5.04
342.299	5.03
342.75	5.01
343.201	4.99
343.653	4.98
344.104	4.95
344.555	4.95
345.006	4.93
345.457	4.93
345.908	4.93
346.359	4.93
346.81	4.93
347.261	4.93
347.712	4.92
348.163	4.91
348.613	4.92
349.064	4.92
349.515	4.92
349.965	4.92
350.416	4.91
350.866	4.91
351.317	4.9
351.767	4.91
352.217	4.91
352.668	4.91
353.118	4.91
353.568	4.9
354.018	4.9
354.468	4.91
354.918	4.91
355.368	4.92
355.818	4.92
356.268	4.92
356.718	4.92
357.168	4.91
357.617	4.9
358.067	4.9
358.517	4.91
358.966	4.92
359.416	4.92
359.865	4.91
360.315	4.91
360.764	4.92
361.213	4.92
361.663	4.92
362.112	4.93
362.561	4.95
363.01	4.95
363.459	4.95
363.908	4.95
364.357	4.96
364.806	4.97
365.255	4.98
365.703	4.99
366.152	5
366.601	5.02
367.05	5.04
367.498	5.05
367.947	5.07
368.395	5.1
368.844	5.13
369.292	5.14
369.74	5.17
370.189	5.2
370.637	5.22
371.085	5.25
371.533	5.29
371.981	5.33
372.429	5.38
372.877	5.43
373.325	5.49
373.773	5.55
374.221	5.62
374.669	5.69
375.116	5.77
375.564	5.85
376.012	5.94
376.459	6.03
376.907	6.14
377.354	6.24
377.801	6.35
378.249	6.46
378.696	6.57
379.143	6.7
379.591	6.84
380.038	6.98
380.485	7.12
380.932	7.27
381.379	7.43
381.826	7.57
382.273	7.73
382.72	7.88
383.166	8.05
383.613	8.21
384.06	8.39
384.506	8.54
384.953	8.72
385.4	8.89
385.846	9.06
386.292	9.23
386.739	9.39
387.185	9.57
387.631	9.75
388.078	9.92
388.524	10.08
388.97	10.24
389.416	10.41
389.862	10.56
390.308	10.71
390.754	10.87
391.2	11
391.645	11.14
392.091	11.28
392.537	11.42
392.983	11.55
393.428	11.7
393.874	11.81
394.319	11.91
394.765	12
395.21	12.07
395.655	12.14
396.101	12.23
396.546	12.28
396.991	12.35
397.436	12.4
397.881	12.47
398.326	12.51
398.771	12.56
399.216	12.61
399.661	12.65
400.106	12.7
400.551	12.72
400.995	12.73
401.44	12.75
401.885	12.76
402.329	12.76
402.774	12.77
403.218	12.8
403.663	12.8
404.107	12.8
404.551	12.79
404.995	12.78
405.44	12.77
405.884	12.77
406.328	12.76
406.772	12.73
407.216	12.72
407.66	12.71
408.104	12.66
408.547	12.63
408.991	12.61
409.435	12.6
409.879	12.57
410.322	12.57
410.766	12.55
411.209	12.55
411.653	12.55
412.096	12.54
412.54	12.52
412.983	12.51
413.426	12.53
413.869	12.5
414.312	12.49
414.756	12.48
415.199	12.46
415.642	12.43
416.085	12.39
416.527	12.34
416.97	12.28
417.413	12.24
417.856	12.21
418.298	12.16
418.741	12.13
419.184	12.11
419.626	12.07
420.069	12.04
420.511	12.02
420.953	11.99
421.396	11.98
421.838	11.98
422.28	11.96
422.722	11.95
423.164	11.91
423.606	11.88
424.048	11.85
424.49	11.8
424.932	11.77
425.374	11.71
425.816	11.66
426.258	11.63
426.699	11.59
427.141	11.57
427.582	11.56
428.024	11.56
428.465	11.56
428.907	11.54
429.348	11.54
429.789	11.53
430.231	11.56
430.672	11.59
431.113	11.61
431.554	11.62
431.995	11.63
432.436	11.63
432.877	11.65
433.318	11.67
433.759	11.7
434.2	11.74
434.64	11.77
435.081	11.77
435.522	11.8
435.962	11.82
436.403	11.86
436.843	11.89
437.284	11.92
437.724	11.95
438.164	11.97
438.604	11.99
439.045	12.02
439.485	12.06
439.925	12.1
440.365	12.14
440.805	12.17
441.245	12.23
441.685	12.28
442.125	12.34
442.564	12.37
443.004	12.43
443.444	12.49
443.883	12.56
444.323	12.6
444.762	12.67
445.202	12.73
445.641	12.81
446.081	12.89
446.52	12.95
446.959	13.02
447.398	13.1
447.837	13.17
448.276	13.25
448.716	13.33
449.154	13.42
449.593	13.51
450.032	13.57
450.471	13.62
450.91	13.65
451.349	13.71
451.787	13.76
452.226	13.8
452.664	13.85
453.103	13.89
453.541	13.92
453.98	13.97
454.418	13.99
454.856	14.03
455.295	14.07
455.733	14.1
456.171	14.14
456.609	14.17
457.047	14.21
457.485	14.24
457.923	14.28
458.361	14.33
458.798	14.37
459.236	14.42
459.674	14.46
460.111	14.5
460.549	14.54
460.987	14.58
461.424	14.64
461.862	14.68
462.299	14.71
462.736	14.74
463.173	14.76
463.611	14.77
464.048	14.8
464.485	14.81
464.922	14.83
465.359	14.84
465.796	14.85
466.233	14.85
466.67	14.86
467.106	14.87
467.543	14.86
467.98	14.86
468.416	14.85
468.853	14.83
469.29	14.81
469.726	14.8
470.162	14.78
470.599	14.77
471.035	14.74
471.471	14.71
471.907	14.69
472.344	14.69
472.78	14.67
473.216	14.66
473.652	14.67
474.088	14.65
474.523	14.65
474.959	14.65
475.395	14.63
475.831	14.63
476.266	14.63
476.702	14.61
477.138	14.61
477.573	14.61
478.008	14.62
478.444	14.6
478.879	14.63
479.314	14.63
479.75	14.64
480.185	14.64
480.62	14.67
481.055	14.7
481.49	14.73
481.925	14.76
482.36	14.8
482.795	14.85
483.229	14.9
483.664	14.95
484.099	15.01
484.534	15.08
484.968	15.17
485.403	15.24
485.837	15.33
486.271	15.44
486.706	15.55
487.14	15.67
487.574	15.79
488.009	15.92
488.443	16.06
488.877	16.21
489.311	16.36
489.745	16.53
490.179	16.72
490.613	16.89
491.046	17.07
491.48	17.25
491.914	17.44
492.348	17.64
492.781	17.85
493.215	18.07
493.648	18.29
494.082	18.51
494.515	18.73
494.948	18.97
495.382	19.2
495.815	19.45
496.248	19.72
496.681	19.99
497.114	20.26
497.547	20.52
497.98	20.8
498.413	21.08
498.846	21.37
499.279	21.65
499.711	21.95
500.144	22.26
500.577	22.56
501.009	22.86
501.442	23.17
501.874	23.48
502.306	23.81
502.739	24.15
503.171	24.48
503.603	24.8
504.036	25.15
504.468	25.47
504.9	25.79
505.332	26.15
505.764	26.49
506.196	26.83
506.627	27.19
507.059	27.55
507.491	27.88
507.923	28.24
508.354	28.61
508.786	28.98
509.217	29.35
509.649	29.73
510.08	30.1
510.512	30.45
510.943	30.82
511.374	31.18
511.805	31.53
512.237	31.88
512.668	32.24
513.099	32.59
513.53	32.93
513.961	33.27
514.391	33.59
514.822	33.92
515.253	34.24
515.684	34.55
516.114	34.85
516.545	35.15
516.975	35.44
517.406	35.71
517.836	35.98
518.267	36.27
518.697	36.55
519.127	36.81
519.558	37.05
519.988	37.31
520.418	37.55
520.848	37.77
521.278	37.99
521.708	38.38
522.138	38.61
522.567	38.81
522.997	38.97
523.427	39.16
523.857	39.34
524.286	39.5
524.716	39.66
525.145	39.83
525.575	40.01
526.004	40.18
526.433	40.18
526.863	40.32
527.292	40.47
527.721	40.59
528.15	40.71
528.579	40.83
529.008	40.97
529.437	41.08
529.866	41.19
530.295	41.3
530.724	41.4
531.152	41.5
531.581	41.58
532.01	41.66
532.438	41.76
532.867	41.85
533.295	41.93
533.723	42.02
534.152	42.1
534.58	42.19
535.008	42.25
535.436	42.33
535.865	42.37
536.293	42.45
536.721	42.51
537.149	42.58
537.576	42.64
538.004	42.71
538.432	42.74
538.86	42.78
539.287	42.79
539.715	42.83
540.143	42.87
540.57	42.92
540.998	42.94
541.425	42.96
541.852	42.98
542.28	43.01
542.707	43.02
543.134	43.06
543.561	43.08
543.988	43.12
544.415	43.15
544.842	43.14
545.269	43.15
545.696	43.18
546.123	43.2
546.549	43.23
546.976	43.25
547.403	43.25
547.829	43.26
548.256	43.29
548.682	43.26
549.108	43.28
549.535	43.3
549.961	43.31
550.387	43.3
550.813	43.31
551.24	43.32
551.666	43.32
552.092	43.34
552.518	43.34
552.943	43.32
553.369	43.33
553.795	43.31
554.221	43.31
554.646	43.29
555.072	43.29
555.498	43.28
555.923	43.25
556.349	43.2
556.774	43.17
557.199	43.12
557.625	43.1
558.05	43.07
558.475	43.03
558.9	43.01
559.325	42.97
559.75	42.91
560.175	42.86
560.6	42.8
561.025	42.76
561.449	42.7
561.874	42.64
562.299	42.58
562.723	42.51
563.148	42.42
563.572	42.33
563.997	42.27
564.421	42.18
564.846	42.12
565.27	42.04
565.694	41.96
566.118	41.88
566.542	41.8
566.966	41.71
567.39	41.63
567.814	41.55
568.238	41.45
568.662	41.37
569.086	41.28
569.509	41.18
569.933	41.09
570.357	41
570.78	40.9
571.204	40.81
571.627	40.72
572.05	40.63
572.474	40.57
572.897	40.49
573.32	40.4
573.743	40.31
574.166	40.24
574.589	40.16
575.012	40.09
575.435	40.02
575.858	39.94
576.281	39.88
576.704	39.81
577.126	39.71
577.549	39.63
577.972	39.56
578.394	39.49
578.817	39.42
579.239	39.35
579.661	39.27
580.084	39.21
580.506	39.15
580.928	39.09
581.35	39.03
581.772	38.99
582.194	38.94
582.616	38.89
583.038	38.84
583.46	38.79
583.882	38.75
584.303	38.69
584.725	38.63
585.147	38.59
585.568	38.53
585.99	38.48
586.411	38.43
586.833	38.37
587.254	38.32
587.675	38.28
588.096	38.22
588.518	38.16
588.939	38.12
589.36	38.06
589.781	37.99
590.202	37.95
590.623	37.89
591.043	37.84
591.464	37.79
591.885	37.72
592.305	37.67
592.726	37.63
593.147	37.58
593.567	37.54
593.987	37.5
594.408	37.47
594.828	37.43
595.248	37.41
595.669	37.37
596.089	37.33
596.509	37.3
596.929	37.27
597.349	37.25
597.769	37.21
598.189	37.16
598.608	37.14
599.028	37.09
599.448	37.05
599.867	37.01
600.287	36.97
600.706	36.96
601.126	36.91
601.545	36.87
601.965	36.83
602.384	36.8
602.803	36.76
603.222	36.71
603.641	36.67
604.061	36.64
604.48	36.59
604.898	36.55
605.317	36.5
605.736	36.46
606.155	36.4
606.574	36.35
606.992	36.29
607.411	36.25
607.829	36.17
608.248	36.1
608.666	36.02
609.085	35.97
609.503	35.9
609.921	35.83
610.339	35.76
610.758	35.71
611.176	35.64
611.594	35.55
612.012	35.47
612.43	35.42
612.847	35.35
613.265	35.27
613.683	35.2
614.101	35.13
614.518	35.05
614.936	34.98
615.353	34.87
615.771	34.8
616.188	34.74
616.606	34.67
617.023	34.61
617.44	34.57
617.857	34.52
618.274	34.46
618.691	34.41
619.108	34.36
619.525	34.32
619.942	34.29
620.359	34.26
620.776	34.22
621.192	34.19
621.609	34.17
622.026	34.11
622.442	34.07
622.859	34.06
623.275	34.02
623.691	34.02
624.108	34
624.524	33.99
624.94	33.96
625.356	33.94
625.772	33.92
626.188	33.91
626.604	33.9
627.02	33.89
627.436	33.87
627.852	33.87
628.268	33.85
628.683	33.83
629.099	33.81
629.514	33.79
629.93	33.77
630.345	33.74
630.761	33.7
631.176	33.66
631.591	33.61
632.007	33.55
632.422	33.48
632.837	33.41
633.252	33.33
633.667	33.24
634.082	33.14
634.497	33.04
634.911	32.94
635.326	32.81
635.741	32.69
636.155	32.55
636.57	32.39
636.984	32.23
637.399	32.05
637.813	31.88
638.228	31.67
638.642	31.46
639.056	31.25
639.47	31.03
639.884	30.81
640.298	30.57
640.712	30.33
641.126	30.1
641.54	29.83
641.954	29.6
642.368	29.35
642.781	29.14
643.195	28.92
643.609	28.7
644.022	28.47
644.436	28.25
644.849	28.04
645.262	27.83
645.676	27.64
646.089	27.48
646.502	27.31
646.915	27.17
647.328	27.01
647.741	26.88
648.154	26.75
648.567	26.65
648.98	26.54
649.393	26.46
649.805	26.38
650.218	26.3
650.631	26.23
651.043	26.16
651.456	26.09
651.868	26.02
652.28	25.94
652.693	25.88
653.105	25.81
653.517	25.73
653.929	25.63
654.341	25.54
654.753	25.43
655.165	25.32
655.577	25.22
655.989	25.07
656.401	24.93
656.813	24.8
657.224	24.62
657.636	24.45
658.047	24.29
658.459	24.12
658.87	23.93
659.282	23.74
659.693	23.54
660.104	23.32
660.515	23.12
660.926	22.9
661.338	22.68
661.749	22.45
662.159	22.22
662.57	22.01
662.981	21.79
663.392	21.57
663.803	21.35
664.213	21.14
664.624	20.94
665.035	20.76
665.445	20.58
665.855	20.39
666.266	20.24
666.676	20.1
667.086	19.92
667.497	19.79
667.907	19.66
668.317	19.55
668.727	19.44
669.137	19.34
669.547	19.24
669.956	19.17
670.366	19.11
670.776	19.05
671.186	19
671.595	18.97
672.005	18.92
672.414	18.91
672.824	18.88
673.233	18.88
673.642	18.89
674.052	18.89
674.461	18.91
674.87	18.93
675.279	18.97
675.688	19.02
676.097	19.08
676.506	19.18
676.915	19.26
677.323	19.38
677.732	19.5
678.141	19.64
678.549	19.81
678.958	20.01
679.366	20.23
679.775	20.47
680.183	20.75
680.592	21.08
681	21.4
681.408	21.77
681.816	22.18
682.224	22.61
682.632	23.08
683.04	23.6
683.448	24.11
683.856	24.67
684.264	25.25
684.671	25.84
685.079	26.44
685.487	27.08
685.894	27.75
686.302	28.41
686.709	29.09
687.116	29.78
687.524	30.47
687.931	31.16
688.338	31.85
688.745	32.54
689.152	33.23
689.559	33.91
689.966	34.6
690.373	35.27
690.78	35.91
691.187	36.53
691.593	37.13
692	37.69
692.407	38.26
692.813	38.8
693.22	39.33
693.626	39.84
694.032	40.34
694.439	40.82
694.845	41.28
695.251	41.71
695.657	42.12
696.063	42.57
696.469	42.99
696.875	43.37
697.281	43.73
697.687	44.1
698.093	44.44
698.498	44.77
698.904	45.07
699.31	45.38
699.715	45.68
700.12	45.98
700.526	46.22
700.931	46.46
701.337	46.71
701.742	46.95
702.147	47.18
702.552	47.4
702.957	47.59
703.362	47.78
703.767	47.95
704.172	48.13
704.577	48.31
704.981	48.49
705.386	48.64
705.791	48.8
706.195	48.96
706.6	49.11
707.004	49.25
707.408	49.4
707.813	49.56
708.217	49.7
708.621	49.82
709.025	49.94
709.43	50.04
709.834	50.19
710.237	50.29
710.641	50.4
711.045	50.47
711.449	50.59
711.853	50.7
712.256	50.77
712.66	50.84
713.064	50.94
713.467	51.04
713.87	51.15
714.274	51.2
714.677	51.31
715.08	51.37
715.484	51.5
715.887	51.57
716.29	51.63
716.693	51.73
717.096	51.8
717.499	51.87
717.901	51.95
718.304	52.01
718.707	52.11
719.109	52.16
719.512	52.23
719.915	52.28
720.317	52.32
720.719	52.36
721.122	52.42
721.524	52.47
721.926	52.53
722.328	52.59
722.731	52.63
723.133	52.67
723.535	52.74
723.937	52.79
724.338	52.81
724.74	52.87
725.142	52.99
725.544	53.02
725.945	53.11
726.347	53.12
726.748	53.12
727.15	53.14
727.551	53.18
727.952	53.17
728.354	53.17
728.755	53.2
729.156	53.21
729.557	53.13
729.958	53.14
730.359	53.12
730.76	53.15
731.161	53.17
731.562	53.2
731.962	53.21
732.363	53.24
732.763	53.28
733.164	53.32
733.564	53.32
733.965	53.35
734.365	53.37
734.766	53.39
735.166	53.39
735.566	53.41
735.966	53.43
736.366	53.44
736.766	53.42
737.166	53.42
737.566	53.42
737.966	53.44
738.365	53.45
738.765	53.46
739.165	53.48
739.564	53.49
739.964	53.51
740.363	53.48
740.763	53.47
741.162	53.49
741.561	53.45
741.96	53.44
742.36	53.42
742.759	53.39
743.158	53.38
743.557	53.35
743.955	53.37
744.354	53.35
744.753	53.36
745.152	53.39
745.55	53.38
745.949	53.42
746.348	53.46
746.746	53.46
747.144	53.49
747.543	53.5
747.941	53.53
748.339	53.5
748.737	53.49
749.136	53.47
749.534	53.46
749.932	53.46
750.33	53.47
750.727	53.46
751.125	53.47
751.523	53.45
751.921	53.44
752.318	53.42
752.716	53.42
753.113	53.42
753.511	53.41
753.908	53.43
754.305	53.45
754.703	53.43
755.1	53.42
755.497	53.41
755.894	53.42
756.291	53.43
756.688	53.41
757.085	53.41
757.482	53.42
757.878	53.45
758.275	53.43
758.672	53.42
759.068	53.44
759.465	53.42
759.861	53.41
760.258	53.41
760.654	53.35
761.05	53.39
761.447	53.4
761.843	53.34
762.239	53.32
762.635	53.3
763.031	53.28
763.427	53.23
763.822	53.23
764.218	53.24
764.614	53.23
765.01	53.23
765.405	53.2
765.801	53.17
766.196	53.19
766.592	53.17
766.987	53.18
767.382	53.18
767.778	53.19
768.173	53.17
768.568	53.12
768.963	53.09
769.358	53.1
769.753	53.1
770.148	53.11
770.542	53.11
770.937	53.1
771.332	53.07
771.726	53.05
