Data from C_2_HIR_IL_4N_Splice17_13-13-26-523.txt Node
Date: Sat Mar 07 13:13:26 EST 2020
User: sa697716
Spectrometer: NQ5500242
Trigger mode: 0
Integration Time (sec): 1.450000E-1
Scans to average: 20
Nonlinearity correction enabled: false
Boxcar width: 5
Storing dark spectrum: false
XAxis mode: Wavelengths
Number of Pixels in Spectrum: 512
>>>>>Begin Spectral Data<<<<<
187.83	177.42
188.298	179.88
188.766	162.75
189.233	129.82
189.701	143.92
190.169	163.43
190.636	197.84
191.104	323.86
191.571	302.92
192.039	176.95
192.506	-221.25
192.974	116.68
193.441	207.39
193.908	91.72
194.375	34.77
194.842	21.39
195.31	57.5
195.777	57.91
196.244	48.81
196.711	48.13
197.177	48.95
197.644	47.77
198.111	46.96
198.578	46.79
199.045	47.53
199.511	47.49
199.978	47.83
200.445	47.82
200.911	48.12
201.378	48.24
201.844	48.18
202.31	47.74
202.777	47.9
203.243	48.14
203.709	47.92
204.176	47.6
204.642	47.48
205.108	47.07
205.574	46.73
206.04	46.18
206.506	45.73
206.972	45.56
207.438	45.65
207.903	44.86
208.369	43.89
208.835	43.13
209.301	42.01
209.766	40.69
210.232	39.69
210.697	38.79
211.163	38.03
211.628	37.19
212.094	36.19
212.559	35.2
213.024	34.48
213.49	34.01
213.955	33.18
214.42	32.59
214.885	32.03
215.35	31.01
215.815	29.6
216.28	27.68
216.745	25.8
217.21	23.87
217.675	22.13
218.14	20.6
218.604	19.21
219.069	18.19
219.534	17.24
219.998	16.45
220.463	15.82
220.927	15.25
221.392	14.83
221.856	14.45
222.32	14.1
222.785	13.79
223.249	13.55
223.713	13.3
224.177	13.08
224.642	12.88
225.106	12.63
225.57	12.41
226.034	12.21
226.497	12.02
226.961	11.84
227.425	11.68
227.889	11.53
228.353	11.35
228.816	11.19
229.28	11.02
229.744	10.87
230.207	10.73
230.671	10.6
231.134	10.46
231.597	10.35
232.061	10.22
232.524	10.09
232.987	9.96
233.45	9.86
233.914	9.73
234.377	9.62
234.84	9.52
235.303	9.43
235.766	9.33
236.229	9.24
236.691	9.13
237.154	9.05
237.617	8.96
238.08	8.87
238.542	8.76
239.005	8.7
239.468	8.62
239.93	8.53
240.393	8.46
240.855	8.37
241.317	8.28
241.78	8.2
242.242	8.11
242.704	8.05
243.166	7.98
243.629	7.93
244.091	7.85
244.553	7.77
245.015	7.69
245.477	7.62
245.939	7.57
246.4	7.51
246.862	7.47
247.324	7.42
247.786	7.36
248.247	7.29
248.709	7.22
249.17	7.16
249.632	7.12
250.093	7.08
250.555	7.03
251.016	6.98
251.477	6.93
251.939	6.88
252.4	6.84
252.861	6.8
253.322	6.77
253.783	6.75
254.244	6.73
254.705	6.68
255.166	6.65
255.627	6.62
256.088	6.6
256.549	6.57
257.009	6.53
257.47	6.5
257.931	6.46
258.391	6.42
258.852	6.37
259.312	6.33
259.773	6.3
260.233	6.27
260.694	6.23
261.154	6.2
261.614	6.16
262.074	6.13
262.534	6.1
262.994	6.07
263.455	6.06
263.915	6.04
264.374	6.02
264.834	6
265.294	5.97
265.754	5.96
266.214	5.94
266.673	5.92
267.133	5.91
267.593	5.9
268.052	5.88
268.512	5.87
268.971	5.86
269.431	5.85
269.89	5.84
270.349	5.83
270.809	5.82
271.268	5.81
271.727	5.8
272.186	5.79
272.645	5.79
273.104	5.77
273.563	5.77
274.022	5.76
274.481	5.75
274.94	5.74
275.399	5.73
275.857	5.72
276.316	5.71
276.775	5.7
277.233	5.69
277.692	5.68
278.15	5.67
278.609	5.66
279.067	5.65
279.525	5.65
279.984	5.63
280.442	5.63
280.9	5.63
281.358	5.62
281.816	5.61
282.274	5.61
282.732	5.59
283.19	5.59
283.648	5.58
284.106	5.57
284.564	5.56
285.021	5.55
285.479	5.54
285.937	5.52
286.394	5.52
286.852	5.5
287.309	5.49
287.767	5.48
288.224	5.47
288.682	5.45
289.139	5.43
289.596	5.42
290.053	5.4
290.511	5.38
290.968	5.37
291.425	5.35
291.882	5.34
292.339	5.33
292.796	5.32
293.252	5.32
293.709	5.31
294.166	5.31
294.623	5.3
295.079	5.3
295.536	5.29
295.992	5.29
296.449	5.28
296.905	5.28
297.362	5.28
297.818	5.27
298.274	5.26
298.731	5.25
299.187	5.25
299.643	5.24
300.099	5.23
300.555	5.23
301.011	5.22
301.467	5.22
301.923	5.21
302.379	5.21
302.835	5.21
303.291	5.2
303.746	5.2
304.202	5.2
304.658	5.21
305.113	5.21
305.569	5.21
306.024	5.21
306.479	5.2
306.935	5.2
307.39	5.21
307.845	5.21
308.301	5.21
308.756	5.22
309.211	5.21
309.666	5.22
310.121	5.22
310.576	5.22
311.031	5.22
311.486	5.22
311.94	5.22
312.395	5.22
312.85	5.22
313.305	5.21
313.759	5.22
314.214	5.22
314.668	5.21
315.123	5.2
315.577	5.2
316.032	5.2
316.486	5.19
316.94	5.18
317.394	5.16
317.849	5.14
318.303	5.13
318.757	5.11
319.211	5.1
319.665	5.09
320.119	5.08
320.572	5.06
321.026	5.05
321.48	5.05
321.934	5.04
322.387	5.03
322.841	5.03
323.295	5.04
323.748	5.04
324.202	5.03
324.655	5.02
325.108	5.02
325.562	5.02
326.015	5.02
326.468	5.02
326.921	5.02
327.374	5.01
327.827	5.01
328.28	5
328.733	5
329.186	5
329.639	5.01
330.092	5.01
330.545	5.01
330.997	5.01
331.45	5.01
331.903	5.01
332.355	5.01
332.808	5.02
333.26	5.02
333.713	5.02
334.165	5.01
334.617	5.01
335.069	5
335.522	5
335.974	5.01
336.426	5.01
336.878	5
337.33	5
337.782	4.99
338.234	5
338.686	5
339.137	5
339.589	4.99
340.041	4.99
340.493	4.97
340.944	4.95
341.396	4.94
341.847	4.93
342.299	4.91
342.75	4.9
343.201	4.87
343.653	4.85
344.104	4.83
344.555	4.81
345.006	4.8
345.457	4.79
345.908	4.78
346.359	4.77
346.81	4.77
347.261	4.76
347.712	4.75
348.163	4.74
348.613	4.74
349.064	4.73
349.515	4.73
349.965	4.73
350.416	4.71
350.866	4.71
351.317	4.71
351.767	4.71
352.217	4.71
352.668	4.7
353.118	4.71
353.568	4.71
354.018	4.71
354.468	4.72
354.918	4.71
355.368	4.72
355.818	4.72
356.268	4.72
356.718	4.73
357.168	4.73
357.617	4.73
358.067	4.72
358.517	4.73
358.966	4.73
359.416	4.73
359.865	4.73
360.315	4.73
360.764	4.73
361.213	4.73
361.663	4.72
362.112	4.73
362.561	4.73
363.01	4.74
363.459	4.74
363.908	4.74
364.357	4.75
364.806	4.76
365.255	4.77
365.703	4.79
366.152	4.81
366.601	4.83
367.05	4.84
367.498	4.85
367.947	4.88
368.395	4.9
368.844	4.93
369.292	4.95
369.74	4.99
370.189	5.01
370.637	5.05
371.085	5.08
371.533	5.12
371.981	5.17
372.429	5.23
372.877	5.29
373.325	5.35
373.773	5.4
374.221	5.47
374.669	5.54
375.116	5.62
375.564	5.71
376.012	5.81
376.459	5.92
376.907	6.03
377.354	6.14
377.801	6.27
378.249	6.4
378.696	6.54
379.143	6.69
379.591	6.85
380.038	7.02
380.485	7.19
380.932	7.35
381.379	7.53
381.826	7.71
382.273	7.89
382.72	8.07
383.166	8.26
383.613	8.45
384.06	8.64
384.506	8.83
384.953	9.02
385.4	9.22
385.846	9.43
386.292	9.62
386.739	9.82
387.185	10.02
387.631	10.23
388.078	10.43
388.524	10.62
388.97	10.81
389.416	11.01
389.862	11.2
390.308	11.37
390.754	11.54
391.2	11.71
391.645	11.88
392.091	12.04
392.537	12.2
392.983	12.34
393.428	12.49
393.874	12.62
394.319	12.73
394.765	12.84
395.21	12.94
395.655	13.03
396.101	13.12
396.546	13.2
396.991	13.27
397.436	13.35
397.881	13.44
398.326	13.5
398.771	13.57
399.216	13.64
399.661	13.7
400.106	13.73
400.551	13.77
400.995	13.78
401.44	13.81
401.885	13.83
402.329	13.84
402.774	13.85
403.218	13.87
403.663	13.88
404.107	13.88
404.551	13.88
404.995	13.89
405.44	13.87
405.884	13.87
406.328	13.87
406.772	13.85
407.216	13.84
407.66	13.82
408.104	13.77
408.547	13.74
408.991	13.72
409.435	13.71
409.879	13.69
410.322	13.69
410.766	13.69
411.209	13.68
411.653	13.67
412.096	13.65
412.54	13.64
412.983	13.64
413.426	13.65
413.869	13.66
414.312	13.64
414.756	13.63
415.199	13.59
415.642	13.55
416.085	13.51
416.527	13.48
416.97	13.44
417.413	13.39
417.856	13.35
418.298	13.3
418.741	13.27
419.184	13.23
419.626	13.2
420.069	13.17
420.511	13.16
420.953	13.13
421.396	13.11
421.838	13.11
422.28	13.1
422.722	13.08
423.164	13.05
423.606	13.01
424.048	12.98
424.49	12.97
424.932	12.93
425.374	12.86
425.816	12.82
426.258	12.79
426.699	12.76
427.141	12.75
427.582	12.74
428.024	12.75
428.465	12.74
428.907	12.72
429.348	12.69
429.789	12.69
430.231	12.73
430.672	12.76
431.113	12.79
431.554	12.8
431.995	12.81
432.436	12.83
432.877	12.84
433.318	12.88
433.759	12.91
434.2	12.95
434.64	12.98
435.081	13.01
435.522	13.02
435.962	13.03
436.403	13.08
436.843	13.1
437.284	13.12
437.724	13.14
438.164	13.17
438.604	13.21
439.045	13.25
439.485	13.29
439.925	13.3
440.365	13.36
440.805	13.4
441.245	13.46
441.685	13.53
442.125	13.61
442.564	13.66
443.004	13.7
443.444	13.78
443.883	13.86
444.323	13.94
444.762	14.05
445.202	14.12
445.641	14.2
446.081	14.28
446.52	14.36
446.959	14.44
447.398	14.53
447.837	14.6
448.276	14.67
448.716	14.75
449.154	14.83
449.593	14.89
450.032	14.95
450.471	15.02
450.91	15.08
451.349	15.13
451.787	15.19
452.226	15.25
452.664	15.3
453.103	15.34
453.541	15.39
453.98	15.47
454.418	15.51
454.856	15.57
455.295	15.6
455.733	15.63
456.171	15.68
456.609	15.72
457.047	15.77
457.485	15.83
457.923	15.88
458.361	15.92
458.798	15.96
459.236	15.99
459.674	16.02
460.111	16.08
460.549	16.13
460.987	16.18
461.424	16.22
461.862	16.25
462.299	16.29
462.736	16.33
463.173	16.37
463.611	16.39
464.048	16.42
464.485	16.46
464.922	16.48
465.359	16.5
465.796	16.52
466.233	16.54
466.67	16.56
467.106	16.56
467.543	16.54
467.98	16.53
468.416	16.49
468.853	16.49
469.29	16.47
469.726	16.46
470.162	16.43
470.599	16.4
471.035	16.38
471.471	16.34
471.907	16.33
472.344	16.32
472.78	16.31
473.216	16.3
473.652	16.29
474.088	16.25
474.523	16.26
474.959	16.25
475.395	16.22
475.831	16.22
476.266	16.21
476.702	16.19
477.138	16.19
477.573	16.18
478.008	16.2
478.444	16.2
478.879	16.23
479.314	16.23
479.75	16.25
480.185	16.27
480.62	16.29
481.055	16.33
481.49	16.37
481.925	16.42
482.36	16.47
482.795	16.53
483.229	16.59
483.664	16.65
484.099	16.73
484.534	16.81
484.968	16.91
485.403	17
485.837	17.11
486.271	17.23
486.706	17.35
487.14	17.47
487.574	17.61
488.009	17.77
488.443	17.92
488.877	18.1
489.311	18.28
489.745	18.48
490.179	18.68
490.613	18.9
491.046	19.11
491.48	19.33
491.914	19.57
492.348	19.8
492.781	20.05
493.215	20.3
493.648	20.54
494.082	20.79
494.515	21.05
494.948	21.32
495.382	21.58
495.815	21.86
496.248	22.15
496.681	22.44
497.114	22.73
497.547	23
497.98	23.31
498.413	23.62
498.846	23.94
499.279	24.25
499.711	24.56
500.144	24.9
500.577	25.22
501.009	25.53
501.442	25.87
501.874	26.21
502.306	26.56
502.739	26.91
503.171	27.26
503.603	27.6
504.036	27.95
504.468	28.31
504.9	28.66
505.332	29.04
505.764	29.4
506.196	29.76
506.627	30.13
507.059	30.5
507.491	30.87
507.923	31.23
508.354	31.61
508.786	32
509.217	32.37
509.649	32.74
510.08	33.1
510.512	33.48
510.943	33.84
511.374	34.2
511.805	34.57
512.237	34.9
512.668	35.25
513.099	35.58
513.53	35.92
513.961	36.27
514.391	36.59
514.822	36.92
515.253	37.24
515.684	37.55
516.114	37.86
516.545	38.15
516.975	38.47
517.406	38.75
517.836	39.02
518.267	39.3
518.697	39.55
519.127	39.81
519.558	40.05
519.988	40.3
520.418	40.54
520.848	40.77
521.278	40.99
521.708	41.36
522.138	41.57
522.567	41.78
522.997	41.94
523.427	42.14
523.857	42.32
524.286	42.48
524.716	42.66
525.145	42.83
525.575	42.99
526.004	43.16
526.433	43.14
526.863	43.29
527.292	43.43
527.721	43.58
528.15	43.71
528.579	43.84
529.008	43.97
529.437	44.07
529.866	44.18
530.295	44.3
530.724	44.39
531.152	44.51
531.581	44.62
532.01	44.71
532.438	44.81
532.867	44.91
533.295	44.97
533.723	45.07
534.152	45.16
534.58	45.23
535.008	45.27
535.436	45.35
535.865	45.41
536.293	45.45
536.721	45.51
537.149	45.55
537.576	45.59
538.004	45.66
538.432	45.7
538.86	45.75
539.287	45.78
539.715	45.82
540.143	45.87
540.57	45.9
540.998	45.95
541.425	45.99
541.852	46.02
542.28	46.06
542.707	46.06
543.134	46.09
543.561	46.12
543.988	46.16
544.415	46.16
544.842	46.15
545.269	46.18
545.696	46.18
546.123	46.2
546.549	46.22
546.976	46.23
547.403	46.25
547.829	46.27
548.256	46.28
548.682	46.28
549.108	46.33
549.535	46.36
549.961	46.35
550.387	46.36
550.813	46.37
551.24	46.39
551.666	46.4
552.092	46.41
552.518	46.4
552.943	46.39
553.369	46.37
553.795	46.36
554.221	46.36
554.646	46.38
555.072	46.37
555.498	46.36
555.923	46.32
556.349	46.3
556.774	46.28
557.199	46.25
557.625	46.22
558.05	46.22
558.475	46.19
558.9	46.15
559.325	46.11
559.75	46.05
560.175	46
560.6	45.95
561.025	45.91
561.449	45.86
561.874	45.81
562.299	45.75
562.723	45.68
563.148	45.59
563.572	45.49
563.997	45.42
564.421	45.34
564.846	45.27
565.27	45.19
565.694	45.1
566.118	45.03
566.542	44.94
566.966	44.87
567.39	44.79
567.814	44.72
568.238	44.66
568.662	44.59
569.086	44.54
569.509	44.46
569.933	44.41
570.357	44.32
570.78	44.22
571.204	44.15
571.627	44.07
572.05	44
572.474	43.95
572.897	43.88
573.32	43.81
573.743	43.71
574.166	43.65
574.589	43.57
575.012	43.52
575.435	43.44
575.858	43.37
576.281	43.28
576.704	43.21
577.126	43.12
577.549	43.05
577.972	42.99
578.394	42.92
578.817	42.86
579.239	42.79
579.661	42.73
580.084	42.7
580.506	42.65
580.928	42.61
581.35	42.55
581.772	42.5
582.194	42.44
582.616	42.38
583.038	42.33
583.46	42.27
583.882	42.21
584.303	42.14
584.725	42.08
585.147	42.02
585.568	41.97
585.99	41.93
586.411	41.88
586.833	41.82
587.254	41.76
587.675	41.71
588.096	41.64
588.518	41.6
588.939	41.57
589.36	41.51
589.781	41.49
590.202	41.44
590.623	41.41
591.043	41.35
591.464	41.32
591.885	41.28
592.305	41.25
592.726	41.24
593.147	41.21
593.567	41.16
593.987	41.12
594.408	41.07
594.828	41.02
595.248	40.97
595.669	40.94
596.089	40.9
596.509	40.86
596.929	40.84
597.349	40.76
597.769	40.73
598.189	40.7
598.608	40.66
599.028	40.62
599.448	40.59
599.867	40.55
600.287	40.51
600.706	40.46
601.126	40.41
601.545	40.37
601.965	40.35
602.384	40.3
602.803	40.26
603.222	40.21
603.641	40.17
604.061	40.13
604.48	40.07
604.898	40.02
605.317	39.99
605.736	39.95
606.155	39.89
606.574	39.83
606.992	39.78
607.411	39.73
607.829	39.67
608.248	39.6
608.666	39.52
609.085	39.49
609.503	39.44
609.921	39.38
610.339	39.31
610.758	39.25
611.176	39.18
611.594	39.11
612.012	39.03
612.43	38.98
612.847	38.91
613.265	38.85
613.683	38.77
614.101	38.7
614.518	38.6
614.936	38.54
615.353	38.46
615.771	38.41
616.188	38.32
616.606	38.25
617.023	38.19
617.44	38.16
617.857	38.1
618.274	38.04
618.691	37.97
619.108	37.95
619.525	37.9
619.942	37.87
620.359	37.84
620.776	37.81
621.192	37.79
621.609	37.77
622.026	37.74
622.442	37.73
622.859	37.71
623.275	37.69
623.691	37.66
624.108	37.63
624.524	37.61
624.94	37.6
625.356	37.59
625.772	37.57
626.188	37.56
626.604	37.53
627.02	37.52
627.436	37.53
627.852	37.53
628.268	37.52
628.683	37.52
629.099	37.52
629.514	37.51
629.93	37.49
630.345	37.46
630.761	37.41
631.176	37.37
631.591	37.31
632.007	37.24
632.422	37.17
632.837	37.1
633.252	37.02
633.667	36.92
634.082	36.81
634.497	36.7
634.911	36.59
635.326	36.47
635.741	36.34
636.155	36.21
636.57	36.07
636.984	35.9
637.399	35.71
637.813	35.53
638.228	35.32
638.642	35.11
639.056	34.89
639.47	34.69
639.884	34.46
640.298	34.23
640.712	34
641.126	33.74
641.54	33.47
641.954	33.24
642.368	32.99
642.781	32.75
643.195	32.53
643.609	32.28
644.022	32.03
644.436	31.81
644.849	31.59
645.262	31.35
645.676	31.17
646.089	31.01
646.502	30.83
646.915	30.67
647.328	30.51
647.741	30.37
648.154	30.23
648.567	30.12
648.98	30.01
649.393	29.92
649.805	29.85
650.218	29.75
650.631	29.65
651.043	29.57
651.456	29.5
651.868	29.42
652.28	29.35
652.693	29.29
653.105	29.21
653.517	29.13
653.929	29.04
654.341	28.94
654.753	28.84
655.165	28.74
655.577	28.63
655.989	28.5
656.401	28.36
656.813	28.23
657.224	28.08
657.636	27.9
658.047	27.74
658.459	27.55
658.87	27.36
659.282	27.16
659.693	26.96
660.104	26.73
660.515	26.51
660.926	26.3
661.338	26.06
661.749	25.81
662.159	25.59
662.57	25.37
662.981	25.15
663.392	24.92
663.803	24.72
664.213	24.49
664.624	24.3
665.035	24.11
665.445	23.92
665.855	23.73
666.266	23.56
666.676	23.4
667.086	23.23
667.497	23.09
667.907	22.97
668.317	22.84
668.727	22.73
669.137	22.62
669.547	22.52
669.956	22.43
670.366	22.37
670.776	22.32
671.186	22.26
671.595	22.2
672.005	22.16
672.414	22.13
672.824	22.12
673.233	22.13
673.642	22.13
674.052	22.15
674.461	22.17
674.87	22.2
675.279	22.26
675.688	22.34
676.097	22.43
676.506	22.53
676.915	22.66
677.323	22.79
677.732	22.91
678.141	23.1
678.549	23.29
678.958	23.52
679.366	23.78
679.775	24.04
680.183	24.36
680.592	24.73
681	25.1
681.408	25.5
681.816	25.96
682.224	26.45
682.632	26.96
683.04	27.5
683.448	28.05
683.856	28.63
684.264	29.24
684.671	29.85
685.079	30.49
685.487	31.15
685.894	31.84
686.302	32.53
686.709	33.21
687.116	33.89
687.524	34.56
687.931	35.27
688.338	35.95
688.745	36.63
689.152	37.3
689.559	37.98
689.966	38.64
690.373	39.28
690.78	39.91
691.187	40.53
691.593	41.11
692	41.69
692.407	42.23
692.813	42.78
693.22	43.28
693.626	43.78
694.032	44.25
694.439	44.68
694.845	45.11
695.251	45.5
695.657	45.87
696.063	46.28
696.469	46.63
696.875	46.98
697.281	47.29
697.687	47.64
698.093	47.95
698.498	48.24
698.904	48.54
699.31	48.81
699.715	49.07
700.12	49.33
700.526	49.54
700.931	49.77
701.337	50
701.742	50.2
702.147	50.39
702.552	50.6
702.957	50.76
703.362	50.92
703.767	51.08
704.172	51.23
704.577	51.36
704.981	51.52
705.386	51.67
705.791	51.81
706.195	51.95
706.6	52.1
707.004	52.19
707.408	52.32
707.813	52.44
708.217	52.59
708.621	52.72
709.025	52.85
709.43	52.96
709.834	53.05
710.237	53.12
710.641	53.2
711.045	53.26
711.449	53.37
711.853	53.47
712.256	53.57
712.66	53.63
713.064	53.68
713.467	53.75
713.87	53.85
714.274	53.91
714.677	54
715.08	54.09
715.484	54.2
715.887	54.27
716.29	54.32
716.693	54.39
717.096	54.45
717.499	54.53
717.901	54.61
718.304	54.66
718.707	54.74
719.109	54.82
719.512	54.86
719.915	54.9
720.317	54.92
720.719	54.94
721.122	54.99
721.524	55.03
721.926	55.09
722.328	55.14
722.731	55.18
723.133	55.23
723.535	55.26
723.937	55.33
724.338	55.37
724.74	55.4
725.142	55.53
725.544	55.54
725.945	55.6
726.347	55.61
726.748	55.61
727.15	55.61
727.551	55.65
727.952	55.67
728.354	55.69
728.755	55.7
729.156	55.71
729.557	55.66
729.958	55.66
730.359	55.65
730.76	55.68
731.161	55.68
731.562	55.71
731.962	55.7
732.363	55.71
732.763	55.71
733.164	55.74
733.564	55.74
733.965	55.72
734.365	55.75
734.766	55.76
735.166	55.76
735.566	55.76
735.966	55.79
736.366	55.79
736.766	55.79
737.166	55.79
737.566	55.79
737.966	55.81
738.365	55.83
738.765	55.88
739.165	55.86
739.564	55.87
739.964	55.89
740.363	55.86
740.763	55.88
741.162	55.87
741.561	55.85
741.96	55.83
742.36	55.82
742.759	55.83
743.158	55.78
743.557	55.78
743.955	55.76
744.354	55.75
744.753	55.75
745.152	55.75
745.55	55.75
745.949	55.77
746.348	55.79
746.746	55.78
747.144	55.79
747.543	55.79
747.941	55.81
748.339	55.79
748.737	55.8
749.136	55.8
749.534	55.78
749.932	55.77
750.33	55.77
750.727	55.77
751.125	55.79
751.523	55.76
751.921	55.76
752.318	55.76
752.716	55.78
753.113	55.77
753.511	55.76
753.908	55.79
754.305	55.79
754.703	55.77
755.1	55.75
755.497	55.74
755.894	55.73
756.291	55.74
756.688	55.72
757.085	55.73
757.482	55.74
757.878	55.74
758.275	55.72
758.672	55.73
759.068	55.76
759.465	55.75
759.861	55.74
760.258	55.74
760.654	55.72
761.05	55.72
761.447	55.71
761.843	55.69
762.239	55.68
762.635	55.66
763.031	55.64
763.427	55.6
763.822	55.6
764.218	55.61
764.614	55.63
765.01	55.61
765.405	55.58
765.801	55.52
766.196	55.51
766.592	55.5
766.987	55.51
767.382	55.45
767.778	55.46
768.173	55.45
768.568	55.42
768.963	55.38
769.358	55.39
769.753	55.39
770.148	55.42
770.542	55.43
770.937	55.43
771.332	55.42
771.726	55.46
772.121	55.46
772.515	55.47
