Data from C_2_DEC_ON_6N_Splice17_13-16-57-505.txt Node
Date: Sat Mar 07 13:16:57 EST 2020
User: sa697716
Spectrometer: NQ5500242
Trigger mode: 0
Integration Time (sec): 1.450000E-1
Scans to average: 20
Nonlinearity correction enabled: false
Boxcar width: 5
Storing dark spectrum: false
XAxis mode: Wavelengths
Number of Pixels in Spectrum: 512
>>>>>Begin Spectral Data<<<<<
187.83	146.13
188.298	166.96
188.766	147.21
189.233	126.17
189.701	132.02
190.169	166.44
190.636	194.99
191.104	232.03
191.571	83.35
192.039	0.35
192.506	-80.91
192.974	118.95
193.441	172.16
193.908	109.7
194.375	69.94
194.842	28.88
195.31	114.29
195.777	395.87
196.244	57.63
196.711	46.56
197.177	46.77
197.644	45.81
198.111	44.9
198.578	45.2
199.045	45.28
199.511	45.69
199.978	45.85
200.445	45.85
200.911	45.68
201.378	45.9
201.844	45.81
202.31	45.35
202.777	45.1
203.243	45.08
203.709	44.55
204.176	43.85
204.642	43.48
205.108	43.17
205.574	42.85
206.04	42.14
206.506	41.66
206.972	41.48
207.438	41.36
207.903	40.9
208.369	39.88
208.835	39.31
209.301	38.78
209.766	37.6
210.232	36.49
210.697	35.33
211.163	34.75
211.628	33.97
212.094	33.18
212.559	32.25
213.024	31.51
213.49	30.9
213.955	30.1
214.42	29.31
214.885	28.46
215.35	27.47
215.815	26.24
216.28	24.19
216.745	22.1
217.21	19.91
217.675	18.05
218.14	16.39
218.604	14.96
219.069	13.78
219.534	12.83
219.998	12.04
220.463	11.38
220.927	10.71
221.392	10.28
221.856	9.9
222.32	9.61
222.785	9.33
223.249	9.07
223.713	8.85
224.177	8.68
224.642	8.47
225.106	8.25
225.57	8.05
226.034	7.92
226.497	7.76
226.961	7.61
227.425	7.48
227.889	7.35
228.353	7.24
228.816	7.09
229.28	6.95
229.744	6.83
230.207	6.72
230.671	6.6
231.134	6.5
231.597	6.42
232.061	6.31
232.524	6.21
232.987	6.11
233.45	6.02
233.914	5.95
234.377	5.87
234.84	5.79
235.303	5.74
235.766	5.67
236.229	5.6
236.691	5.53
237.154	5.48
237.617	5.42
238.08	5.36
238.542	5.31
239.005	5.25
239.468	5.19
239.93	5.15
240.393	5.11
240.855	5.05
241.317	5
241.78	4.94
242.242	4.89
242.704	4.85
243.166	4.8
243.629	4.76
244.091	4.71
244.553	4.68
245.015	4.62
245.477	4.56
245.939	4.52
246.4	4.48
246.862	4.43
247.324	4.39
247.786	4.34
248.247	4.29
248.709	4.24
249.17	4.2
249.632	4.16
250.093	4.13
250.555	4.09
251.016	4.06
251.477	4.02
251.939	3.99
252.4	3.96
252.861	3.94
253.322	3.92
253.783	3.89
254.244	3.87
254.705	3.84
255.166	3.81
255.627	3.79
256.088	3.77
256.549	3.75
257.009	3.71
257.47	3.68
257.931	3.64
258.391	3.61
258.852	3.59
259.312	3.55
259.773	3.52
260.233	3.5
260.694	3.47
261.154	3.44
261.614	3.41
262.074	3.38
262.534	3.35
262.994	3.34
263.455	3.32
263.915	3.3
264.374	3.28
264.834	3.26
265.294	3.24
265.754	3.22
266.214	3.21
266.673	3.19
267.133	3.18
267.593	3.18
268.052	3.16
268.512	3.15
268.971	3.14
269.431	3.12
269.89	3.11
270.349	3.1
270.809	3.09
271.268	3.08
271.727	3.07
272.186	3.06
272.645	3.05
273.104	3.04
273.563	3.03
274.022	3.02
274.481	3.01
274.94	3.01
275.399	2.99
275.857	2.98
276.316	2.98
276.775	2.97
277.233	2.96
277.692	2.96
278.15	2.95
278.609	2.95
279.067	2.94
279.525	2.94
279.984	2.93
280.442	2.93
280.9	2.93
281.358	2.92
281.816	2.93
282.274	2.92
282.732	2.92
283.19	2.92
283.648	2.91
284.106	2.91
284.564	2.9
285.021	2.9
285.479	2.9
285.937	2.89
286.394	2.89
286.852	2.88
287.309	2.88
287.767	2.87
288.224	2.86
288.682	2.85
289.139	2.83
289.596	2.82
290.053	2.8
290.511	2.78
290.968	2.77
291.425	2.75
291.882	2.74
292.339	2.72
292.796	2.72
293.252	2.71
293.709	2.71
294.166	2.7
294.623	2.7
295.079	2.7
295.536	2.7
295.992	2.69
296.449	2.69
296.905	2.68
297.362	2.68
297.818	2.67
298.274	2.67
298.731	2.66
299.187	2.65
299.643	2.64
300.099	2.63
300.555	2.63
301.011	2.62
301.467	2.62
301.923	2.61
302.379	2.61
302.835	2.61
303.291	2.61
303.746	2.6
304.202	2.6
304.658	2.6
305.113	2.6
305.569	2.6
306.024	2.6
306.479	2.6
306.935	2.6
307.39	2.6
307.845	2.6
308.301	2.6
308.756	2.61
309.211	2.6
309.666	2.61
310.121	2.62
310.576	2.62
311.031	2.62
311.486	2.63
311.94	2.64
312.395	2.64
312.85	2.64
313.305	2.64
313.759	2.64
314.214	2.64
314.668	2.63
315.123	2.63
315.577	2.61
316.032	2.61
316.486	2.6
316.94	2.6
317.394	2.59
317.849	2.58
318.303	2.57
318.757	2.56
319.211	2.55
319.665	2.54
320.119	2.53
320.572	2.53
321.026	2.52
321.48	2.51
321.934	2.5
322.387	2.49
322.841	2.49
323.295	2.49
323.748	2.48
324.202	2.48
324.655	2.48
325.108	2.49
325.562	2.49
326.015	2.49
326.468	2.48
326.921	2.48
327.374	2.48
327.827	2.48
328.28	2.47
328.733	2.48
329.186	2.47
329.639	2.47
330.092	2.47
330.545	2.46
330.997	2.46
331.45	2.47
331.903	2.48
332.355	2.48
332.808	2.48
333.26	2.48
333.713	2.48
334.165	2.47
334.617	2.47
335.069	2.46
335.522	2.46
335.974	2.46
336.426	2.45
336.878	2.44
337.33	2.44
337.782	2.44
338.234	2.44
338.686	2.45
339.137	2.46
339.589	2.46
340.041	2.46
340.493	2.45
340.944	2.44
341.396	2.44
341.847	2.44
342.299	2.43
342.75	2.42
343.201	2.41
343.653	2.4
344.104	2.38
344.555	2.37
345.006	2.36
345.457	2.35
345.908	2.35
346.359	2.35
346.81	2.34
347.261	2.33
347.712	2.33
348.163	2.32
348.613	2.32
349.064	2.33
349.515	2.33
349.965	2.33
350.416	2.33
350.866	2.33
351.317	2.32
351.767	2.33
352.217	2.34
352.668	2.34
353.118	2.34
353.568	2.34
354.018	2.34
354.468	2.34
354.918	2.35
355.368	2.35
355.818	2.35
356.268	2.36
356.718	2.36
357.168	2.35
357.617	2.35
358.067	2.35
358.517	2.37
358.966	2.38
359.416	2.38
359.865	2.39
360.315	2.39
360.764	2.39
361.213	2.4
361.663	2.39
362.112	2.41
362.561	2.42
363.01	2.43
363.459	2.42
363.908	2.42
364.357	2.43
364.806	2.43
365.255	2.45
365.703	2.46
366.152	2.47
366.601	2.49
367.05	2.51
367.498	2.51
367.947	2.53
368.395	2.55
368.844	2.56
369.292	2.57
369.74	2.59
370.189	2.61
370.637	2.62
371.085	2.63
371.533	2.64
371.981	2.66
372.429	2.67
372.877	2.68
373.325	2.7
373.773	2.72
374.221	2.74
374.669	2.76
375.116	2.77
375.564	2.78
376.012	2.8
376.459	2.82
376.907	2.84
377.354	2.86
377.801	2.88
378.249	2.9
378.696	2.92
379.143	2.94
379.591	2.96
380.038	2.99
380.485	3.01
380.932	3.02
381.379	3.04
381.826	3.06
382.273	3.08
382.72	3.1
383.166	3.13
383.613	3.15
384.06	3.18
384.506	3.19
384.953	3.21
385.4	3.24
385.846	3.27
386.292	3.3
386.739	3.33
387.185	3.35
387.631	3.38
388.078	3.41
388.524	3.43
388.97	3.45
389.416	3.49
389.862	3.52
390.308	3.55
390.754	3.58
391.2	3.62
391.645	3.64
392.091	3.68
392.537	3.71
392.983	3.72
393.428	3.75
393.874	3.77
394.319	3.78
394.765	3.8
395.21	3.82
395.655	3.84
396.101	3.86
396.546	3.87
396.991	3.88
397.436	3.89
397.881	3.92
398.326	3.94
398.771	3.96
399.216	3.97
399.661	3.98
400.106	3.98
400.551	3.97
400.995	3.98
401.44	3.98
401.885	3.98
402.329	3.98
402.774	3.98
403.218	4
403.663	4
404.107	4.01
404.551	4.02
404.995	4.01
405.44	4.01
405.884	4.01
406.328	4.03
406.772	4.02
407.216	4.03
407.66	4.03
408.104	4.01
408.547	4
408.991	4
409.435	3.99
409.879	4.01
410.322	4.02
410.766	4.03
411.209	4.03
411.653	4.04
412.096	4.04
412.54	4.05
412.983	4.05
413.426	4.09
413.869	4.1
414.312	4.12
414.756	4.13
415.199	4.12
415.642	4.12
416.085	4.13
416.527	4.13
416.97	4.13
417.413	4.11
417.856	4.11
418.298	4.08
418.741	4.08
419.184	4.06
419.626	4.06
420.069	4.06
420.511	4.06
420.953	4.06
421.396	4.07
421.838	4.06
422.28	4.08
422.722	4.09
423.164	4.09
423.606	4.1
424.048	4.11
424.49	4.11
424.932	4.09
425.374	4.07
425.816	4.05
426.258	4.03
426.699	4.02
427.141	4.01
427.582	4.02
428.024	4.02
428.465	4.01
428.907	4
429.348	3.98
429.789	3.99
430.231	4.03
430.672	4.05
431.113	4.07
431.554	4.09
431.995	4.1
432.436	4.11
432.877	4.12
433.318	4.14
433.759	4.17
434.2	4.2
434.64	4.2
435.081	4.21
435.522	4.22
435.962	4.22
436.403	4.25
436.843	4.27
437.284	4.26
437.724	4.27
438.164	4.27
438.604	4.28
439.045	4.29
439.485	4.31
439.925	4.32
440.365	4.34
440.805	4.36
441.245	4.37
441.685	4.39
442.125	4.41
442.564	4.42
443.004	4.42
443.444	4.45
443.883	4.46
444.323	4.47
444.762	4.48
445.202	4.48
445.641	4.51
446.081	4.52
446.52	4.52
446.959	4.56
447.398	4.59
447.837	4.61
448.276	4.63
448.716	4.65
449.154	4.69
449.593	4.72
450.032	4.73
450.471	4.73
450.91	4.73
451.349	4.74
451.787	4.73
452.226	4.73
452.664	4.73
453.103	4.72
453.541	4.73
453.98	4.73
454.418	4.7
454.856	4.7
455.295	4.69
455.733	4.68
456.171	4.67
456.609	4.66
457.047	4.64
457.485	4.64
457.923	4.63
458.361	4.62
458.798	4.61
459.236	4.61
459.674	4.61
460.111	4.61
460.549	4.63
460.987	4.64
461.424	4.64
461.862	4.65
462.299	4.66
462.736	4.67
463.173	4.68
463.611	4.69
464.048	4.7
464.485	4.71
464.922	4.71
465.359	4.71
465.796	4.72
466.233	4.73
466.67	4.74
467.106	4.75
467.543	4.73
467.98	4.72
468.416	4.71
468.853	4.7
469.29	4.7
469.726	4.7
470.162	4.68
470.599	4.67
471.035	4.67
471.471	4.67
471.907	4.66
472.344	4.66
472.78	4.66
473.216	4.65
473.652	4.66
474.088	4.64
474.523	4.64
474.959	4.64
475.395	4.62
475.831	4.62
476.266	4.6
476.702	4.58
477.138	4.58
477.573	4.58
478.008	4.58
478.444	4.56
478.879	4.57
479.314	4.56
479.75	4.55
480.185	4.54
480.62	4.53
481.055	4.53
481.49	4.52
481.925	4.53
482.36	4.53
482.795	4.53
483.229	4.53
483.664	4.53
484.099	4.54
484.534	4.54
484.968	4.57
485.403	4.58
485.837	4.6
486.271	4.62
486.706	4.63
487.14	4.64
487.574	4.66
488.009	4.69
488.443	4.7
488.877	4.73
489.311	4.76
489.745	4.79
490.179	4.82
490.613	4.86
491.046	4.89
491.48	4.93
491.914	4.97
492.348	5.02
492.781	5.07
493.215	5.13
493.648	5.18
494.082	5.24
494.515	5.3
494.948	5.36
495.382	5.42
495.815	5.5
496.248	5.57
496.681	5.65
497.114	5.72
497.547	5.8
497.98	5.89
498.413	5.98
498.846	6.08
499.279	6.17
499.711	6.27
500.144	6.38
500.577	6.49
501.009	6.59
501.442	6.71
501.874	6.84
502.306	6.96
502.739	7.1
503.171	7.25
503.603	7.38
504.036	7.54
504.468	7.7
504.9	7.85
505.332	8.01
505.764	8.19
506.196	8.37
506.627	8.56
507.059	8.76
507.491	8.94
507.923	9.14
508.354	9.36
508.786	9.56
509.217	9.78
509.649	10
510.08	10.24
510.512	10.47
510.943	10.7
511.374	10.94
511.805	11.18
512.237	11.43
512.668	11.69
513.099	11.94
513.53	12.2
513.961	12.47
514.391	12.74
514.822	13.01
515.253	13.28
515.684	13.56
516.114	13.84
516.545	14.12
516.975	14.41
517.406	14.7
517.836	14.98
518.267	15.27
518.697	15.54
519.127	15.82
519.558	16.09
519.988	16.36
520.418	16.62
520.848	16.88
521.278	17.14
521.708	17.47
522.138	17.73
522.567	17.98
522.997	18.21
523.427	18.46
523.857	18.67
524.286	18.88
524.716	19.09
525.145	19.31
525.575	19.52
526.004	19.73
526.433	19.84
526.863	20.01
527.292	20.18
527.721	20.35
528.15	20.52
528.579	20.7
529.008	20.88
529.437	21.02
529.866	21.15
530.295	21.29
530.724	21.42
531.152	21.55
531.581	21.68
532.01	21.8
532.438	21.92
532.867	22.01
533.295	22.09
533.723	22.17
534.152	22.27
534.58	22.36
535.008	22.42
535.436	22.5
535.865	22.55
536.293	22.61
536.721	22.66
537.149	22.72
537.576	22.78
538.004	22.84
538.432	22.89
538.86	22.93
539.287	22.96
539.715	23.02
540.143	23.05
540.57	23.1
540.998	23.14
541.425	23.17
541.852	23.21
542.28	23.23
542.707	23.26
543.134	23.3
543.561	23.34
543.988	23.38
544.415	23.39
544.842	23.42
545.269	23.44
545.696	23.47
546.123	23.49
546.549	23.5
546.976	23.54
547.403	23.55
547.829	23.58
548.256	23.59
548.682	23.62
549.108	23.64
549.535	23.67
549.961	23.67
550.387	23.67
550.813	23.68
551.24	23.68
551.666	23.67
552.092	23.66
552.518	23.65
552.943	23.63
553.369	23.59
553.795	23.55
554.221	23.52
554.646	23.49
555.072	23.46
555.498	23.43
555.923	23.39
556.349	23.32
556.774	23.27
557.199	23.21
557.625	23.15
558.05	23.08
558.475	23.01
558.9	22.93
559.325	22.84
559.75	22.75
560.175	22.66
560.6	22.55
561.025	22.44
561.449	22.33
561.874	22.2
562.299	22.08
562.723	21.94
563.148	21.81
563.572	21.66
563.997	21.53
564.421	21.39
564.846	21.24
565.27	21.1
565.694	20.96
566.118	20.81
566.542	20.68
566.966	20.53
567.39	20.38
567.814	20.24
568.238	20.12
568.662	19.98
569.086	19.83
569.509	19.7
569.933	19.56
570.357	19.42
570.78	19.28
571.204	19.14
571.627	19.01
572.05	18.89
572.474	18.77
572.897	18.63
573.32	18.51
573.743	18.39
574.166	18.27
574.589	18.15
575.012	18.04
575.435	17.94
575.858	17.85
576.281	17.73
576.704	17.62
577.126	17.51
577.549	17.43
577.972	17.34
578.394	17.25
578.817	17.15
579.239	17.06
579.661	16.97
580.084	16.88
580.506	16.81
580.928	16.74
581.35	16.67
581.772	16.6
582.194	16.51
582.616	16.43
583.038	16.35
583.46	16.28
583.882	16.21
584.303	16.14
584.725	16.06
585.147	15.99
585.568	15.92
585.99	15.85
586.411	15.78
586.833	15.72
587.254	15.66
587.675	15.6
588.096	15.54
588.518	15.47
588.939	15.42
589.36	15.38
589.781	15.3
590.202	15.26
590.623	15.21
591.043	15.16
591.464	15.11
591.885	15.05
592.305	15.02
592.726	14.98
593.147	14.94
593.567	14.89
593.987	14.85
594.408	14.81
594.828	14.75
595.248	14.71
595.669	14.68
596.089	14.64
596.509	14.61
596.929	14.58
597.349	14.53
597.769	14.5
598.189	14.45
598.608	14.41
599.028	14.37
599.448	14.35
599.867	14.3
600.287	14.25
600.706	14.21
601.126	14.17
601.545	14.12
601.965	14.09
602.384	14.04
602.803	14.01
603.222	13.97
603.641	13.92
604.061	13.87
604.48	13.83
604.898	13.78
605.317	13.73
605.736	13.67
606.155	13.62
606.574	13.56
606.992	13.51
607.411	13.46
607.829	13.37
608.248	13.31
608.666	13.24
609.085	13.19
609.503	13.14
609.921	13.08
610.339	13.03
610.758	12.98
611.176	12.92
611.594	12.85
612.012	12.79
612.43	12.75
612.847	12.7
613.265	12.63
613.683	12.57
614.101	12.5
614.518	12.43
614.936	12.37
615.353	12.29
615.771	12.23
616.188	12.18
616.606	12.13
617.023	12.07
617.44	12.03
617.857	11.99
618.274	11.94
618.691	11.9
619.108	11.86
619.525	11.82
619.942	11.81
620.359	11.76
620.776	11.72
621.192	11.7
621.609	11.67
622.026	11.65
622.442	11.62
622.859	11.6
623.275	11.59
623.691	11.58
624.108	11.57
624.524	11.55
624.94	11.55
625.356	11.55
625.772	11.54
626.188	11.53
626.604	11.52
627.02	11.51
627.436	11.52
627.852	11.51
628.268	11.49
628.683	11.48
629.099	11.47
629.514	11.45
629.93	11.43
630.345	11.4
630.761	11.36
631.176	11.32
631.591	11.28
632.007	11.23
632.422	11.17
632.837	11.11
633.252	11.03
633.667	10.96
634.082	10.87
634.497	10.79
634.911	10.69
635.326	10.6
635.741	10.5
636.155	10.37
636.57	10.26
636.984	10.14
637.399	10.02
637.813	9.9
638.228	9.76
638.642	9.63
639.056	9.49
639.47	9.36
639.884	9.23
640.298	9.08
640.712	8.95
641.126	8.82
641.54	8.67
641.954	8.53
642.368	8.39
642.781	8.28
643.195	8.16
643.609	8.04
644.022	7.91
644.436	7.82
644.849	7.7
645.262	7.59
645.676	7.5
646.089	7.43
646.502	7.36
646.915	7.29
647.328	7.22
647.741	7.16
648.154	7.1
648.567	7.07
648.98	7.02
649.393	6.99
649.805	6.97
650.218	6.93
650.631	6.91
651.043	6.88
651.456	6.85
651.868	6.82
652.28	6.79
652.693	6.78
653.105	6.75
653.517	6.73
653.929	6.71
654.341	6.67
654.753	6.64
655.165	6.6
655.577	6.57
655.989	6.53
656.401	6.5
656.813	6.46
657.224	6.4
657.636	6.33
658.047	6.27
658.459	6.2
658.87	6.14
659.282	6.07
659.693	6
660.104	5.93
660.515	5.86
660.926	5.8
661.338	5.72
661.749	5.67
662.159	5.61
662.57	5.55
662.981	5.5
663.392	5.45
663.803	5.4
664.213	5.35
664.624	5.31
665.035	5.26
665.445	5.22
665.855	5.17
666.266	5.14
666.676	5.11
667.086	5.08
667.497	5.05
667.907	5.03
668.317	5.01
668.727	4.99
669.137	4.97
669.547	4.97
669.956	4.97
670.366	4.97
670.776	4.97
671.186	4.98
671.595	4.97
672.005	4.97
672.414	4.99
672.824	5
673.233	5.02
673.642	5.05
674.052	5.06
674.461	5.08
674.87	5.1
675.279	5.14
675.688	5.17
676.097	5.21
676.506	5.26
676.915	5.31
677.323	5.35
677.732	5.39
678.141	5.45
678.549	5.51
678.958	5.58
679.366	5.65
679.775	5.71
680.183	5.8
680.592	5.89
681	5.99
681.408	6.1
681.816	6.22
682.224	6.37
682.632	6.52
683.04	6.67
683.448	6.85
683.856	7.05
684.264	7.26
684.671	7.5
685.079	7.75
685.487	8.03
685.894	8.34
686.302	8.67
686.709	9.03
687.116	9.42
687.524	9.84
687.931	10.27
688.338	10.73
688.745	11.2
689.152	11.7
689.559	12.22
689.966	12.77
690.373	13.32
690.78	13.89
691.187	14.48
691.593	15.07
692	15.68
692.407	16.28
692.813	16.91
693.22	17.54
693.626	18.19
694.032	18.82
694.439	19.46
694.845	20.1
695.251	20.73
695.657	21.35
696.063	21.97
696.469	22.6
696.875	23.22
697.281	23.83
697.687	24.45
698.093	25.04
698.498	25.63
698.904	26.21
699.31	26.78
699.715	27.35
700.12	27.9
700.526	28.44
700.931	28.96
701.337	29.47
701.742	29.95
702.147	30.45
702.552	30.94
702.957	31.41
703.362	31.87
703.767	32.31
704.172	32.74
704.577	33.17
704.981	33.59
705.386	34.02
705.791	34.43
706.195	34.84
706.6	35.23
707.004	35.59
707.408	35.98
707.813	36.35
708.217	36.71
708.621	37.08
709.025	37.43
709.43	37.77
709.834	38.11
710.237	38.43
710.641	38.75
711.045	39.05
711.449	39.37
711.853	39.69
712.256	39.98
712.66	40.27
713.064	40.55
713.467	40.85
713.87	41.12
714.274	41.38
714.677	41.66
715.08	41.91
715.484	42.18
715.887	42.43
716.29	42.67
716.693	42.92
717.096	43.15
717.499	43.41
717.901	43.61
718.304	43.82
718.707	44.04
719.109	44.25
719.512	44.47
719.915	44.67
720.317	44.83
720.719	44.99
721.122	45.17
721.524	45.36
721.926	45.53
722.328	45.71
722.731	45.87
723.133	46.04
723.535	46.18
723.937	46.32
724.338	46.47
724.74	46.64
725.142	46.87
725.544	46.99
725.945	47.14
726.347	47.23
726.748	47.36
727.15	47.45
727.551	47.57
727.952	47.66
728.354	47.8
728.755	47.87
729.156	47.97
729.557	47.96
729.958	48.04
730.359	48.12
730.76	48.2
731.161	48.28
731.562	48.39
731.962	48.44
732.363	48.53
732.763	48.6
733.164	48.69
733.564	48.78
733.965	48.83
734.365	48.92
734.766	48.96
735.166	49.05
735.566	49.11
735.966	49.15
736.366	49.2
736.766	49.22
737.166	49.24
737.566	49.3
737.966	49.31
738.365	49.35
738.765	49.39
739.165	49.42
739.564	49.42
739.964	49.44
740.363	49.46
740.763	49.51
741.162	49.55
741.561	49.57
741.96	49.55
742.36	49.58
742.759	49.61
743.158	49.62
743.557	49.64
743.955	49.66
744.354	49.7
744.753	49.74
745.152	49.76
745.55	49.78
745.949	49.81
746.348	49.85
746.746	49.83
747.144	49.86
747.543	49.87
747.941	49.93
748.339	49.92
748.737	49.9
749.136	49.89
749.534	49.88
749.932	49.89
750.33	49.88
750.727	49.9
751.125	49.9
751.523	49.89
751.921	49.89
752.318	49.89
752.716	49.9
753.113	49.95
753.511	49.96
753.908	49.98
754.305	49.99
754.703	49.98
755.1	49.98
755.497	50
755.894	50.01
756.291	50
756.688	49.97
757.085	49.97
757.482	49.94
757.878	49.94
758.275	49.94
758.672	49.92
759.068	49.95
759.465	49.96
759.861	49.95
760.258	49.95
760.654	49.97
761.05	49.99
761.447	50
761.843	50.01
762.239	50.01
762.635	49.98
763.031	49.97
763.427	49.97
763.822	49.96
764.218	49.98
764.614	49.99
765.01	49.97
765.405	49.97
765.801	49.94
766.196	49.94
766.592	49.92
766.987	49.91
767.382	49.89
767.778	49.87
768.173	49.86
768.568	49.84
768.963	49.82
769.358	49.85
769.753	49.85
770.148	49.88
770.542	49.87
770.937	49.88
771.332	49.9
771.726	49.94
772.121	49.95
772.515	49.94
772.91	49.94
773.304	49.95
773.699	49.91
774.093	49.88
774.487	49.85
774.881	49.85
775.275	49.82
775.669	49.78
776.063	49.75
776.457	49.74
776.851	49.73
777.245	49.71
777.638	49.69
778.032	49.69
778.425	49.73
778.819	49.75
779.212	49.74
779.606	49.76
779.999	49.76
780.392	49.8
780.786	49.8
781.179	49.81
781.572	49.85
781.965	49.84
782.358	49.85
782.751	49.83
783.143	49.82
