Data from C_2_DEC_OH_4N_Splice17_13-05-43-522.txt Node
Date: Sat Mar 07 13:05:43 EST 2020
User: sa697716
Spectrometer: NQ5500242
Trigger mode: 0
Integration Time (sec): 1.450000E-1
Scans to average: 20
Nonlinearity correction enabled: false
Boxcar width: 5
Storing dark spectrum: false
XAxis mode: Wavelengths
Number of Pixels in Spectrum: 512
>>>>>Begin Spectral Data<<<<<
187.83	195.47
188.298	214.87
188.766	196.05
189.233	161
189.701	171.33
190.169	204.06
190.636	233.53
191.104	367.26
191.571	426.45
192.039	230.87
192.506	497.47
192.974	-8.68
193.441	119.59
193.908	11.86
194.375	44.89
194.842	27.93
195.31	70.31
195.777	198.11
196.244	59.28
196.711	42.77
197.177	43.09
197.644	41.14
198.111	40.15
198.578	40.02
199.045	40.58
199.511	39.95
199.978	39.51
200.445	39.79
200.911	39.61
201.378	39.31
201.844	39.5
202.31	38.86
202.777	38.64
203.243	38.53
203.709	37.93
204.176	37.4
204.642	37.15
205.108	37.03
205.574	36.69
206.04	36.12
206.506	35.99
206.972	35.79
207.438	35.45
207.903	35.04
208.369	34.38
208.835	33.98
209.301	33.23
209.766	32.19
210.232	31.18
210.697	29.98
211.163	29.07
211.628	28.01
212.094	27.03
212.559	26.46
213.024	25.79
213.49	25.1
213.955	24.21
214.42	23.58
214.885	22.92
215.35	22.09
215.815	21.13
216.28	19.47
216.745	17.66
217.21	15.81
217.675	14.09
218.14	12.56
218.604	11.28
219.069	10.19
219.534	9.24
219.998	8.5
220.463	7.88
220.927	7.25
221.392	6.82
221.856	6.48
222.32	6.16
222.785	5.92
223.249	5.7
223.713	5.5
224.177	5.34
224.642	5.17
225.106	4.97
225.57	4.81
226.034	4.69
226.497	4.59
226.961	4.47
227.425	4.37
227.889	4.25
228.353	4.14
228.816	4.04
229.28	3.95
229.744	3.88
230.207	3.82
230.671	3.74
231.134	3.66
231.597	3.61
232.061	3.56
232.524	3.5
232.987	3.43
233.45	3.41
233.914	3.35
234.377	3.29
234.84	3.24
235.303	3.19
235.766	3.16
236.229	3.12
236.691	3.06
237.154	3.02
237.617	2.99
238.08	2.96
238.542	2.9
239.005	2.9
239.468	2.87
239.93	2.84
240.393	2.82
240.855	2.78
241.317	2.75
241.78	2.73
242.242	2.69
242.704	2.67
243.166	2.63
243.629	2.62
244.091	2.57
244.553	2.54
245.015	2.51
245.477	2.48
245.939	2.46
246.4	2.43
246.862	2.4
247.324	2.38
247.786	2.35
248.247	2.32
248.709	2.29
249.17	2.25
249.632	2.24
250.093	2.23
250.555	2.19
251.016	2.17
251.477	2.14
251.939	2.12
252.4	2.1
252.861	2.08
253.322	2.06
253.783	2.04
254.244	2.03
254.705	2.01
255.166	1.98
255.627	1.98
256.088	1.96
256.549	1.96
257.009	1.94
257.47	1.92
257.931	1.89
258.391	1.87
258.852	1.85
259.312	1.82
259.773	1.8
260.233	1.79
260.694	1.76
261.154	1.74
261.614	1.71
262.074	1.69
262.534	1.67
262.994	1.67
263.455	1.65
263.915	1.63
264.374	1.61
264.834	1.6
265.294	1.58
265.754	1.57
266.214	1.55
266.673	1.54
267.133	1.53
267.593	1.52
268.052	1.51
268.512	1.51
268.971	1.5
269.431	1.49
269.89	1.49
270.349	1.49
270.809	1.48
271.268	1.47
271.727	1.47
272.186	1.47
272.645	1.46
273.104	1.45
273.563	1.44
274.022	1.44
274.481	1.43
274.94	1.43
275.399	1.42
275.857	1.42
276.316	1.42
276.775	1.41
277.233	1.41
277.692	1.41
278.15	1.42
278.609	1.42
279.067	1.41
279.525	1.41
279.984	1.41
280.442	1.41
280.9	1.41
281.358	1.41
281.816	1.42
282.274	1.42
282.732	1.42
283.19	1.41
283.648	1.41
284.106	1.42
284.564	1.42
285.021	1.43
285.479	1.43
285.937	1.42
286.394	1.42
286.852	1.42
287.309	1.42
287.767	1.42
288.224	1.41
288.682	1.41
289.139	1.39
289.596	1.39
290.053	1.37
290.511	1.35
290.968	1.35
291.425	1.34
291.882	1.33
292.339	1.32
292.796	1.31
293.252	1.3
293.709	1.3
294.166	1.3
294.623	1.29
295.079	1.29
295.536	1.3
295.992	1.29
296.449	1.29
296.905	1.29
297.362	1.28
297.818	1.28
298.274	1.28
298.731	1.27
299.187	1.27
299.643	1.26
300.099	1.26
300.555	1.25
301.011	1.24
301.467	1.24
301.923	1.23
302.379	1.24
302.835	1.24
303.291	1.24
303.746	1.24
304.202	1.24
304.658	1.25
305.113	1.25
305.569	1.25
306.024	1.27
306.479	1.27
306.935	1.27
307.39	1.27
307.845	1.27
308.301	1.28
308.756	1.27
309.211	1.28
309.666	1.29
310.121	1.29
310.576	1.29
311.031	1.3
311.486	1.3
311.94	1.31
312.395	1.3
312.85	1.31
313.305	1.31
313.759	1.32
314.214	1.32
314.668	1.31
315.123	1.32
315.577	1.32
316.032	1.31
316.486	1.31
316.94	1.31
317.394	1.31
317.849	1.3
318.303	1.3
318.757	1.29
319.211	1.29
319.665	1.27
320.119	1.27
320.572	1.26
321.026	1.26
321.48	1.26
321.934	1.24
322.387	1.24
322.841	1.24
323.295	1.25
323.748	1.25
324.202	1.25
324.655	1.25
325.108	1.26
325.562	1.26
326.015	1.26
326.468	1.26
326.921	1.26
327.374	1.27
327.827	1.27
328.28	1.27
328.733	1.27
329.186	1.27
329.639	1.27
330.092	1.28
330.545	1.28
330.997	1.28
331.45	1.29
331.903	1.29
332.355	1.3
332.808	1.3
333.26	1.29
333.713	1.29
334.165	1.29
334.617	1.3
335.069	1.29
335.522	1.29
335.974	1.3
336.426	1.3
336.878	1.3
337.33	1.29
337.782	1.3
338.234	1.31
338.686	1.32
339.137	1.32
339.589	1.31
340.041	1.32
340.493	1.32
340.944	1.3
341.396	1.3
341.847	1.29
342.299	1.28
342.75	1.28
343.201	1.26
343.653	1.25
344.104	1.24
344.555	1.24
345.006	1.23
345.457	1.23
345.908	1.23
346.359	1.23
346.81	1.24
347.261	1.23
347.712	1.23
348.163	1.23
348.613	1.24
349.064	1.25
349.515	1.25
349.965	1.25
350.416	1.24
350.866	1.25
351.317	1.23
351.767	1.24
352.217	1.24
352.668	1.25
353.118	1.25
353.568	1.23
354.018	1.24
354.468	1.25
354.918	1.25
355.368	1.26
355.818	1.26
356.268	1.27
356.718	1.26
357.168	1.26
357.617	1.25
358.067	1.25
358.517	1.27
358.966	1.27
359.416	1.27
359.865	1.27
360.315	1.28
360.764	1.29
361.213	1.28
361.663	1.28
362.112	1.3
362.561	1.31
363.01	1.31
363.459	1.29
363.908	1.28
364.357	1.28
364.806	1.28
365.255	1.28
365.703	1.29
366.152	1.29
366.601	1.29
367.05	1.29
367.498	1.29
367.947	1.29
368.395	1.31
368.844	1.32
369.292	1.31
369.74	1.32
370.189	1.32
370.637	1.32
371.085	1.31
371.533	1.31
371.981	1.31
372.429	1.31
372.877	1.31
373.325	1.31
373.773	1.29
374.221	1.29
374.669	1.28
375.116	1.28
375.564	1.27
376.012	1.27
376.459	1.28
376.907	1.28
377.354	1.28
377.801	1.28
378.249	1.28
378.696	1.28
379.143	1.28
379.591	1.29
380.038	1.29
380.485	1.29
380.932	1.29
381.379	1.3
381.826	1.3
382.273	1.3
382.72	1.28
383.166	1.29
383.613	1.29
384.06	1.29
384.506	1.28
384.953	1.28
385.4	1.27
385.846	1.28
386.292	1.27
386.739	1.26
387.185	1.27
387.631	1.27
388.078	1.27
388.524	1.27
388.97	1.28
389.416	1.29
389.862	1.3
390.308	1.31
390.754	1.32
391.2	1.33
391.645	1.33
392.091	1.34
392.537	1.35
392.983	1.35
393.428	1.36
393.874	1.36
394.319	1.38
394.765	1.39
395.21	1.39
395.655	1.39
396.101	1.4
396.546	1.41
396.991	1.42
397.436	1.43
397.881	1.45
398.326	1.46
398.771	1.47
399.216	1.48
399.661	1.49
400.106	1.51
400.551	1.53
400.995	1.54
401.44	1.55
401.885	1.56
402.329	1.59
402.774	1.59
403.218	1.6
403.663	1.62
404.107	1.63
404.551	1.64
404.995	1.65
405.44	1.65
405.884	1.65
406.328	1.67
406.772	1.67
407.216	1.68
407.66	1.69
408.104	1.69
408.547	1.7
408.991	1.71
409.435	1.71
409.879	1.72
410.322	1.74
410.766	1.76
411.209	1.77
411.653	1.79
412.096	1.82
412.54	1.84
412.983	1.86
413.426	1.9
413.869	1.93
414.312	1.97
414.756	1.99
415.199	2
415.642	2.01
416.085	2.02
416.527	2.02
416.97	2.02
417.413	2.01
417.856	2.01
418.298	2.01
418.741	2
419.184	2
419.626	2.01
420.069	2.01
420.511	2.02
420.953	2.03
421.396	2.05
421.838	2.06
422.28	2.08
422.722	2.11
423.164	2.11
423.606	2.12
424.048	2.13
424.49	2.13
424.932	2.13
425.374	2.13
425.816	2.12
426.258	2.11
426.699	2.11
427.141	2.1
427.582	2.1
428.024	2.12
428.465	2.13
428.907	2.14
429.348	2.13
429.789	2.14
430.231	2.16
430.672	2.18
431.113	2.21
431.554	2.23
431.995	2.25
432.436	2.26
432.877	2.28
433.318	2.3
433.759	2.32
434.2	2.36
434.64	2.37
435.081	2.39
435.522	2.41
435.962	2.43
436.403	2.45
436.843	2.46
437.284	2.46
437.724	2.47
438.164	2.46
438.604	2.47
439.045	2.48
439.485	2.48
439.925	2.48
440.365	2.48
440.805	2.49
441.245	2.5
441.685	2.52
442.125	2.54
442.564	2.56
443.004	2.56
443.444	2.58
443.883	2.59
444.323	2.59
444.762	2.6
445.202	2.61
445.641	2.63
446.081	2.64
446.52	2.64
446.959	2.66
447.398	2.68
447.837	2.7
448.276	2.7
448.716	2.72
449.154	2.74
449.593	2.75
450.032	2.77
450.471	2.76
450.91	2.76
451.349	2.77
451.787	2.75
452.226	2.74
452.664	2.74
453.103	2.73
453.541	2.73
453.98	2.73
454.418	2.72
454.856	2.71
455.295	2.7
455.733	2.68
456.171	2.68
456.609	2.69
457.047	2.69
457.485	2.68
457.923	2.68
458.361	2.68
458.798	2.68
459.236	2.68
459.674	2.69
460.111	2.69
460.549	2.71
460.987	2.71
461.424	2.72
461.862	2.73
462.299	2.74
462.736	2.76
463.173	2.77
463.611	2.78
464.048	2.8
464.485	2.8
464.922	2.82
465.359	2.82
465.796	2.84
466.233	2.86
466.67	2.87
467.106	2.88
467.543	2.88
467.98	2.87
468.416	2.88
468.853	2.88
469.29	2.88
469.726	2.87
470.162	2.87
470.599	2.86
471.035	2.84
471.471	2.84
471.907	2.84
472.344	2.86
472.78	2.86
473.216	2.86
473.652	2.86
474.088	2.85
474.523	2.86
474.959	2.86
475.395	2.85
475.831	2.86
476.266	2.87
476.702	2.87
477.138	2.85
477.573	2.85
478.008	2.85
478.444	2.84
478.879	2.86
479.314	2.85
479.75	2.86
480.185	2.86
480.62	2.85
481.055	2.85
481.49	2.84
481.925	2.85
482.36	2.85
482.795	2.85
483.229	2.86
483.664	2.86
484.099	2.86
484.534	2.85
484.968	2.87
485.403	2.87
485.837	2.89
486.271	2.9
486.706	2.91
487.14	2.92
487.574	2.93
488.009	2.94
488.443	2.95
488.877	2.97
489.311	3
489.745	3.02
490.179	3.05
490.613	3.08
491.046	3.1
491.48	3.13
491.914	3.15
492.348	3.18
492.781	3.22
493.215	3.25
493.648	3.29
494.082	3.33
494.515	3.35
494.948	3.39
495.382	3.42
495.815	3.47
496.248	3.51
496.681	3.57
497.114	3.61
497.547	3.66
497.98	3.72
498.413	3.77
498.846	3.82
499.279	3.88
499.711	3.94
500.144	3.99
500.577	4.05
501.009	4.11
501.442	4.17
501.874	4.24
502.306	4.3
502.739	4.37
503.171	4.43
503.603	4.5
504.036	4.58
504.468	4.64
504.9	4.71
505.332	4.78
505.764	4.86
506.196	4.95
506.627	5.03
507.059	5.12
507.491	5.18
507.923	5.28
508.354	5.37
508.786	5.46
509.217	5.56
509.649	5.65
510.08	5.74
510.512	5.84
510.943	5.91
511.374	6
511.805	6.09
512.237	6.17
512.668	6.26
513.099	6.34
513.53	6.42
513.961	6.51
514.391	6.6
514.822	6.69
515.253	6.76
515.684	6.85
516.114	6.93
516.545	7.01
516.975	7.09
517.406	7.18
517.836	7.25
518.267	7.33
518.697	7.4
519.127	7.46
519.558	7.52
519.988	7.59
520.418	7.65
520.848	7.71
521.278	7.78
521.708	8.01
522.138	8.07
522.567	8.13
522.997	8.18
523.427	8.22
523.857	8.26
524.286	8.3
524.716	8.34
525.145	8.38
525.575	8.41
526.004	8.45
526.433	8.29
526.863	8.32
527.292	8.35
527.721	8.38
528.15	8.41
528.579	8.44
529.008	8.46
529.437	8.49
529.866	8.5
530.295	8.52
530.724	8.54
531.152	8.57
531.581	8.6
532.01	8.61
532.438	8.62
532.867	8.64
533.295	8.65
533.723	8.67
534.152	8.68
534.58	8.71
535.008	8.72
535.436	8.74
535.865	8.74
536.293	8.74
536.721	8.74
537.149	8.75
537.576	8.76
538.004	8.77
538.432	8.78
538.86	8.78
539.287	8.76
539.715	8.78
540.143	8.78
540.57	8.78
540.998	8.79
541.425	8.8
541.852	8.8
542.28	8.82
542.707	8.82
543.134	8.82
543.561	8.85
543.988	8.87
544.415	8.88
544.842	8.89
545.269	8.92
545.696	8.92
546.123	8.94
546.549	8.94
546.976	8.95
547.403	8.98
547.829	9
548.256	9.01
548.682	9.02
549.108	9.04
549.535	9.05
549.961	9.06
550.387	9.08
550.813	9.09
551.24	9.11
551.666	9.13
552.092	9.13
552.518	9.14
552.943	9.15
553.369	9.17
553.795	9.17
554.221	9.2
554.646	9.19
555.072	9.21
555.498	9.21
555.923	9.22
556.349	9.22
556.774	9.24
557.199	9.25
557.625	9.26
558.05	9.26
558.475	9.27
558.9	9.28
559.325	9.31
559.75	9.32
560.175	9.33
560.6	9.34
561.025	9.35
561.449	9.36
561.874	9.35
562.299	9.36
562.723	9.37
563.148	9.36
563.572	9.35
563.997	9.34
564.421	9.32
564.846	9.31
565.27	9.31
565.694	9.3
566.118	9.29
566.542	9.3
566.966	9.28
567.39	9.28
567.814	9.28
568.238	9.28
568.662	9.28
569.086	9.29
569.509	9.3
569.933	9.31
570.357	9.31
570.78	9.31
571.204	9.31
571.627	9.32
572.05	9.31
572.474	9.32
572.897	9.34
573.32	9.35
573.743	9.34
574.166	9.34
574.589	9.34
575.012	9.35
575.435	9.36
575.858	9.36
576.281	9.37
576.704	9.38
577.126	9.4
577.549	9.41
577.972	9.42
578.394	9.43
578.817	9.44
579.239	9.46
579.661	9.47
580.084	9.49
580.506	9.51
580.928	9.52
581.35	9.55
581.772	9.56
582.194	9.56
582.616	9.57
583.038	9.6
583.46	9.61
583.882	9.62
584.303	9.63
584.725	9.63
585.147	9.66
585.568	9.68
585.99	9.7
586.411	9.71
586.833	9.73
587.254	9.75
587.675	9.77
588.096	9.79
588.518	9.81
588.939	9.85
589.36	9.87
589.781	9.88
590.202	9.93
590.623	9.95
591.043	9.97
591.464	10.01
591.885	10.03
592.305	10.05
592.726	10.09
593.147	10.12
593.567	10.16
593.987	10.18
594.408	10.22
594.828	10.23
595.248	10.26
595.669	10.3
596.089	10.33
596.509	10.38
596.929	10.41
597.349	10.44
597.769	10.48
598.189	10.51
598.608	10.55
599.028	10.59
599.448	10.63
599.867	10.66
600.287	10.7
600.706	10.75
601.126	10.79
601.545	10.84
601.965	10.89
602.384	10.93
602.803	10.96
603.222	11.01
603.641	11.05
604.061	11.09
604.48	11.14
604.898	11.16
605.317	11.2
605.736	11.24
606.155	11.28
606.574	11.31
606.992	11.33
607.411	11.38
607.829	11.39
608.248	11.41
608.666	11.44
609.085	11.48
609.503	11.52
609.921	11.55
610.339	11.58
610.758	11.61
611.176	11.64
611.594	11.68
612.012	11.69
612.43	11.73
612.847	11.77
613.265	11.8
613.683	11.83
614.101	11.85
614.518	11.87
614.936	11.89
615.353	11.9
615.771	11.92
616.188	11.93
616.606	11.96
617.023	11.99
617.44	12.02
617.857	12.04
618.274	12.05
618.691	12.08
619.108	12.11
619.525	12.14
619.942	12.18
620.359	12.23
620.776	12.28
621.192	12.32
621.609	12.35
622.026	12.39
622.442	12.43
622.859	12.47
623.275	12.52
623.691	12.56
624.108	12.61
624.524	12.66
624.94	12.7
625.356	12.75
625.772	12.8
626.188	12.86
626.604	12.92
627.02	12.97
627.436	13.02
627.852	13.06
628.268	13.11
628.683	13.15
629.099	13.19
629.514	13.22
629.93	13.25
630.345	13.26
630.761	13.28
631.176	13.29
631.591	13.29
632.007	13.29
632.422	13.28
632.837	13.27
633.252	13.24
633.667	13.2
634.082	13.16
634.497	13.11
634.911	13.05
635.326	12.97
635.741	12.89
636.155	12.8
636.57	12.71
636.984	12.61
637.399	12.5
637.813	12.4
638.228	12.27
638.642	12.13
639.056	11.98
639.47	11.85
639.884	11.72
640.298	11.57
640.712	11.42
641.126	11.26
641.54	11.09
641.954	10.92
642.368	10.78
642.781	10.63
643.195	10.49
643.609	10.35
644.022	10.21
644.436	10.07
644.849	9.94
645.262	9.8
645.676	9.68
646.089	9.58
646.502	9.48
646.915	9.4
647.328	9.32
647.741	9.23
648.154	9.16
648.567	9.11
648.98	9.05
649.393	9
649.805	8.95
650.218	8.92
650.631	8.89
651.043	8.85
651.456	8.81
651.868	8.78
652.28	8.75
652.693	8.72
653.105	8.68
653.517	8.65
653.929	8.62
654.341	8.59
654.753	8.53
655.165	8.48
655.577	8.42
655.989	8.35
656.401	8.27
656.813	8.2
657.224	8.11
657.636	8
658.047	7.91
658.459	7.81
658.87	7.7
659.282	7.59
659.693	7.48
660.104	7.36
660.515	7.25
660.926	7.13
661.338	7.02
661.749	6.91
662.159	6.79
662.57	6.69
662.981	6.58
663.392	6.46
663.803	6.36
664.213	6.25
664.624	6.15
665.035	6.05
665.445	5.96
665.855	5.87
666.266	5.79
666.676	5.72
667.086	5.63
667.497	5.56
667.907	5.5
668.317	5.44
668.727	5.39
669.137	5.34
669.547	5.3
669.956	5.26
670.366	5.21
670.776	5.18
671.186	5.15
671.595	5.13
672.005	5.11
672.414	5.09
672.824	5.08
673.233	5.06
673.642	5.06
674.052	5.05
674.461	5.05
674.87	5.07
675.279	5.08
675.688	5.1
676.097	5.13
676.506	5.16
676.915	5.19
677.323	5.25
677.732	5.29
678.141	5.36
678.549	5.43
678.958	5.52
679.366	5.62
679.775	5.74
680.183	5.88
680.592	6.03
681	6.22
681.408	6.41
681.816	6.64
682.224	6.9
682.632	7.19
683.04	7.49
683.448	7.83
683.856	8.21
684.264	8.61
684.671	9.05
685.079	9.52
685.487	10.02
685.894	10.57
686.302	11.13
686.709	11.71
687.116	12.33
687.524	12.99
687.931	13.66
688.338	14.35
688.745	15.06
689.152	15.77
689.559	16.51
689.966	17.25
690.373	18
690.78	18.75
691.187	19.5
691.593	20.25
692	20.98
692.407	21.68
692.813	22.4
693.22	23.11
693.626	23.8
694.032	24.47
694.439	25.11
694.845	25.77
695.251	26.4
695.657	27
696.063	27.59
696.469	28.18
696.875	28.76
697.281	29.3
697.687	29.84
698.093	30.38
698.498	30.87
698.904	31.35
699.31	31.8
699.715	32.25
700.12	32.68
700.526	33.1
700.931	33.5
701.337	33.89
701.742	34.26
702.147	34.61
702.552	34.95
702.957	35.26
703.362	35.59
703.767	35.89
704.172	36.17
704.577	36.44
704.981	36.72
705.386	36.99
705.791	37.25
706.195	37.52
706.6	37.77
707.004	38
707.408	38.25
707.813	38.48
708.217	38.71
708.621	38.94
709.025	39.14
709.43	39.33
709.834	39.54
710.237	39.73
710.641	39.92
711.045	40.06
711.449	40.27
711.853	40.46
712.256	40.64
712.66	40.78
713.064	40.94
713.467	41.11
713.87	41.29
714.274	41.43
714.677	41.56
715.08	41.7
715.484	41.87
715.887	42
716.29	42.1
716.693	42.23
717.096	42.37
717.499	42.49
717.901	42.63
718.304	42.72
718.707	42.86
719.109	42.99
719.512	43.09
719.915	43.19
720.317	43.26
720.719	43.36
721.122	43.46
721.524	43.55
721.926	43.66
722.328	43.73
722.731	43.81
723.133	43.88
723.535	43.96
723.937	44.03
724.338	44.1
724.74	44.18
725.142	44.35
725.544	44.42
725.945	44.52
726.347	44.56
726.748	44.62
727.15	44.68
727.551	44.76
727.952	44.81
728.354	44.87
728.755	44.91
729.156	44.99
729.557	44.92
729.958	44.95
730.359	44.97
730.76	45.03
731.161	45.07
731.562	45.12
731.962	45.13
732.363	45.16
732.763	45.19
733.164	45.25
733.564	45.28
733.965	45.29
734.365	45.35
734.766	45.37
735.166	45.4
735.566	45.44
735.966	45.48
736.366	45.51
736.766	45.52
737.166	45.58
737.566	45.58
737.966	45.59
738.365	45.63
738.765	45.65
739.165	45.68
739.564	45.7
739.964	45.71
740.363	45.71
740.763	45.7
741.162	45.74
741.561	45.75
741.96	45.74
742.36	45.76
742.759	45.77
743.158	45.78
743.557	45.8
743.955	45.82
744.354	45.85
744.753	45.88
745.152	45.95
745.55	45.96
745.949	45.99
746.348	46.03
746.746	46.03
747.144	46.07
747.543	46.09
747.941	46.08
748.339	46.07
748.737	46.08
749.136	46.08
749.534	46.05
749.932	46.04
750.33	46.02
750.727	46.03
751.125	46.04
751.523	46.04
751.921	46.04
752.318	46.05
752.716	46.06
753.113	46.06
753.511	46.08
753.908	46.12
754.305	46.15
754.703	46.17
755.1	46.18
755.497	46.2
755.894	46.19
756.291	46.2
756.688	46.19
757.085	46.2
757.482	46.19
757.878	46.19
758.275	46.18
758.672	46.16
759.068	46.17
759.465	46.17
759.861	46.2
760.258	46.21
760.654	46.2
761.05	46.21
761.447	46.21
761.843	46.23
762.239	46.22
762.635	46.19
763.031	46.22
763.427	46.19
763.822	46.2
764.218	46.18
764.614	46.2
765.01	46.2
765.405	46.19
765.801	46.18
766.196	46.18
766.592	46.19
766.987	46.21
767.382	46.19
767.778	46.21
768.173	46.21
768.568	46.2
768.963	46.17
769.358	46.19
769.753	46.19
770.148	46.21
770.542	46.21
770.937	46.19
771.332	46.18
771.726	46.16
772.121	46.14
772.515	46.15
772.91	46.15
773.304	46.16
773.699	46.16
774.093	46.15
774.487	46.15
774.881	46.17
775.275	46.17
775.669	46.17
776.063	46.19
776.457	46.2
776.851	46.17
777.245	46.16
777.638	46.14
778.032	46.13
778.425	46.17
778.819	46.15
779.212	46.15
779.606	46.16
779.999	46.15
780.392	46.16
780.786	46.14
781.179	46.16
781.572	46.19
781.965	46.2
782.358	46.22
782.751	46.21
783.143	46.22
783.536	46.19
783.929	46.2
784.322	46.23
784.714	46.23
785.107	46.25
785.499	46.24
785.891	46.24
786.284	46.26
786.676	46.27
787.068	46.28
787.46	46.29
