Data from C_2_HIR_WI_4N_Splice17_13-35-45-124.txt Node
Date: Sat Mar 07 13:35:45 EST 2020
User: sa697716
Spectrometer: NQ5500242
Trigger mode: 0
Integration Time (sec): 1.450000E-1
Scans to average: 20
Nonlinearity correction enabled: false
Boxcar width: 5
Storing dark spectrum: false
XAxis mode: Wavelengths
Number of Pixels in Spectrum: 512
>>>>>Begin Spectral Data<<<<<
187.83	139.86
188.298	141.78
188.766	112.75
189.233	93.58
189.701	95.38
190.169	131.32
190.636	118.65
191.104	157.83
191.571	-28.61
192.039	-305.17
192.506	-198.17
192.974	115.15
193.441	114.83
193.908	13.02
194.375	19.21
194.842	-15.71
195.31	106.29
195.777	169.17
196.244	110.19
196.711	101.36
197.177	103.08
197.644	103.42
198.111	104.05
198.578	104.48
199.045	105.03
199.511	104.47
199.978	104.3
200.445	104.8
200.911	104.8
201.378	104.8
201.844	104.98
202.31	104.74
202.777	104.28
203.243	103.71
203.709	102.86
204.176	101.99
204.642	101.11
205.108	100.47
205.574	99.03
206.04	97.84
206.506	97.24
206.972	96.24
207.438	94.83
207.903	93.49
208.369	91.77
208.835	89.65
209.301	87.37
209.766	85.08
210.232	82.84
210.697	80.53
211.163	78.41
211.628	75.86
212.094	73.84
212.559	72.21
213.024	70.3
213.49	68.55
213.955	66.91
214.42	65.06
214.885	62.9
215.35	60.07
215.815	56.56
216.28	52.18
216.745	47.42
217.21	42.41
217.675	37.82
218.14	33.89
218.604	30.48
219.069	27.58
219.534	25.22
219.998	23.28
220.463	21.65
220.927	20.23
221.392	19.14
221.856	18.23
222.32	17.5
222.785	16.82
223.249	16.28
223.713	15.72
224.177	15.28
224.642	14.85
225.106	14.41
225.57	13.99
226.034	13.66
226.497	13.33
226.961	13.01
227.425	12.69
227.889	12.4
228.353	12.07
228.816	11.81
229.28	11.55
229.744	11.3
230.207	11.07
230.671	10.86
231.134	10.64
231.597	10.45
232.061	10.26
232.524	10.08
232.987	9.91
233.45	9.78
233.914	9.64
234.377	9.49
234.84	9.36
235.303	9.25
235.766	9.13
236.229	9.02
236.691	8.89
237.154	8.79
237.617	8.7
238.08	8.62
238.542	8.51
239.005	8.43
239.468	8.34
239.93	8.27
240.393	8.19
240.855	8.11
241.317	8.02
241.78	7.93
242.242	7.84
242.704	7.76
243.166	7.66
243.629	7.58
244.091	7.49
244.553	7.4
245.015	7.31
245.477	7.22
245.939	7.14
246.4	7.07
246.862	7
247.324	6.93
247.786	6.85
248.247	6.78
248.709	6.68
249.17	6.6
249.632	6.55
250.093	6.49
250.555	6.42
251.016	6.35
251.477	6.28
251.939	6.23
252.4	6.17
252.861	6.12
253.322	6.07
253.783	6.03
254.244	6
254.705	5.95
255.166	5.9
255.627	5.86
256.088	5.83
256.549	5.79
257.009	5.74
257.47	5.68
257.931	5.64
258.391	5.57
258.852	5.52
259.312	5.46
259.773	5.41
260.233	5.36
260.694	5.31
261.154	5.25
261.614	5.2
262.074	5.15
262.534	5.1
262.994	5.06
263.455	5.03
263.915	5
264.374	4.96
264.834	4.92
265.294	4.88
265.754	4.86
266.214	4.83
266.673	4.8
267.133	4.78
267.593	4.75
268.052	4.73
268.512	4.71
268.971	4.68
269.431	4.67
269.89	4.65
270.349	4.63
270.809	4.61
271.268	4.6
271.727	4.59
272.186	4.57
272.645	4.56
273.104	4.55
273.563	4.54
274.022	4.53
274.481	4.52
274.94	4.52
275.399	4.51
275.857	4.5
276.316	4.49
276.775	4.49
277.233	4.49
277.692	4.49
278.15	4.48
278.609	4.48
279.067	4.48
279.525	4.47
279.984	4.46
280.442	4.46
280.9	4.46
281.358	4.45
281.816	4.45
282.274	4.45
282.732	4.45
283.19	4.44
283.648	4.44
284.106	4.43
284.564	4.44
285.021	4.44
285.479	4.44
285.937	4.43
286.394	4.43
286.852	4.42
287.309	4.41
287.767	4.39
288.224	4.38
288.682	4.35
289.139	4.33
289.596	4.3
290.053	4.26
290.511	4.24
290.968	4.21
291.425	4.18
291.882	4.15
292.339	4.13
292.796	4.1
293.252	4.09
293.709	4.08
294.166	4.06
294.623	4.05
295.079	4.04
295.536	4.03
295.992	4.03
296.449	4.02
296.905	4.01
297.362	4.01
297.818	3.99
298.274	3.99
298.731	3.97
299.187	3.96
299.643	3.94
300.099	3.94
300.555	3.94
301.011	3.93
301.467	3.93
301.923	3.92
302.379	3.92
302.835	3.92
303.291	3.92
303.746	3.91
304.202	3.92
304.658	3.92
305.113	3.92
305.569	3.93
306.024	3.93
306.479	3.93
306.935	3.93
307.39	3.94
307.845	3.94
308.301	3.94
308.756	3.94
309.211	3.95
309.666	3.97
310.121	3.97
310.576	3.98
311.031	3.98
311.486	3.99
311.94	3.99
312.395	3.99
312.85	3.99
313.305	4
313.759	4.01
314.214	4
314.668	4
315.123	3.99
315.577	3.98
316.032	3.97
316.486	3.96
316.94	3.96
317.394	3.96
317.849	3.93
318.303	3.91
318.757	3.89
319.211	3.88
319.665	3.85
320.119	3.83
320.572	3.81
321.026	3.8
321.48	3.79
321.934	3.77
322.387	3.75
322.841	3.75
323.295	3.75
323.748	3.76
324.202	3.76
324.655	3.76
325.108	3.77
325.562	3.77
326.015	3.77
326.468	3.78
326.921	3.78
327.374	3.78
327.827	3.78
328.28	3.77
328.733	3.77
329.186	3.77
329.639	3.78
330.092	3.78
330.545	3.78
330.997	3.78
331.45	3.79
331.903	3.79
332.355	3.81
332.808	3.82
333.26	3.82
333.713	3.82
334.165	3.83
334.617	3.84
335.069	3.84
335.522	3.86
335.974	3.87
336.426	3.87
336.878	3.87
337.33	3.87
337.782	3.88
338.234	3.89
338.686	3.89
339.137	3.89
339.589	3.87
340.041	3.87
340.493	3.85
340.944	3.83
341.396	3.81
341.847	3.79
342.299	3.76
342.75	3.73
343.201	3.7
343.653	3.68
344.104	3.65
344.555	3.64
345.006	3.62
345.457	3.61
345.908	3.59
346.359	3.6
346.81	3.59
347.261	3.58
347.712	3.59
348.163	3.58
348.613	3.59
349.064	3.59
349.515	3.59
349.965	3.59
350.416	3.59
350.866	3.59
351.317	3.59
351.767	3.6
352.217	3.6
352.668	3.6
353.118	3.6
353.568	3.6
354.018	3.6
354.468	3.61
354.918	3.61
355.368	3.62
355.818	3.62
356.268	3.63
356.718	3.63
357.168	3.63
357.617	3.62
358.067	3.62
358.517	3.63
358.966	3.63
359.416	3.64
359.865	3.64
360.315	3.64
360.764	3.64
361.213	3.64
361.663	3.64
362.112	3.65
362.561	3.67
363.01	3.66
363.459	3.65
363.908	3.64
364.357	3.65
364.806	3.64
365.255	3.65
365.703	3.66
366.152	3.66
366.601	3.67
367.05	3.66
367.498	3.65
367.947	3.65
368.395	3.66
368.844	3.67
369.292	3.66
369.74	3.67
370.189	3.67
370.637	3.66
371.085	3.65
371.533	3.65
371.981	3.65
372.429	3.66
372.877	3.67
373.325	3.67
373.773	3.67
374.221	3.67
374.669	3.67
375.116	3.67
375.564	3.69
376.012	3.7
376.459	3.71
376.907	3.73
377.354	3.75
377.801	3.77
378.249	3.78
378.696	3.8
379.143	3.82
379.591	3.85
380.038	3.87
380.485	3.89
380.932	3.92
381.379	3.95
381.826	3.96
382.273	3.99
382.72	4
383.166	4.04
383.613	4.07
384.06	4.09
384.506	4.13
384.953	4.17
385.4	4.21
385.846	4.26
386.292	4.3
386.739	4.35
387.185	4.39
387.631	4.45
388.078	4.5
388.524	4.56
388.97	4.63
389.416	4.7
389.862	4.76
390.308	4.83
390.754	4.9
391.2	4.99
391.645	5.07
392.091	5.17
392.537	5.26
392.983	5.35
393.428	5.45
393.874	5.54
394.319	5.63
394.765	5.73
395.21	5.82
395.655	5.91
396.101	6.01
396.546	6.09
396.991	6.19
397.436	6.28
397.881	6.41
398.326	6.52
398.771	6.63
399.216	6.75
399.661	6.87
400.106	6.97
400.551	7.07
400.995	7.17
401.44	7.26
401.885	7.35
402.329	7.46
402.774	7.54
403.218	7.65
403.663	7.75
404.107	7.84
404.551	7.94
404.995	8.02
405.44	8.12
405.884	8.22
406.328	8.32
406.772	8.41
407.216	8.49
407.66	8.57
408.104	8.64
408.547	8.73
408.991	8.82
409.435	8.9
409.879	8.99
410.322	9.08
410.766	9.17
411.209	9.27
411.653	9.37
412.096	9.45
412.54	9.53
412.983	9.63
413.426	9.73
413.869	9.81
414.312	9.91
414.756	10
415.199	10.07
415.642	10.15
416.085	10.22
416.527	10.27
416.97	10.32
417.413	10.36
417.856	10.39
418.298	10.41
418.741	10.45
419.184	10.48
419.626	10.52
420.069	10.56
420.511	10.61
420.953	10.63
421.396	10.69
421.838	10.74
422.28	10.8
422.722	10.85
423.164	10.88
423.606	10.92
424.048	10.95
424.49	10.97
424.932	10.97
425.374	10.93
425.816	10.93
426.258	10.91
426.699	10.91
427.141	10.92
427.582	10.93
428.024	10.96
428.465	10.98
428.907	10.99
429.348	10.98
429.789	11.01
430.231	11.07
430.672	11.12
431.113	11.18
431.554	11.23
431.995	11.26
432.436	11.29
432.877	11.32
433.318	11.36
433.759	11.42
434.2	11.49
434.64	11.55
435.081	11.61
435.522	11.66
435.962	11.71
436.403	11.78
436.843	11.83
437.284	11.85
437.724	11.91
438.164	11.95
438.604	12
439.045	12.06
439.485	12.1
439.925	12.16
440.365	12.22
440.805	12.27
441.245	12.33
441.685	12.41
442.125	12.5
442.564	12.58
443.004	12.67
443.444	12.76
443.883	12.89
444.323	12.99
444.762	13.09
445.202	13.2
445.641	13.34
446.081	13.45
446.52	13.54
446.959	13.68
447.398	13.78
447.837	13.88
448.276	13.96
448.716	14.04
449.154	14.15
449.593	14.24
450.032	14.32
450.471	14.35
450.91	14.41
451.349	14.48
451.787	14.5
452.226	14.54
452.664	14.58
453.103	14.61
453.541	14.62
453.98	14.62
454.418	14.62
454.856	14.63
455.295	14.64
455.733	14.63
456.171	14.63
456.609	14.66
457.047	14.64
457.485	14.66
457.923	14.66
458.361	14.66
458.798	14.65
459.236	14.64
459.674	14.64
460.111	14.65
460.549	14.66
460.987	14.67
461.424	14.66
461.862	14.69
462.299	14.69
462.736	14.7
463.173	14.71
463.611	14.73
464.048	14.76
464.485	14.77
464.922	14.77
465.359	14.78
465.796	14.81
466.233	14.82
466.67	14.83
467.106	14.84
467.543	14.84
467.98	14.85
468.416	14.85
468.853	14.87
469.29	14.89
469.726	14.91
470.162	14.93
470.599	14.92
471.035	14.93
471.471	14.94
471.907	14.96
472.344	14.98
472.78	15
473.216	15.01
473.652	15.02
474.088	15
474.523	15.02
474.959	15.02
475.395	15.02
475.831	15.03
476.266	15.03
476.702	15.03
477.138	15.03
477.573	15.04
478.008	15.06
478.444	15.05
478.879	15.07
479.314	15.06
479.75	15.07
480.185	15.07
480.62	15.06
481.055	15.05
481.49	15.06
481.925	15.07
482.36	15.08
482.795	15.08
483.229	15.09
483.664	15.11
484.099	15.14
484.534	15.17
484.968	15.21
485.403	15.25
485.837	15.3
486.271	15.35
486.706	15.4
487.14	15.46
487.574	15.52
488.009	15.59
488.443	15.66
488.877	15.74
489.311	15.83
489.745	15.93
490.179	16.03
490.613	16.14
491.046	16.24
491.48	16.36
491.914	16.47
492.348	16.59
492.781	16.73
493.215	16.87
493.648	17.01
494.082	17.14
494.515	17.28
494.948	17.43
495.382	17.6
495.815	17.77
496.248	17.96
496.681	18.14
497.114	18.33
497.547	18.52
497.98	18.7
498.413	18.91
498.846	19.12
499.279	19.34
499.711	19.55
500.144	19.76
500.577	19.99
501.009	20.22
501.442	20.46
501.874	20.71
502.306	20.95
502.739	21.24
503.171	21.49
503.603	21.78
504.036	22.06
504.468	22.35
504.9	22.64
505.332	22.94
505.764	23.23
506.196	23.52
506.627	23.84
507.059	24.16
507.491	24.45
507.923	24.79
508.354	25.11
508.786	25.45
509.217	25.8
509.649	26.14
510.08	26.48
510.512	26.83
510.943	27.18
511.374	27.53
511.805	27.88
512.237	28.23
512.668	28.59
513.099	28.93
513.53	29.27
513.961	29.61
514.391	29.96
514.822	30.32
515.253	30.68
515.684	31.02
516.114	31.37
516.545	31.71
516.975	32.04
517.406	32.36
517.836	32.7
518.267	33.04
518.697	33.35
519.127	33.64
519.558	33.93
519.988	34.22
520.418	34.5
520.848	34.77
521.278	35.04
521.708	35.49
522.138	35.74
522.567	36
522.997	36.23
523.427	36.47
523.857	36.7
524.286	36.92
524.716	37.14
525.145	37.38
525.575	37.6
526.004	37.8
526.433	37.81
526.863	37.99
527.292	38.16
527.721	38.33
528.15	38.51
528.579	38.66
529.008	38.84
529.437	38.97
529.866	39.08
530.295	39.21
530.724	39.34
531.152	39.48
531.581	39.61
532.01	39.72
532.438	39.82
532.867	39.92
533.295	40.03
533.723	40.1
534.152	40.21
534.58	40.31
535.008	40.37
535.436	40.43
535.865	40.48
536.293	40.53
536.721	40.58
537.149	40.66
537.576	40.71
538.004	40.78
538.432	40.83
538.86	40.87
539.287	40.9
539.715	40.98
540.143	41.03
540.57	41.08
540.998	41.11
541.425	41.15
541.852	41.17
542.28	41.22
542.707	41.25
543.134	41.29
543.561	41.34
543.988	41.37
544.415	41.39
544.842	41.41
545.269	41.44
545.696	41.51
546.123	41.56
546.549	41.61
546.976	41.62
547.403	41.64
547.829	41.67
548.256	41.68
548.682	41.7
549.108	41.74
549.535	41.81
549.961	41.81
550.387	41.81
550.813	41.82
551.24	41.83
551.666	41.85
552.092	41.86
552.518	41.87
552.943	41.9
553.369	41.91
553.795	41.89
554.221	41.86
554.646	41.86
555.072	41.86
555.498	41.84
555.923	41.82
556.349	41.78
556.774	41.74
557.199	41.71
557.625	41.66
558.05	41.59
558.475	41.57
558.9	41.54
559.325	41.52
559.75	41.47
560.175	41.41
560.6	41.35
561.025	41.3
561.449	41.22
561.874	41.13
562.299	41.06
562.723	40.99
563.148	40.89
563.572	40.77
563.997	40.64
564.421	40.51
564.846	40.39
565.27	40.27
565.694	40.16
566.118	40.07
566.542	39.96
566.966	39.83
567.39	39.71
567.814	39.59
568.238	39.45
568.662	39.35
569.086	39.27
569.509	39.16
569.933	39.06
570.357	38.94
570.78	38.8
571.204	38.69
571.627	38.59
572.05	38.48
572.474	38.4
572.897	38.32
573.32	38.2
573.743	38.07
574.166	37.98
574.589	37.87
575.012	37.76
575.435	37.68
575.858	37.6
576.281	37.52
576.704	37.45
577.126	37.36
577.549	37.27
577.972	37.2
578.394	37.13
578.817	37.05
579.239	36.97
579.661	36.91
580.084	36.85
580.506	36.77
580.928	36.67
581.35	36.59
581.772	36.51
582.194	36.43
582.616	36.35
583.038	36.28
583.46	36.21
583.882	36.15
584.303	36.08
584.725	36
585.147	35.95
585.568	35.91
585.99	35.84
586.411	35.79
586.833	35.75
587.254	35.69
587.675	35.65
588.096	35.59
588.518	35.54
588.939	35.5
589.36	35.44
589.781	35.39
590.202	35.35
590.623	35.3
591.043	35.23
591.464	35.2
591.885	35.15
592.305	35.12
592.726	35.08
593.147	35.04
593.567	35
593.987	34.96
594.408	34.91
594.828	34.86
595.248	34.84
595.669	34.79
596.089	34.74
596.509	34.71
596.929	34.67
597.349	34.64
597.769	34.59
598.189	34.54
598.608	34.51
599.028	34.47
599.448	34.44
599.867	34.4
600.287	34.38
600.706	34.34
601.126	34.29
601.545	34.23
601.965	34.19
602.384	34.15
602.803	34.1
603.222	34.03
603.641	33.99
604.061	33.93
604.48	33.84
604.898	33.77
605.317	33.71
605.736	33.64
606.155	33.58
606.574	33.49
606.992	33.41
607.411	33.32
607.829	33.22
608.248	33.13
608.666	33.04
609.085	32.96
609.503	32.87
609.921	32.75
610.339	32.66
610.758	32.56
611.176	32.47
611.594	32.38
612.012	32.27
612.43	32.19
612.847	32.1
613.265	32
613.683	31.92
614.101	31.85
614.518	31.77
614.936	31.68
615.353	31.59
615.771	31.51
616.188	31.44
616.606	31.37
617.023	31.31
617.44	31.25
617.857	31.18
618.274	31.12
618.691	31.05
619.108	30.97
619.525	30.91
619.942	30.87
620.359	30.82
620.776	30.77
621.192	30.74
621.609	30.7
622.026	30.64
622.442	30.62
622.859	30.59
623.275	30.55
623.691	30.55
624.108	30.54
624.524	30.53
624.94	30.53
625.356	30.53
625.772	30.51
626.188	30.51
626.604	30.5
627.02	30.48
627.436	30.47
627.852	30.46
628.268	30.45
628.683	30.42
629.099	30.4
629.514	30.37
629.93	30.34
630.345	30.31
630.761	30.26
631.176	30.23
631.591	30.18
632.007	30.13
632.422	30.07
632.837	30
633.252	29.94
633.667	29.86
634.082	29.77
634.497	29.69
634.911	29.6
635.326	29.51
635.741	29.41
636.155	29.29
636.57	29.17
636.984	29.03
637.399	28.89
637.813	28.76
638.228	28.61
638.642	28.44
639.056	28.27
639.47	28.1
639.884	27.91
640.298	27.72
640.712	27.55
641.126	27.36
641.54	27.16
641.954	26.98
642.368	26.78
642.781	26.6
643.195	26.41
643.609	26.2
644.022	26.02
644.436	25.84
644.849	25.66
645.262	25.47
645.676	25.32
646.089	25.18
646.502	25.03
646.915	24.89
647.328	24.75
647.741	24.63
648.154	24.52
648.567	24.42
648.98	24.31
649.393	24.22
649.805	24.13
650.218	24.02
650.631	23.93
651.043	23.83
651.456	23.74
651.868	23.63
652.28	23.53
652.693	23.43
653.105	23.32
653.517	23.2
653.929	23.1
654.341	22.96
654.753	22.82
655.165	22.68
655.577	22.53
655.989	22.36
656.401	22.19
656.813	22.02
657.224	21.83
657.636	21.63
658.047	21.43
658.459	21.22
658.87	20.99
659.282	20.76
659.693	20.54
660.104	20.3
660.515	20.06
660.926	19.83
661.338	19.58
661.749	19.35
662.159	19.13
662.57	18.91
662.981	18.69
663.392	18.48
663.803	18.27
664.213	18.06
664.624	17.87
665.035	17.68
665.445	17.5
665.855	17.32
666.266	17.15
666.676	17
667.086	16.82
667.497	16.67
667.907	16.53
668.317	16.41
668.727	16.28
669.137	16.17
669.547	16.06
669.956	15.96
670.366	15.88
670.776	15.79
671.186	15.7
671.595	15.65
672.005	15.56
672.414	15.52
672.824	15.48
673.233	15.44
673.642	15.41
674.052	15.39
674.461	15.38
674.87	15.38
675.279	15.39
675.688	15.4
676.097	15.42
676.506	15.46
676.915	15.51
677.323	15.57
677.732	15.64
678.141	15.73
678.549	15.84
678.958	15.97
679.366	16.11
679.775	16.28
680.183	16.49
680.592	16.73
681	17
681.408	17.29
681.816	17.61
682.224	17.98
682.632	18.38
683.04	18.78
683.448	19.24
683.856	19.72
684.264	20.25
684.671	20.8
685.079	21.38
685.487	22
685.894	22.63
686.302	23.3
686.709	23.98
687.116	24.69
687.524	25.43
687.931	26.16
688.338	26.92
688.745	27.69
689.152	28.43
689.559	29.2
689.966	29.95
690.373	30.7
690.78	31.42
691.187	32.15
691.593	32.86
692	33.56
692.407	34.22
692.813	34.92
693.22	35.56
693.626	36.2
694.032	36.81
694.439	37.42
694.845	38
695.251	38.59
695.657	39.15
696.063	39.68
696.469	40.22
696.875	40.76
697.281	41.24
697.687	41.74
698.093	42.22
698.498	42.66
698.904	43.08
699.31	43.52
699.715	43.93
700.12	44.3
700.526	44.67
700.931	45.03
701.337	45.35
701.742	45.64
702.147	45.94
702.552	46.26
702.957	46.54
703.362	46.8
703.767	47.03
704.172	47.3
704.577	47.55
704.981	47.83
705.386	48.06
705.791	48.3
706.195	48.55
706.6	48.8
707.004	48.98
707.408	49.21
707.813	49.46
708.217	49.67
708.621	49.89
709.025	50.09
709.43	50.24
709.834	50.44
710.237	50.6
710.641	50.74
711.045	50.9
711.449	51.07
711.853	51.25
712.256	51.36
712.66	51.53
713.064	51.64
713.467	51.79
713.87	51.94
714.274	52.05
714.677	52.22
715.08	52.35
715.484	52.46
715.887	52.61
716.29	52.7
716.693	52.84
717.096	52.93
717.499	53.04
717.901	53.15
718.304	53.25
718.707	53.35
719.109	53.44
719.512	53.54
719.915	53.64
720.317	53.69
720.719	53.75
721.122	53.84
721.524	53.94
721.926	54.01
722.328	54.1
722.731	54.18
723.133	54.26
723.535	54.34
723.937	54.42
724.338	54.45
724.74	54.54
725.142	54.71
725.544	54.74
725.945	54.82
726.347	54.86
726.748	54.86
727.15	54.88
727.551	54.94
727.952	54.94
728.354	54.97
728.755	55.01
729.156	55.04
729.557	54.96
729.958	55.01
730.359	55.02
730.76	55.07
731.161	55.12
731.562	55.16
731.962	55.17
732.363	55.24
732.763	55.26
733.164	55.32
733.564	55.37
733.965	55.39
734.365	55.43
734.766	55.43
735.166	55.46
735.566	55.49
735.966	55.53
736.366	55.56
736.766	55.56
737.166	55.58
737.566	55.59
737.966	55.59
738.365	55.61
738.765	55.63
739.165	55.64
739.564	55.67
739.964	55.69
740.363	55.68
740.763	55.7
741.162	55.71
741.561	55.74
741.96	55.73
742.36	55.75
742.759	55.76
743.158	55.76
743.557	55.76
743.955	55.75
744.354	55.75
744.753	55.78
745.152	55.81
745.55	55.83
745.949	55.85
746.348	55.86
746.746	55.88
747.144	55.91
747.543	55.9
747.941	55.91
748.339	55.9
748.737	55.87
749.136	55.85
749.534	55.78
749.932	55.77
750.33	55.74
750.727	55.75
751.125	55.71
751.523	55.68
751.921	55.69
752.318	55.68
752.716	55.72
753.113	55.73
753.511	55.76
753.908	55.8
754.305	55.82
754.703	55.8
755.1	55.81
755.497	55.81
755.894	55.8
756.291	55.78
756.688	55.78
757.085	55.77
757.482	55.77
757.878	55.76
758.275	55.77
758.672	55.76
759.068	55.81
759.465	55.81
759.861	55.83
760.258	55.86
760.654	55.88
761.05	55.89
761.447	55.9
761.843	55.91
762.239	55.92
762.635	55.91
763.031	55.91
763.427	55.87
763.822	55.87
764.218	55.89
764.614	55.89
765.01	55.89
765.405	55.9
765.801	55.88
766.196	55.87
766.592	55.83
766.987	55.85
767.382	55.83
767.778	55.88
768.173	55.88
768.568	55.85
768.963	55.85
769.358	55.86
769.753	55.85
770.148	55.87
770.542	55.9
770.937	55.91
771.332	55.91
771.726	55.9
772.121	55.86
772.515	55.85
772.91	55.88
