Data from C_2_DEC_ON_6N_Splice17_13-17-29-308.txt Node
Date: Sat Mar 07 13:17:29 EST 2020
User: sa697716
Spectrometer: NQ5500242
Trigger mode: 0
Integration Time (sec): 1.450000E-1
Scans to average: 20
Nonlinearity correction enabled: false
Boxcar width: 5
Storing dark spectrum: false
XAxis mode: Wavelengths
Number of Pixels in Spectrum: 512
>>>>>Begin Spectral Data<<<<<
187.83	162.46
188.298	166.39
188.766	130.66
189.233	121.21
189.701	123.84
190.169	142.79
190.636	135.62
191.104	181.65
191.571	94.98
192.039	-111.88
192.506	-659.27
192.974	197.35
193.441	196.53
193.908	-5.63
194.375	27.51
194.842	-47.49
195.31	-25.42
195.777	-321.37
196.244	27.03
196.711	42.2
197.177	45.41
197.644	46.34
198.111	44.53
198.578	45.36
199.045	45.59
199.511	45.43
199.978	45.87
200.445	46.02
200.911	46.36
201.378	46.01
201.844	45.89
202.31	45.29
202.777	45.23
203.243	45.49
203.709	44.8
204.176	44.75
204.642	44.48
205.108	44.2
205.574	43.85
206.04	43.24
206.506	43.14
206.972	42.96
207.438	42.83
207.903	42.11
208.369	41.09
208.835	40.52
209.301	39.53
209.766	38.54
210.232	37.25
210.697	36.04
211.163	34.87
211.628	33.9
212.094	32.93
212.559	32.2
213.024	31.37
213.49	30.73
213.955	29.86
214.42	29.19
214.885	28.39
215.35	27.34
215.815	26.03
216.28	24.31
216.745	22.39
217.21	20.36
217.675	18.45
218.14	16.87
218.604	15.51
219.069	14.37
219.534	13.35
219.998	12.53
220.463	11.92
220.927	11.3
221.392	10.85
221.856	10.46
222.32	10.16
222.785	9.87
223.249	9.61
223.713	9.38
224.177	9.2
224.642	9.02
225.106	8.82
225.57	8.59
226.034	8.44
226.497	8.27
226.961	8.1
227.425	7.94
227.889	7.79
228.353	7.66
228.816	7.52
229.28	7.37
229.744	7.24
230.207	7.13
230.671	7.02
231.134	6.91
231.597	6.83
232.061	6.72
232.524	6.62
232.987	6.54
233.45	6.45
233.914	6.36
234.377	6.28
234.84	6.2
235.303	6.13
235.766	6.07
236.229	6.01
236.691	5.94
237.154	5.89
237.617	5.84
238.08	5.78
238.542	5.72
239.005	5.67
239.468	5.61
239.93	5.56
240.393	5.52
240.855	5.45
241.317	5.38
241.78	5.33
242.242	5.26
242.704	5.21
243.166	5.16
243.629	5.11
244.091	5.06
244.553	5.01
245.015	4.96
245.477	4.9
245.939	4.86
246.4	4.81
246.862	4.76
247.324	4.72
247.786	4.67
248.247	4.62
248.709	4.56
249.17	4.5
249.632	4.47
250.093	4.43
250.555	4.39
251.016	4.36
251.477	4.32
251.939	4.29
252.4	4.26
252.861	4.22
253.322	4.19
253.783	4.16
254.244	4.15
254.705	4.11
255.166	4.08
255.627	4.05
256.088	4.02
256.549	4
257.009	3.97
257.47	3.94
257.931	3.9
258.391	3.87
258.852	3.84
259.312	3.81
259.773	3.78
260.233	3.76
260.694	3.73
261.154	3.7
261.614	3.68
262.074	3.65
262.534	3.62
262.994	3.59
263.455	3.57
263.915	3.55
264.374	3.52
264.834	3.5
265.294	3.47
265.754	3.46
266.214	3.43
266.673	3.41
267.133	3.4
267.593	3.39
268.052	3.38
268.512	3.36
268.971	3.35
269.431	3.33
269.89	3.32
270.349	3.31
270.809	3.3
271.268	3.29
271.727	3.28
272.186	3.27
272.645	3.26
273.104	3.25
273.563	3.24
274.022	3.24
274.481	3.23
274.94	3.22
275.399	3.21
275.857	3.2
276.316	3.19
276.775	3.18
277.233	3.17
277.692	3.16
278.15	3.16
278.609	3.15
279.067	3.14
279.525	3.14
279.984	3.14
280.442	3.13
280.9	3.13
281.358	3.13
281.816	3.13
282.274	3.13
282.732	3.12
283.19	3.12
283.648	3.11
284.106	3.11
284.564	3.11
285.021	3.1
285.479	3.1
285.937	3.09
286.394	3.09
286.852	3.07
287.309	3.07
287.767	3.05
288.224	3.04
288.682	3.03
289.139	3.01
289.596	3
290.053	2.97
290.511	2.95
290.968	2.94
291.425	2.92
291.882	2.91
292.339	2.89
292.796	2.88
293.252	2.88
293.709	2.87
294.166	2.86
294.623	2.86
295.079	2.85
295.536	2.84
295.992	2.84
296.449	2.83
296.905	2.82
297.362	2.81
297.818	2.8
298.274	2.79
298.731	2.79
299.187	2.78
299.643	2.77
300.099	2.78
300.555	2.77
301.011	2.77
301.467	2.77
301.923	2.76
302.379	2.76
302.835	2.77
303.291	2.77
303.746	2.76
304.202	2.76
304.658	2.76
305.113	2.76
305.569	2.75
306.024	2.76
306.479	2.75
306.935	2.75
307.39	2.75
307.845	2.75
308.301	2.75
308.756	2.75
309.211	2.75
309.666	2.75
310.121	2.75
310.576	2.76
311.031	2.76
311.486	2.77
311.94	2.77
312.395	2.76
312.85	2.77
313.305	2.77
313.759	2.77
314.214	2.77
314.668	2.77
315.123	2.77
315.577	2.77
316.032	2.76
316.486	2.75
316.94	2.74
317.394	2.74
317.849	2.72
318.303	2.71
318.757	2.7
319.211	2.69
319.665	2.67
320.119	2.67
320.572	2.65
321.026	2.65
321.48	2.64
321.934	2.63
322.387	2.63
322.841	2.62
323.295	2.62
323.748	2.62
324.202	2.61
324.655	2.61
325.108	2.61
325.562	2.61
326.015	2.6
326.468	2.61
326.921	2.61
327.374	2.6
327.827	2.61
328.28	2.61
328.733	2.6
329.186	2.6
329.639	2.61
330.092	2.6
330.545	2.6
330.997	2.6
331.45	2.6
331.903	2.61
332.355	2.62
332.808	2.62
333.26	2.61
333.713	2.62
334.165	2.61
334.617	2.61
335.069	2.6
335.522	2.61
335.974	2.61
336.426	2.6
336.878	2.59
337.33	2.59
337.782	2.59
338.234	2.6
338.686	2.6
339.137	2.61
339.589	2.6
340.041	2.6
340.493	2.59
340.944	2.58
341.396	2.57
341.847	2.57
342.299	2.56
342.75	2.54
343.201	2.52
343.653	2.51
344.104	2.49
344.555	2.48
345.006	2.48
345.457	2.47
345.908	2.47
346.359	2.46
346.81	2.46
347.261	2.45
347.712	2.45
348.163	2.45
348.613	2.45
349.064	2.46
349.515	2.46
349.965	2.46
350.416	2.45
350.866	2.45
351.317	2.44
351.767	2.45
352.217	2.45
352.668	2.45
353.118	2.45
353.568	2.44
354.018	2.45
354.468	2.45
354.918	2.46
355.368	2.47
355.818	2.47
356.268	2.48
356.718	2.47
357.168	2.47
357.617	2.46
358.067	2.47
358.517	2.49
358.966	2.5
359.416	2.5
359.865	2.5
360.315	2.5
360.764	2.51
361.213	2.52
361.663	2.52
362.112	2.54
362.561	2.56
363.01	2.56
363.459	2.55
363.908	2.55
364.357	2.55
364.806	2.55
365.255	2.56
365.703	2.57
366.152	2.58
366.601	2.6
367.05	2.61
367.498	2.62
367.947	2.63
368.395	2.65
368.844	2.67
369.292	2.68
369.74	2.7
370.189	2.72
370.637	2.73
371.085	2.73
371.533	2.75
371.981	2.76
372.429	2.78
372.877	2.8
373.325	2.81
373.773	2.82
374.221	2.84
374.669	2.86
375.116	2.87
375.564	2.9
376.012	2.92
376.459	2.93
376.907	2.95
377.354	2.97
377.801	3
378.249	3.03
378.696	3.06
379.143	3.08
379.591	3.11
380.038	3.14
380.485	3.16
380.932	3.19
381.379	3.22
381.826	3.24
382.273	3.26
382.72	3.27
383.166	3.29
383.613	3.3
384.06	3.32
384.506	3.35
384.953	3.37
385.4	3.39
385.846	3.43
386.292	3.44
386.739	3.47
387.185	3.49
387.631	3.53
388.078	3.54
388.524	3.57
388.97	3.6
389.416	3.63
389.862	3.67
390.308	3.69
390.754	3.72
391.2	3.75
391.645	3.77
392.091	3.81
392.537	3.84
392.983	3.86
393.428	3.89
393.874	3.91
394.319	3.92
394.765	3.92
395.21	3.93
395.655	3.94
396.101	3.97
396.546	3.98
396.991	4.01
397.436	4.01
397.881	4.04
398.326	4.05
398.771	4.07
399.216	4.09
399.661	4.11
400.106	4.12
400.551	4.12
400.995	4.11
401.44	4.13
401.885	4.12
402.329	4.13
402.774	4.13
403.218	4.15
403.663	4.15
404.107	4.15
404.551	4.15
404.995	4.16
405.44	4.16
405.884	4.17
406.328	4.17
406.772	4.16
407.216	4.16
407.66	4.17
408.104	4.15
408.547	4.14
408.991	4.15
409.435	4.14
409.879	4.14
410.322	4.15
410.766	4.16
411.209	4.17
411.653	4.19
412.096	4.2
412.54	4.2
412.983	4.22
413.426	4.26
413.869	4.26
414.312	4.28
414.756	4.29
415.199	4.28
415.642	4.27
416.085	4.27
416.527	4.27
416.97	4.25
417.413	4.25
417.856	4.23
418.298	4.2
418.741	4.2
419.184	4.19
419.626	4.19
420.069	4.19
420.511	4.2
420.953	4.2
421.396	4.21
421.838	4.22
422.28	4.22
422.722	4.23
423.164	4.25
423.606	4.25
424.048	4.26
424.49	4.26
424.932	4.26
425.374	4.24
425.816	4.22
426.258	4.2
426.699	4.19
427.141	4.19
427.582	4.2
428.024	4.2
428.465	4.21
428.907	4.2
429.348	4.19
429.789	4.18
430.231	4.2
430.672	4.23
431.113	4.26
431.554	4.27
431.995	4.28
432.436	4.29
432.877	4.3
433.318	4.31
433.759	4.35
434.2	4.38
434.64	4.41
435.081	4.43
435.522	4.44
435.962	4.45
436.403	4.49
436.843	4.51
437.284	4.51
437.724	4.52
438.164	4.52
438.604	4.53
439.045	4.53
439.485	4.54
439.925	4.54
440.365	4.55
440.805	4.57
441.245	4.58
441.685	4.59
442.125	4.63
442.564	4.64
443.004	4.66
443.444	4.67
443.883	4.69
444.323	4.7
444.762	4.72
445.202	4.75
445.641	4.77
446.081	4.78
446.52	4.78
446.959	4.8
447.398	4.82
447.837	4.84
448.276	4.86
448.716	4.88
449.154	4.91
449.593	4.92
450.032	4.93
450.471	4.94
450.91	4.95
451.349	4.97
451.787	4.97
452.226	4.98
452.664	4.97
453.103	4.97
453.541	4.97
453.98	4.98
454.418	4.96
454.856	4.96
455.295	4.97
455.733	4.95
456.171	4.94
456.609	4.93
457.047	4.92
457.485	4.92
457.923	4.91
458.361	4.91
458.798	4.9
459.236	4.9
459.674	4.89
460.111	4.88
460.549	4.9
460.987	4.9
461.424	4.92
461.862	4.93
462.299	4.93
462.736	4.93
463.173	4.93
463.611	4.94
464.048	4.96
464.485	4.97
464.922	4.96
465.359	4.96
465.796	4.97
466.233	4.97
466.67	4.97
467.106	4.99
467.543	4.99
467.98	4.98
468.416	4.97
468.853	4.96
469.29	4.94
469.726	4.96
470.162	4.94
470.599	4.93
471.035	4.92
471.471	4.92
471.907	4.9
472.344	4.9
472.78	4.9
473.216	4.9
473.652	4.9
474.088	4.9
474.523	4.9
474.959	4.89
475.395	4.89
475.831	4.88
476.266	4.89
476.702	4.87
477.138	4.86
477.573	4.86
478.008	4.86
478.444	4.85
478.879	4.86
479.314	4.85
479.75	4.84
480.185	4.83
480.62	4.82
481.055	4.8
481.49	4.82
481.925	4.82
482.36	4.82
482.795	4.82
483.229	4.83
483.664	4.83
484.099	4.83
484.534	4.84
484.968	4.86
485.403	4.86
485.837	4.88
486.271	4.91
486.706	4.92
487.14	4.93
487.574	4.95
488.009	4.97
488.443	4.99
488.877	5.03
489.311	5.07
489.745	5.1
490.179	5.15
490.613	5.19
491.046	5.22
491.48	5.26
491.914	5.31
492.348	5.36
492.781	5.42
493.215	5.47
493.648	5.53
494.082	5.59
494.515	5.65
494.948	5.72
495.382	5.78
495.815	5.85
496.248	5.94
496.681	6.03
497.114	6.1
497.547	6.18
497.98	6.28
498.413	6.37
498.846	6.47
499.279	6.57
499.711	6.67
500.144	6.8
500.577	6.91
501.009	7.02
501.442	7.14
501.874	7.28
502.306	7.42
502.739	7.56
503.171	7.72
503.603	7.86
504.036	8.01
504.468	8.18
504.9	8.33
505.332	8.51
505.764	8.7
506.196	8.88
506.627	9.07
507.059	9.27
507.491	9.47
507.923	9.67
508.354	9.91
508.786	10.14
509.217	10.37
509.649	10.61
510.08	10.85
510.512	11.09
510.943	11.33
511.374	11.59
511.805	11.85
512.237	12.11
512.668	12.38
513.099	12.65
513.53	12.92
513.961	13.21
514.391	13.5
514.822	13.79
515.253	14.08
515.684	14.37
516.114	14.66
516.545	14.96
516.975	15.26
517.406	15.55
517.836	15.83
518.267	16.13
518.697	16.4
519.127	16.68
519.558	16.96
519.988	17.24
520.418	17.52
520.848	17.8
521.278	18.06
521.708	18.39
522.138	18.65
522.567	18.91
522.997	19.15
523.427	19.4
523.857	19.65
524.286	19.87
524.716	20.1
525.145	20.33
525.575	20.53
526.004	20.76
526.433	20.9
526.863	21.09
527.292	21.29
527.721	21.48
528.15	21.65
528.579	21.81
529.008	21.98
529.437	22.12
529.866	22.25
530.295	22.39
530.724	22.51
531.152	22.64
531.581	22.75
532.01	22.87
532.438	22.98
532.867	23.09
533.295	23.2
533.723	23.3
534.152	23.37
534.58	23.47
535.008	23.54
535.436	23.63
535.865	23.69
536.293	23.76
536.721	23.82
537.149	23.88
537.576	23.93
538.004	23.99
538.432	24.04
538.86	24.09
539.287	24.12
539.715	24.18
540.143	24.21
540.57	24.24
540.998	24.28
541.425	24.3
541.852	24.35
542.28	24.37
542.707	24.39
543.134	24.42
543.561	24.45
543.988	24.49
544.415	24.5
544.842	24.52
545.269	24.55
545.696	24.57
546.123	24.6
546.549	24.62
546.976	24.65
547.403	24.68
547.829	24.7
548.256	24.71
548.682	24.71
549.108	24.74
549.535	24.77
549.961	24.78
550.387	24.78
550.813	24.78
551.24	24.78
551.666	24.75
552.092	24.74
552.518	24.74
552.943	24.72
553.369	24.71
553.795	24.67
554.221	24.66
554.646	24.6
555.072	24.57
555.498	24.53
555.923	24.49
556.349	24.44
556.774	24.38
557.199	24.3
557.625	24.24
558.05	24.16
558.475	24.08
558.9	23.98
559.325	23.91
559.75	23.82
560.175	23.72
560.6	23.61
561.025	23.52
561.449	23.41
561.874	23.29
562.299	23.15
562.723	23.02
563.148	22.89
563.572	22.76
563.997	22.61
564.421	22.45
564.846	22.3
565.27	22.14
565.694	22
566.118	21.85
566.542	21.69
566.966	21.54
567.39	21.4
567.814	21.25
568.238	21.1
568.662	20.95
569.086	20.81
569.509	20.66
569.933	20.52
570.357	20.35
570.78	20.19
571.204	20.05
571.627	19.92
572.05	19.76
572.474	19.64
572.897	19.51
573.32	19.39
573.743	19.26
574.166	19.15
574.589	19.02
575.012	18.92
575.435	18.82
575.858	18.71
576.281	18.6
576.704	18.5
577.126	18.4
577.549	18.3
577.972	18.19
578.394	18.1
578.817	18.01
579.239	17.93
579.661	17.84
580.084	17.76
580.506	17.69
580.928	17.62
581.35	17.53
581.772	17.44
582.194	17.36
582.616	17.29
583.038	17.22
583.46	17.13
583.882	17.04
584.303	16.96
584.725	16.89
585.147	16.82
585.568	16.75
585.99	16.69
586.411	16.61
586.833	16.54
587.254	16.47
587.675	16.4
588.096	16.34
588.518	16.28
588.939	16.22
589.36	16.15
589.781	16.08
590.202	16.02
590.623	15.96
591.043	15.91
591.464	15.87
591.885	15.82
592.305	15.78
592.726	15.76
593.147	15.71
593.567	15.67
593.987	15.63
594.408	15.59
594.828	15.54
595.248	15.5
595.669	15.46
596.089	15.41
596.509	15.37
596.929	15.33
597.349	15.27
597.769	15.23
598.189	15.19
598.608	15.15
599.028	15.12
599.448	15.07
599.867	15.03
600.287	14.99
600.706	14.95
601.126	14.9
601.545	14.86
601.965	14.82
602.384	14.78
602.803	14.73
603.222	14.68
603.641	14.63
604.061	14.59
604.48	14.54
604.898	14.49
605.317	14.45
605.736	14.41
606.155	14.35
606.574	14.27
606.992	14.22
607.411	14.17
607.829	14.09
608.248	14.02
608.666	13.95
609.085	13.9
609.503	13.84
609.921	13.76
610.339	13.69
610.758	13.63
611.176	13.58
611.594	13.52
612.012	13.45
612.43	13.4
612.847	13.35
613.265	13.28
613.683	13.22
614.101	13.15
614.518	13.08
614.936	13.02
615.353	12.95
615.771	12.88
616.188	12.82
616.606	12.78
617.023	12.73
617.44	12.67
617.857	12.64
618.274	12.59
618.691	12.54
619.108	12.5
619.525	12.45
619.942	12.42
620.359	12.4
620.776	12.36
621.192	12.33
621.609	12.31
622.026	12.28
622.442	12.25
622.859	12.24
623.275	12.22
623.691	12.2
624.108	12.2
624.524	12.19
624.94	12.18
625.356	12.16
625.772	12.16
626.188	12.15
626.604	12.14
627.02	12.12
627.436	12.11
627.852	12.1
628.268	12.09
628.683	12.07
629.099	12.04
629.514	12.02
629.93	12.01
630.345	11.99
630.761	11.94
631.176	11.91
631.591	11.86
632.007	11.82
632.422	11.76
632.837	11.7
633.252	11.63
633.667	11.56
634.082	11.46
634.497	11.37
634.911	11.26
635.326	11.17
635.741	11.06
636.155	10.94
636.57	10.82
636.984	10.7
637.399	10.57
637.813	10.43
638.228	10.29
638.642	10.15
639.056	9.99
639.47	9.85
639.884	9.7
640.298	9.55
640.712	9.41
641.126	9.26
641.54	9.1
641.954	8.95
642.368	8.82
642.781	8.7
643.195	8.57
643.609	8.46
644.022	8.34
644.436	8.23
644.849	8.12
645.262	8.02
645.676	7.92
646.089	7.84
646.502	7.78
646.915	7.7
647.328	7.63
647.741	7.57
648.154	7.52
648.567	7.47
648.98	7.43
649.393	7.4
649.805	7.37
650.218	7.35
650.631	7.33
651.043	7.29
651.456	7.27
651.868	7.23
652.28	7.21
652.693	7.18
653.105	7.16
653.517	7.14
653.929	7.11
654.341	7.07
654.753	7.03
655.165	6.99
655.577	6.96
655.989	6.92
656.401	6.88
656.813	6.83
657.224	6.76
657.636	6.7
658.047	6.64
658.459	6.58
658.87	6.52
659.282	6.45
659.693	6.39
660.104	6.31
660.515	6.25
660.926	6.18
661.338	6.11
661.749	6.06
662.159	6
662.57	5.94
662.981	5.88
663.392	5.84
663.803	5.79
664.213	5.73
664.624	5.69
665.035	5.64
665.445	5.61
665.855	5.57
666.266	5.53
666.676	5.52
667.086	5.48
667.497	5.46
667.907	5.44
668.317	5.43
668.727	5.42
669.137	5.41
669.547	5.41
669.956	5.4
670.366	5.4
670.776	5.39
671.186	5.39
671.595	5.4
672.005	5.41
672.414	5.42
672.824	5.43
673.233	5.46
673.642	5.48
674.052	5.52
674.461	5.54
674.87	5.58
675.279	5.62
675.688	5.67
676.097	5.71
676.506	5.75
676.915	5.8
677.323	5.85
677.732	5.9
678.141	5.96
678.549	6.02
678.958	6.09
679.366	6.18
679.775	6.25
680.183	6.34
680.592	6.44
681	6.56
681.408	6.69
681.816	6.83
682.224	6.97
682.632	7.13
683.04	7.29
683.448	7.47
683.856	7.67
684.264	7.9
684.671	8.14
685.079	8.39
685.487	8.67
685.894	8.98
686.302	9.31
686.709	9.68
687.116	10.07
687.524	10.49
687.931	10.93
688.338	11.41
688.745	11.89
689.152	12.42
689.559	12.97
689.966	13.53
690.373	14.11
690.78	14.71
691.187	15.31
691.593	15.93
692	16.57
692.407	17.2
692.813	17.83
693.22	18.48
693.626	19.15
694.032	19.81
694.439	20.45
694.845	21.1
695.251	21.76
695.657	22.4
696.063	23.06
696.469	23.71
696.875	24.38
697.281	25.03
697.687	25.66
698.093	26.27
698.498	26.87
698.904	27.49
699.31	28.07
699.715	28.65
700.12	29.23
700.526	29.78
700.931	30.32
701.337	30.84
701.742	31.35
702.147	31.87
702.552	32.38
702.957	32.84
703.362	33.32
703.767	33.8
704.172	34.25
704.577	34.69
704.981	35.14
705.386	35.58
705.791	35.99
706.195	36.4
706.6	36.79
707.004	37.18
707.408	37.58
707.813	37.96
708.217	38.32
708.621	38.7
709.025	39.04
709.43	39.36
709.834	39.7
710.237	40.04
710.641	40.4
711.045	40.73
711.449	41.06
711.853	41.4
712.256	41.7
712.66	42
713.064	42.31
713.467	42.63
713.87	42.91
714.274	43.17
714.677	43.46
715.08	43.71
715.484	43.98
715.887	44.25
716.29	44.48
716.693	44.73
717.096	44.98
717.499	45.2
717.901	45.41
718.304	45.65
718.707	45.88
719.109	46.09
719.512	46.31
719.915	46.51
720.317	46.67
720.719	46.84
721.122	47.02
721.524	47.2
721.926	47.38
722.328	47.56
722.731	47.72
723.133	47.89
723.535	48.04
723.937	48.2
724.338	48.32
724.74	48.48
725.142	48.75
725.544	48.89
725.945	49.06
726.347	49.18
726.748	49.29
727.15	49.38
727.551	49.51
727.952	49.62
728.354	49.74
728.755	49.85
729.156	49.93
729.557	49.93
729.958	50
730.359	50.11
730.76	50.21
731.161	50.3
731.562	50.41
731.962	50.46
732.363	50.54
732.763	50.59
733.164	50.67
733.564	50.77
733.965	50.82
734.365	50.9
734.766	50.92
735.166	50.96
735.566	51
735.966	51.07
736.366	51.1
736.766	51.13
737.166	51.19
737.566	51.25
737.966	51.28
738.365	51.34
738.765	51.38
739.165	51.43
739.564	51.48
739.964	51.55
740.363	51.55
740.763	51.62
741.162	51.66
741.561	51.66
741.96	51.65
742.36	51.68
742.759	51.71
743.158	51.74
743.557	51.74
743.955	51.76
744.354	51.77
744.753	51.83
745.152	51.85
745.55	51.87
745.949	51.91
746.348	51.95
746.746	51.95
747.144	51.96
747.543	51.93
747.941	51.95
748.339	51.92
748.737	51.92
749.136	51.9
749.534	51.88
749.932	51.86
750.33	51.84
750.727	51.82
751.125	51.83
751.523	51.82
751.921	51.84
752.318	51.83
752.716	51.85
753.113	51.88
753.511	51.89
753.908	51.93
754.305	51.97
754.703	51.97
755.1	51.99
755.497	51.99
755.894	51.98
756.291	51.98
756.688	51.99
757.085	51.99
757.482	51.98
757.878	51.98
758.275	51.95
758.672	51.93
759.068	51.95
759.465	51.95
759.861	51.95
760.258	51.97
760.654	51.98
761.05	51.99
761.447	51.99
761.843	51.99
762.239	51.98
762.635	51.95
763.031	51.94
763.427	51.91
763.822	51.91
764.218	51.93
764.614	51.94
765.01	51.9
765.405	51.88
765.801	51.86
766.196	51.87
766.592	51.84
766.987	51.86
767.382	51.85
767.778	51.87
768.173	51.84
768.568	51.82
768.963	51.81
769.358	51.84
769.753	51.83
770.148	51.82
770.542	51.78
770.937	51.8
771.332	51.81
771.726	51.82
772.121	51.79
772.515	51.79
772.91	51.78
773.304	51.77
773.699	51.77
774.093	51.77
774.487	51.76
774.881	51.79
775.275	51.76
775.669	51.73
776.063	51.72
776.457	51.75
776.851	51.75
777.245	51.72
777.638	51.69
778.032	51.69
778.425	51.69
778.819	51.71
779.212	51.71
779.606	51.73
779.999	51.73
780.392	51.76
780.786	51.74
781.179	51.74
781.572	51.78
781.965	51.79
782.358	51.81
782.751	51.8
