Data from C_2_DIV_PA_2N_Splice17_13-43-14-917.txt Node
Date: Sat Mar 07 13:43:14 EST 2020
User: sa697716
Spectrometer: NQ5500242
Trigger mode: 0
Integration Time (sec): 1.450000E-1
Scans to average: 20
Nonlinearity correction enabled: false
Boxcar width: 5
Storing dark spectrum: false
XAxis mode: Wavelengths
Number of Pixels in Spectrum: 512
>>>>>Begin Spectral Data<<<<<
187.83	230.65
188.298	242.73
188.766	231.6
189.233	191.65
189.701	193.39
190.169	237.45
190.636	257.61
191.104	431.86
191.571	342.46
192.039	214.5
192.506	114.92
192.974	-104.14
193.441	-224.56
193.908	-152.89
194.375	-25.6
194.842	-23.56
195.31	72.68
195.777	227.71
196.244	96.85
196.711	75.45
197.177	77.8
197.644	74.97
198.111	75.13
198.578	75.25
199.045	75.92
199.511	74.86
199.978	74.16
200.445	74.15
200.911	74.02
201.378	73.74
201.844	73.54
202.31	72.93
202.777	73.14
203.243	72.54
203.709	71.7
204.176	70.85
204.642	70.48
205.108	69.97
205.574	69.01
206.04	67.95
206.506	67.37
206.972	66.97
207.438	66.19
207.903	65.14
208.369	63.85
208.835	63.1
209.301	61.92
209.766	60.11
210.232	58.5
210.697	56.93
211.163	55.53
211.628	54.01
212.094	52.57
212.559	51.36
213.024	49.99
213.49	49.08
213.955	47.79
214.42	46.29
214.885	44.91
215.35	43.25
215.815	41.24
216.28	38.45
216.745	35.33
217.21	32.2
217.675	29.24
218.14	26.78
218.604	24.67
219.069	22.91
219.534	21.51
219.998	20.33
220.463	19.37
220.927	18.47
221.392	17.77
221.856	17.24
222.32	16.78
222.785	16.42
223.249	16.06
223.713	15.71
224.177	15.41
224.642	15.13
225.106	14.83
225.57	14.55
226.034	14.31
226.497	14.11
226.961	13.89
227.425	13.69
227.889	13.49
228.353	13.29
228.816	13.09
229.28	12.89
229.744	12.71
230.207	12.54
230.671	12.4
231.134	12.24
231.597	12.11
232.061	11.98
232.524	11.83
232.987	11.7
233.45	11.58
233.914	11.48
234.377	11.36
234.84	11.25
235.303	11.17
235.766	11.06
236.229	10.95
236.691	10.85
237.154	10.76
237.617	10.69
238.08	10.59
238.542	10.5
239.005	10.41
239.468	10.34
239.93	10.26
240.393	10.17
240.855	10.07
241.317	9.98
241.78	9.89
242.242	9.78
242.704	9.69
243.166	9.6
243.629	9.54
244.091	9.44
244.553	9.35
245.015	9.27
245.477	9.18
245.939	9.11
246.4	9.02
246.862	8.95
247.324	8.89
247.786	8.81
248.247	8.73
248.709	8.63
249.17	8.56
249.632	8.5
250.093	8.44
250.555	8.38
251.016	8.32
251.477	8.25
251.939	8.2
252.4	8.14
252.861	8.09
253.322	8.05
253.783	8.01
254.244	7.98
254.705	7.92
255.166	7.87
255.627	7.83
256.088	7.79
256.549	7.75
257.009	7.68
257.47	7.63
257.931	7.57
258.391	7.51
258.852	7.45
259.312	7.4
259.773	7.35
260.233	7.33
260.694	7.28
261.154	7.23
261.614	7.18
262.074	7.15
262.534	7.11
262.994	7.08
263.455	7.06
263.915	7.04
264.374	7.01
264.834	6.98
265.294	6.95
265.754	6.93
266.214	6.92
266.673	6.9
267.133	6.89
267.593	6.88
268.052	6.87
268.512	6.86
268.971	6.85
269.431	6.84
269.89	6.83
270.349	6.82
270.809	6.81
271.268	6.8
271.727	6.79
272.186	6.78
272.645	6.78
273.104	6.76
273.563	6.75
274.022	6.74
274.481	6.74
274.94	6.73
275.399	6.72
275.857	6.71
276.316	6.7
276.775	6.69
277.233	6.68
277.692	6.67
278.15	6.67
278.609	6.67
279.067	6.67
279.525	6.66
279.984	6.65
280.442	6.65
280.9	6.65
281.358	6.66
281.816	6.65
282.274	6.64
282.732	6.64
283.19	6.63
283.648	6.61
284.106	6.6
284.564	6.58
285.021	6.58
285.479	6.56
285.937	6.55
286.394	6.54
286.852	6.53
287.309	6.52
287.767	6.5
288.224	6.48
288.682	6.45
289.139	6.43
289.596	6.41
290.053	6.38
290.511	6.36
290.968	6.34
291.425	6.31
291.882	6.29
292.339	6.27
292.796	6.26
293.252	6.25
293.709	6.24
294.166	6.23
294.623	6.22
295.079	6.21
295.536	6.2
295.992	6.19
296.449	6.18
296.905	6.17
297.362	6.16
297.818	6.15
298.274	6.15
298.731	6.13
299.187	6.12
299.643	6.1
300.099	6.09
300.555	6.08
301.011	6.07
301.467	6.07
301.923	6.05
302.379	6.05
302.835	6.05
303.291	6.05
303.746	6.05
304.202	6.05
304.658	6.05
305.113	6.05
305.569	6.05
306.024	6.04
306.479	6.03
306.935	6.02
307.39	6.02
307.845	6.01
308.301	6.01
308.756	6
309.211	5.99
309.666	6
310.121	6
310.576	5.98
311.031	5.99
311.486	5.99
311.94	5.99
312.395	5.99
312.85	5.98
313.305	5.98
313.759	5.99
314.214	5.99
314.668	5.98
315.123	5.98
315.577	5.98
316.032	5.96
316.486	5.95
316.94	5.94
317.394	5.93
317.849	5.91
318.303	5.89
318.757	5.86
319.211	5.85
319.665	5.82
320.119	5.8
320.572	5.79
321.026	5.79
321.48	5.77
321.934	5.76
322.387	5.74
322.841	5.73
323.295	5.73
323.748	5.73
324.202	5.72
324.655	5.73
325.108	5.74
325.562	5.74
326.015	5.73
326.468	5.73
326.921	5.73
327.374	5.73
327.827	5.74
328.28	5.74
328.733	5.75
329.186	5.74
329.639	5.74
330.092	5.73
330.545	5.72
330.997	5.73
331.45	5.74
331.903	5.74
332.355	5.75
332.808	5.75
333.26	5.75
333.713	5.75
334.165	5.76
334.617	5.76
335.069	5.75
335.522	5.76
335.974	5.77
336.426	5.76
336.878	5.76
337.33	5.75
337.782	5.74
338.234	5.74
338.686	5.74
339.137	5.74
339.589	5.73
340.041	5.72
340.493	5.7
340.944	5.68
341.396	5.66
341.847	5.65
342.299	5.63
342.75	5.62
343.201	5.59
343.653	5.58
344.104	5.54
344.555	5.53
345.006	5.51
345.457	5.51
345.908	5.49
346.359	5.5
346.81	5.48
347.261	5.47
347.712	5.46
348.163	5.46
348.613	5.47
349.064	5.47
349.515	5.47
349.965	5.47
350.416	5.46
350.866	5.46
351.317	5.45
351.767	5.46
352.217	5.46
352.668	5.46
353.118	5.47
353.568	5.47
354.018	5.48
354.468	5.49
354.918	5.49
355.368	5.5
355.818	5.51
356.268	5.52
356.718	5.54
357.168	5.54
357.617	5.54
358.067	5.53
358.517	5.54
358.966	5.54
359.416	5.55
359.865	5.55
360.315	5.55
360.764	5.55
361.213	5.55
361.663	5.52
362.112	5.53
362.561	5.54
363.01	5.55
363.459	5.54
363.908	5.53
364.357	5.53
364.806	5.52
365.255	5.52
365.703	5.53
366.152	5.54
366.601	5.57
367.05	5.57
367.498	5.56
367.947	5.56
368.395	5.57
368.844	5.57
369.292	5.57
369.74	5.59
370.189	5.59
370.637	5.58
371.085	5.58
371.533	5.57
371.981	5.57
372.429	5.59
372.877	5.6
373.325	5.6
373.773	5.6
374.221	5.6
374.669	5.59
375.116	5.6
375.564	5.61
376.012	5.61
376.459	5.62
376.907	5.63
377.354	5.63
377.801	5.65
378.249	5.66
378.696	5.68
379.143	5.69
379.591	5.71
380.038	5.72
380.485	5.73
380.932	5.75
381.379	5.76
381.826	5.77
382.273	5.78
382.72	5.77
383.166	5.78
383.613	5.79
384.06	5.79
384.506	5.81
384.953	5.82
385.4	5.84
385.846	5.87
386.292	5.88
386.739	5.89
387.185	5.9
387.631	5.93
388.078	5.94
388.524	5.96
388.97	5.98
389.416	6
389.862	6.03
390.308	6.05
390.754	6.07
391.2	6.1
391.645	6.12
392.091	6.16
392.537	6.19
392.983	6.21
393.428	6.24
393.874	6.25
394.319	6.26
394.765	6.27
395.21	6.27
395.655	6.28
396.101	6.3
396.546	6.32
396.991	6.33
397.436	6.34
397.881	6.38
398.326	6.4
398.771	6.44
399.216	6.46
399.661	6.48
400.106	6.5
400.551	6.52
400.995	6.52
401.44	6.53
401.885	6.54
402.329	6.56
402.774	6.57
403.218	6.61
403.663	6.63
404.107	6.65
404.551	6.66
404.995	6.67
405.44	6.69
405.884	6.72
406.328	6.73
406.772	6.73
407.216	6.73
407.66	6.74
408.104	6.72
408.547	6.71
408.991	6.73
409.435	6.74
409.879	6.76
410.322	6.79
410.766	6.81
411.209	6.84
411.653	6.88
412.096	6.9
412.54	6.92
412.983	6.94
413.426	6.98
413.869	6.99
414.312	7.02
414.756	7.04
415.199	7.03
415.642	7.02
416.085	7.01
416.527	6.98
416.97	6.97
417.413	6.97
417.856	6.96
418.298	6.95
418.741	6.95
419.184	6.94
419.626	6.93
420.069	6.95
420.511	6.95
420.953	6.97
421.396	7
421.838	7.02
422.28	7.04
422.722	7.05
423.164	7.05
423.606	7.05
424.048	7.06
424.49	7.07
424.932	7.06
425.374	7.03
425.816	7
426.258	6.98
426.699	6.98
427.141	6.98
427.582	6.99
428.024	7.01
428.465	7.01
428.907	6.99
429.348	6.97
429.789	6.98
430.231	7.02
430.672	7.07
431.113	7.1
431.554	7.1
431.995	7.11
432.436	7.12
432.877	7.13
433.318	7.16
433.759	7.21
434.2	7.24
434.64	7.27
435.081	7.28
435.522	7.28
435.962	7.28
436.403	7.31
436.843	7.33
437.284	7.31
437.724	7.3
438.164	7.27
438.604	7.27
439.045	7.27
439.485	7.28
439.925	7.26
440.365	7.24
440.805	7.23
441.245	7.24
441.685	7.25
442.125	7.26
442.564	7.26
443.004	7.27
443.444	7.28
443.883	7.28
444.323	7.26
444.762	7.26
445.202	7.28
445.641	7.28
446.081	7.27
446.52	7.25
446.959	7.26
447.398	7.27
447.837	7.27
448.276	7.26
448.716	7.26
449.154	7.26
449.593	7.26
450.032	7.24
450.471	7.21
450.91	7.2
451.349	7.2
451.787	7.16
452.226	7.14
452.664	7.13
453.103	7.11
453.541	7.09
453.98	7.08
454.418	7.06
454.856	7.05
455.295	7.05
455.733	7.02
456.171	7
456.609	7
457.047	6.98
457.485	6.97
457.923	6.96
458.361	6.94
458.798	6.93
459.236	6.93
459.674	6.92
460.111	6.92
460.549	6.94
460.987	6.94
461.424	6.94
461.862	6.96
462.299	6.96
462.736	6.96
463.173	6.98
463.611	6.99
464.048	6.99
464.485	7
464.922	6.99
465.359	6.98
465.796	7.02
466.233	7.02
466.67	7.04
467.106	7.05
467.543	7.03
467.98	7.02
468.416	7
468.853	7
469.29	6.98
469.726	6.99
470.162	6.97
470.599	6.92
471.035	6.89
471.471	6.86
471.907	6.83
472.344	6.82
472.78	6.81
473.216	6.79
473.652	6.78
474.088	6.75
474.523	6.73
474.959	6.71
475.395	6.68
475.831	6.68
476.266	6.67
476.702	6.65
477.138	6.64
477.573	6.62
478.008	6.61
478.444	6.59
478.879	6.59
479.314	6.58
479.75	6.57
480.185	6.55
480.62	6.52
481.055	6.5
481.49	6.49
481.925	6.48
482.36	6.47
482.795	6.45
483.229	6.44
483.664	6.42
484.099	6.4
484.534	6.39
484.968	6.4
485.403	6.39
485.837	6.38
486.271	6.38
486.706	6.37
487.14	6.36
487.574	6.36
488.009	6.36
488.443	6.36
488.877	6.36
489.311	6.37
489.745	6.37
490.179	6.39
490.613	6.4
491.046	6.39
491.48	6.4
491.914	6.4
492.348	6.42
492.781	6.43
493.215	6.45
493.648	6.45
494.082	6.46
494.515	6.47
494.948	6.47
495.382	6.47
495.815	6.49
496.248	6.5
496.681	6.52
497.114	6.52
497.547	6.54
497.98	6.54
498.413	6.56
498.846	6.57
499.279	6.59
499.711	6.6
500.144	6.62
500.577	6.64
501.009	6.66
501.442	6.68
501.874	6.71
502.306	6.73
502.739	6.77
503.171	6.8
503.603	6.83
504.036	6.87
504.468	6.9
504.9	6.94
505.332	6.97
505.764	7.02
506.196	7.05
506.627	7.1
507.059	7.16
507.491	7.19
507.923	7.23
508.354	7.3
508.786	7.37
509.217	7.43
509.649	7.51
510.08	7.58
510.512	7.65
510.943	7.73
511.374	7.82
511.805	7.9
512.237	7.99
512.668	8.08
513.099	8.16
513.53	8.25
513.961	8.35
514.391	8.45
514.822	8.57
515.253	8.68
515.684	8.79
516.114	8.91
516.545	9.03
516.975	9.17
517.406	9.3
517.836	9.42
518.267	9.57
518.697	9.7
519.127	9.83
519.558	9.95
519.988	10.09
520.418	10.22
520.848	10.35
521.278	10.5
521.708	10.88
522.138	11.03
522.567	11.17
522.997	11.3
523.427	11.44
523.857	11.57
524.286	11.7
524.716	11.83
525.145	11.96
525.575	12.09
526.004	12.23
526.433	12.1
526.863	12.21
527.292	12.34
527.721	12.45
528.15	12.56
528.579	12.66
529.008	12.76
529.437	12.85
529.866	12.93
530.295	13.01
530.724	13.09
531.152	13.18
531.581	13.25
532.01	13.32
532.438	13.39
532.867	13.45
533.295	13.52
533.723	13.59
534.152	13.64
534.58	13.69
535.008	13.75
535.436	13.8
535.865	13.83
536.293	13.87
536.721	13.91
537.149	13.94
537.576	13.97
538.004	14.01
538.432	14.04
538.86	14.08
539.287	14.1
539.715	14.14
540.143	14.14
540.57	14.18
540.998	14.21
541.425	14.24
541.852	14.26
542.28	14.29
542.707	14.31
543.134	14.33
543.561	14.35
543.988	14.37
544.415	14.38
544.842	14.41
545.269	14.44
545.696	14.45
546.123	14.47
546.549	14.49
546.976	14.52
547.403	14.53
547.829	14.56
548.256	14.59
548.682	14.6
549.108	14.62
549.535	14.63
549.961	14.62
550.387	14.64
550.813	14.64
551.24	14.64
551.666	14.64
552.092	14.63
552.518	14.63
552.943	14.6
553.369	14.59
553.795	14.56
554.221	14.54
554.646	14.51
555.072	14.48
555.498	14.43
555.923	14.39
556.349	14.34
556.774	14.28
557.199	14.23
557.625	14.18
558.05	14.13
558.475	14.08
558.9	14.03
559.325	13.99
559.75	13.93
560.175	13.86
560.6	13.79
561.025	13.72
561.449	13.65
561.874	13.56
562.299	13.47
562.723	13.38
563.148	13.29
563.572	13.19
563.997	13.08
564.421	12.96
564.846	12.86
565.27	12.75
565.694	12.65
566.118	12.55
566.542	12.45
566.966	12.34
567.39	12.24
567.814	12.14
568.238	12.03
568.662	11.93
569.086	11.85
569.509	11.76
569.933	11.69
570.357	11.59
570.78	11.5
571.204	11.42
571.627	11.34
572.05	11.25
572.474	11.18
572.897	11.12
573.32	11.04
573.743	10.95
574.166	10.89
574.589	10.81
575.012	10.74
575.435	10.69
575.858	10.63
576.281	10.56
576.704	10.51
577.126	10.45
577.549	10.4
577.972	10.34
578.394	10.28
578.817	10.25
579.239	10.19
579.661	10.16
580.084	10.11
580.506	10.07
580.928	10.03
581.35	9.99
581.772	9.94
582.194	9.9
582.616	9.87
583.038	9.83
583.46	9.77
583.882	9.73
584.303	9.68
584.725	9.64
585.147	9.63
585.568	9.6
585.99	9.57
586.411	9.54
586.833	9.51
587.254	9.48
587.675	9.46
588.096	9.43
588.518	9.41
588.939	9.39
589.36	9.36
589.781	9.3
590.202	9.29
590.623	9.25
591.043	9.23
591.464	9.2
591.885	9.17
592.305	9.14
592.726	9.14
593.147	9.12
593.567	9.1
593.987	9.08
594.408	9.06
594.828	9.02
595.248	9.02
595.669	9.01
596.089	8.98
596.509	8.97
596.929	8.96
597.349	8.92
597.769	8.9
598.189	8.87
598.608	8.85
599.028	8.84
599.448	8.83
599.867	8.79
600.287	8.76
600.706	8.75
601.126	8.72
601.545	8.71
601.965	8.69
602.384	8.68
602.803	8.65
603.222	8.63
603.641	8.6
604.061	8.58
604.48	8.56
604.898	8.54
605.317	8.5
605.736	8.48
606.155	8.44
606.574	8.41
606.992	8.37
607.411	8.34
607.829	8.28
608.248	8.23
608.666	8.19
609.085	8.15
609.503	8.12
609.921	8.09
610.339	8.06
610.758	8.03
611.176	7.99
611.594	7.95
612.012	7.92
612.43	7.91
612.847	7.88
613.265	7.86
613.683	7.84
614.101	7.81
614.518	7.77
614.936	7.74
615.353	7.7
615.771	7.69
616.188	7.66
616.606	7.64
617.023	7.62
617.44	7.61
617.857	7.59
618.274	7.55
618.691	7.53
619.108	7.51
619.525	7.49
619.942	7.49
620.359	7.47
620.776	7.47
621.192	7.46
621.609	7.44
622.026	7.43
622.442	7.43
622.859	7.43
623.275	7.42
623.691	7.41
624.108	7.4
624.524	7.39
624.94	7.38
625.356	7.37
625.772	7.34
626.188	7.34
626.604	7.34
627.02	7.33
627.436	7.33
627.852	7.33
628.268	7.33
628.683	7.33
629.099	7.34
629.514	7.34
629.93	7.34
630.345	7.34
630.761	7.31
631.176	7.31
631.591	7.3
632.007	7.28
632.422	7.28
632.837	7.27
633.252	7.25
633.667	7.23
634.082	7.2
634.497	7.19
634.911	7.18
635.326	7.17
635.741	7.15
636.155	7.12
636.57	7.11
636.984	7.08
637.399	7.06
637.813	7.04
638.228	7
638.642	6.98
639.056	6.94
639.47	6.91
639.884	6.89
640.298	6.86
640.712	6.84
641.126	6.82
641.54	6.78
641.954	6.75
642.368	6.72
642.781	6.71
643.195	6.68
643.609	6.67
644.022	6.65
644.436	6.63
644.849	6.6
645.262	6.57
645.676	6.54
646.089	6.52
646.502	6.51
646.915	6.51
647.328	6.48
647.741	6.47
648.154	6.45
648.567	6.44
648.98	6.43
649.393	6.42
649.805	6.42
650.218	6.41
650.631	6.4
651.043	6.38
651.456	6.36
651.868	6.35
652.28	6.34
652.693	6.33
653.105	6.31
653.517	6.29
653.929	6.28
654.341	6.27
654.753	6.26
655.165	6.24
655.577	6.24
655.989	6.22
656.401	6.22
656.813	6.22
657.224	6.2
657.636	6.18
658.047	6.18
658.459	6.16
658.87	6.15
659.282	6.13
659.693	6.13
660.104	6.11
660.515	6.09
660.926	6.07
661.338	6.05
661.749	6.03
662.159	6.03
662.57	6.02
662.981	6.01
663.392	5.99
663.803	5.98
664.213	5.96
664.624	5.95
665.035	5.94
665.445	5.94
665.855	5.93
666.266	5.93
666.676	5.94
667.086	5.93
667.497	5.92
667.907	5.92
668.317	5.92
668.727	5.93
669.137	5.94
669.547	5.96
669.956	5.96
670.366	5.97
670.776	5.97
671.186	5.96
671.595	5.96
672.005	5.98
672.414	5.99
672.824	6
673.233	5.99
673.642	6
674.052	6.01
674.461	6.01
674.87	6.02
675.279	6.04
675.688	6.05
676.097	6.07
676.506	6.08
676.915	6.1
677.323	6.12
677.732	6.14
678.141	6.17
678.549	6.17
678.958	6.19
679.366	6.22
679.775	6.22
680.183	6.26
680.592	6.3
681	6.32
681.408	6.34
681.816	6.37
682.224	6.4
682.632	6.43
683.04	6.46
683.448	6.5
683.856	6.52
684.264	6.56
684.671	6.59
685.079	6.61
685.487	6.66
685.894	6.7
686.302	6.75
686.709	6.82
687.116	6.88
687.524	6.97
687.931	7.06
688.338	7.17
688.745	7.26
689.152	7.37
689.559	7.51
689.966	7.64
690.373	7.8
690.78	7.97
691.187	8.14
691.593	8.34
692	8.56
692.407	8.78
692.813	9.02
693.22	9.27
693.626	9.55
694.032	9.86
694.439	10.17
694.845	10.5
695.251	10.84
695.657	11.19
696.063	11.55
696.469	11.92
696.875	12.32
697.281	12.71
697.687	13.13
698.093	13.54
698.498	13.96
698.904	14.37
699.31	14.8
699.715	15.24
700.12	15.69
700.526	16.14
700.931	16.6
701.337	17.05
701.742	17.51
702.147	17.96
702.552	18.43
702.957	18.88
703.362	19.34
703.767	19.81
704.172	20.27
704.577	20.73
704.981	21.2
705.386	21.65
705.791	22.11
706.195	22.57
706.6	23.04
707.004	23.5
707.408	23.97
707.813	24.46
708.217	24.93
708.621	25.38
709.025	25.84
709.43	26.29
709.834	26.75
710.237	27.2
710.641	27.67
711.045	28.12
711.449	28.58
711.853	29.08
712.256	29.51
712.66	29.96
713.064	30.43
713.467	30.87
713.87	31.32
714.274	31.76
714.677	32.22
715.08	32.65
715.484	33.11
715.887	33.55
716.29	33.94
716.693	34.37
717.096	34.78
717.499	35.19
717.901	35.59
718.304	36.01
718.707	36.41
719.109	36.79
719.512	37.17
719.915	37.54
720.317	37.9
720.719	38.24
721.122	38.57
721.524	38.93
721.926	39.29
722.328	39.64
722.731	39.94
723.133	40.28
723.535	40.61
723.937	40.94
724.338	41.26
724.74	41.57
725.142	42.08
725.544	42.38
725.945	42.71
726.347	42.94
726.748	43.19
727.15	43.46
727.551	43.74
727.952	43.98
728.354	44.21
728.755	44.42
729.156	44.62
729.557	44.61
729.958	44.83
730.359	44.99
730.76	45.21
731.161	45.43
731.562	45.63
731.962	45.77
732.363	45.97
732.763	46.13
733.164	46.3
733.564	46.49
733.965	46.66
734.365	46.83
734.766	46.99
735.166	47.15
735.566	47.26
735.966	47.42
736.366	47.55
736.766	47.67
737.166	47.82
737.566	47.96
737.966	48.09
738.365	48.21
738.765	48.34
739.165	48.44
739.564	48.52
739.964	48.63
740.363	48.69
740.763	48.84
741.162	48.92
741.561	48.99
741.96	49.05
742.36	49.11
742.759	49.18
743.158	49.23
743.557	49.27
743.955	49.38
744.354	49.45
744.753	49.53
745.152	49.58
745.55	49.64
745.949	49.68
746.348	49.75
746.746	49.78
747.144	49.85
747.543	49.88
747.941	49.94
748.339	49.94
748.737	49.96
749.136	49.98
749.534	49.97
749.932	49.99
750.33	50.02
750.727	50.04
751.125	50.07
751.523	50.07
751.921	50.11
752.318	50.16
752.716	50.21
753.113	50.25
753.511	50.28
753.908	50.35
754.305	50.4
754.703	50.43
755.1	50.47
755.497	50.55
755.894	50.59
756.291	50.63
756.688	50.62
757.085	50.64
757.482	50.65
757.878	50.72
758.275	50.73
758.672	50.74
759.068	50.79
759.465	50.8
759.861	50.78
760.258	50.8
760.654	50.81
761.05	50.86
761.447	50.88
761.843	50.93
762.239	50.89
762.635	50.89
763.031	50.89
763.427	50.87
763.822	50.9
764.218	50.91
764.614	50.9
765.01	50.9
765.405	50.89
765.801	50.88
766.196	50.88
766.592	50.89
766.987	50.9
767.382	50.89
767.778	50.92
768.173	50.91
768.568	50.92
768.963	50.93
769.358	50.95
769.753	50.95
770.148	50.98
770.542	50.98
770.937	50.99
771.332	51.01
771.726	51.03
772.121	51.02
772.515	51.03
772.91	51.02
773.304	51.05
773.699	51.04
774.093	51.04
774.487	51.02
774.881	51.04
775.275	51.05
775.669	51.05
776.063	51.04
776.457	51.05
776.851	51.03
777.245	51.01
777.638	51.01
778.032	51.05
778.425	51.09
778.819	51.13
779.212	51.12
779.606	51.14
779.999	51.13
780.392	51.17
780.786	51.18
781.179	51.21
781.572	51.28
781.965	51.26
782.358	51.26
782.751	51.22
783.143	51.21
783.536	51.21
783.929	51.18
784.322	51.23
784.714	51.2
785.107	51.2
785.499	51.19
785.891	51.17
