Data from C_2_DEC_NC_4N_Splice17_13-28-58-503.txt Node
Date: Sat Mar 07 13:28:58 EST 2020
User: sa697716
Spectrometer: NQ5500242
Trigger mode: 0
Integration Time (sec): 1.450000E-1
Scans to average: 20
Nonlinearity correction enabled: false
Boxcar width: 5
Storing dark spectrum: false
XAxis mode: Wavelengths
Number of Pixels in Spectrum: 512
>>>>>Begin Spectral Data<<<<<
187.83	122.5
188.298	139.66
188.766	123.46
189.233	97.34
189.701	115.95
190.169	119.13
190.636	105.93
191.104	75.68
191.571	-56.76
192.039	-389.59
192.506	-526.5
192.974	114.47
193.441	131.18
193.908	89.12
194.375	35.36
194.842	27.65
195.31	-16.25
195.777	-158.15
196.244	15.74
196.711	39.16
197.177	43.83
197.644	44.6
198.111	44.58
198.578	45.42
199.045	45.81
199.511	46.29
199.978	46.62
200.445	47.14
200.911	46.9
201.378	47.19
201.844	47.21
202.31	46.62
202.777	46.82
203.243	46.77
203.709	46.53
204.176	46.08
204.642	45.57
205.108	45.41
205.574	45.03
206.04	44.53
206.506	44.03
206.972	43.96
207.438	43.56
207.903	42.65
208.369	41.65
208.835	40.52
209.301	39.52
209.766	38.22
210.232	37.11
210.697	35.88
211.163	35.03
211.628	34.24
212.094	33
212.559	32.29
213.024	31.7
213.49	31
213.955	30.38
214.42	29.73
214.885	28.86
215.35	27.75
215.815	26.31
216.28	24.47
216.745	22.22
217.21	20.23
217.675	18.45
218.14	16.77
218.604	15.37
219.069	14.22
219.534	13.19
219.998	12.41
220.463	11.72
220.927	11.05
221.392	10.53
221.856	10.19
222.32	9.83
222.785	9.54
223.249	9.28
223.713	9.05
224.177	8.83
224.642	8.64
225.106	8.42
225.57	8.23
226.034	8.1
226.497	7.97
226.961	7.81
227.425	7.67
227.889	7.53
228.353	7.4
228.816	7.28
229.28	7.15
229.744	7.03
230.207	6.93
230.671	6.81
231.134	6.72
231.597	6.63
232.061	6.55
232.524	6.47
232.987	6.38
233.45	6.31
233.914	6.23
234.377	6.14
234.84	6.06
235.303	6
235.766	5.95
236.229	5.88
236.691	5.81
237.154	5.75
237.617	5.68
238.08	5.62
238.542	5.55
239.005	5.5
239.468	5.46
239.93	5.42
240.393	5.37
240.855	5.31
241.317	5.25
241.78	5.2
242.242	5.13
242.704	5.09
243.166	5.04
243.629	5.01
244.091	4.96
244.553	4.91
245.015	4.85
245.477	4.82
245.939	4.77
246.4	4.73
246.862	4.69
247.324	4.66
247.786	4.62
248.247	4.57
248.709	4.53
249.17	4.48
249.632	4.45
250.093	4.43
250.555	4.38
251.016	4.35
251.477	4.33
251.939	4.31
252.4	4.27
252.861	4.25
253.322	4.23
253.783	4.2
254.244	4.19
254.705	4.15
255.166	4.12
255.627	4.1
256.088	4.09
256.549	4.06
257.009	4.03
257.47	4.01
257.931	3.98
258.391	3.94
258.852	3.92
259.312	3.89
259.773	3.87
260.233	3.85
260.694	3.83
261.154	3.8
261.614	3.78
262.074	3.75
262.534	3.73
262.994	3.71
263.455	3.7
263.915	3.68
264.374	3.66
264.834	3.65
265.294	3.63
265.754	3.61
266.214	3.6
266.673	3.59
267.133	3.58
267.593	3.57
268.052	3.56
268.512	3.55
268.971	3.54
269.431	3.53
269.89	3.53
270.349	3.52
270.809	3.5
271.268	3.5
271.727	3.49
272.186	3.48
272.645	3.48
273.104	3.47
273.563	3.47
274.022	3.46
274.481	3.46
274.94	3.46
275.399	3.45
275.857	3.45
276.316	3.44
276.775	3.44
277.233	3.44
277.692	3.43
278.15	3.43
278.609	3.42
279.067	3.42
279.525	3.42
279.984	3.42
280.442	3.42
280.9	3.42
281.358	3.41
281.816	3.41
282.274	3.41
282.732	3.4
283.19	3.4
283.648	3.39
284.106	3.38
284.564	3.38
285.021	3.38
285.479	3.37
285.937	3.36
286.394	3.37
286.852	3.36
287.309	3.35
287.767	3.35
288.224	3.34
288.682	3.32
289.139	3.31
289.596	3.3
290.053	3.28
290.511	3.27
290.968	3.26
291.425	3.24
291.882	3.24
292.339	3.22
292.796	3.22
293.252	3.21
293.709	3.21
294.166	3.21
294.623	3.21
295.079	3.2
295.536	3.2
295.992	3.2
296.449	3.2
296.905	3.2
297.362	3.19
297.818	3.19
298.274	3.19
298.731	3.18
299.187	3.17
299.643	3.17
300.099	3.17
300.555	3.16
301.011	3.15
301.467	3.15
301.923	3.14
302.379	3.14
302.835	3.14
303.291	3.14
303.746	3.13
304.202	3.13
304.658	3.13
305.113	3.13
305.569	3.13
306.024	3.13
306.479	3.13
306.935	3.12
307.39	3.12
307.845	3.12
308.301	3.13
308.756	3.13
309.211	3.13
309.666	3.14
310.121	3.14
310.576	3.14
311.031	3.14
311.486	3.15
311.94	3.16
312.395	3.16
312.85	3.16
313.305	3.15
313.759	3.15
314.214	3.14
314.668	3.13
315.123	3.13
315.577	3.12
316.032	3.12
316.486	3.11
316.94	3.1
317.394	3.09
317.849	3.07
318.303	3.07
318.757	3.05
319.211	3.04
319.665	3.04
320.119	3.02
320.572	3.01
321.026	3
321.48	2.99
321.934	2.98
322.387	2.98
322.841	2.97
323.295	2.98
323.748	2.98
324.202	2.98
324.655	2.97
325.108	2.97
325.562	2.97
326.015	2.97
326.468	2.97
326.921	2.97
327.374	2.97
327.827	2.98
328.28	2.97
328.733	2.97
329.186	2.96
329.639	2.97
330.092	2.97
330.545	2.97
330.997	2.96
331.45	2.96
331.903	2.97
332.355	2.98
332.808	2.98
333.26	2.98
333.713	2.98
334.165	2.98
334.617	2.98
335.069	2.98
335.522	2.98
335.974	2.99
336.426	2.99
336.878	2.98
337.33	2.97
337.782	2.97
338.234	2.97
338.686	2.97
339.137	2.98
339.589	2.97
340.041	2.97
340.493	2.96
340.944	2.95
341.396	2.94
341.847	2.93
342.299	2.92
342.75	2.91
343.201	2.9
343.653	2.88
344.104	2.86
344.555	2.85
345.006	2.83
345.457	2.82
345.908	2.82
346.359	2.81
346.81	2.81
347.261	2.81
347.712	2.81
348.163	2.8
348.613	2.81
349.064	2.81
349.515	2.81
349.965	2.82
350.416	2.8
350.866	2.8
351.317	2.79
351.767	2.79
352.217	2.79
352.668	2.79
353.118	2.79
353.568	2.78
354.018	2.78
354.468	2.79
354.918	2.78
355.368	2.79
355.818	2.8
356.268	2.8
356.718	2.8
357.168	2.8
357.617	2.8
358.067	2.79
358.517	2.8
358.966	2.8
359.416	2.81
359.865	2.81
360.315	2.81
360.764	2.81
361.213	2.81
361.663	2.8
362.112	2.8
362.561	2.81
363.01	2.81
363.459	2.8
363.908	2.8
364.357	2.8
364.806	2.79
365.255	2.79
365.703	2.8
366.152	2.81
366.601	2.81
367.05	2.83
367.498	2.82
367.947	2.83
368.395	2.84
368.844	2.85
369.292	2.84
369.74	2.85
370.189	2.84
370.637	2.83
371.085	2.82
371.533	2.82
371.981	2.82
372.429	2.81
372.877	2.8
373.325	2.79
373.773	2.77
374.221	2.77
374.669	2.77
375.116	2.76
375.564	2.76
376.012	2.76
376.459	2.76
376.907	2.76
377.354	2.76
377.801	2.77
378.249	2.78
378.696	2.78
379.143	2.79
379.591	2.8
380.038	2.8
380.485	2.8
380.932	2.8
381.379	2.81
381.826	2.81
382.273	2.82
382.72	2.81
383.166	2.8
383.613	2.8
384.06	2.79
384.506	2.79
384.953	2.79
385.4	2.8
385.846	2.81
386.292	2.81
386.739	2.8
387.185	2.8
387.631	2.82
388.078	2.82
388.524	2.83
388.97	2.84
389.416	2.86
389.862	2.87
390.308	2.88
390.754	2.9
391.2	2.92
391.645	2.94
392.091	2.97
392.537	2.98
392.983	3
393.428	3.02
393.874	3.03
394.319	3.05
394.765	3.07
395.21	3.07
395.655	3.09
396.101	3.11
396.546	3.14
396.991	3.16
397.436	3.18
397.881	3.22
398.326	3.25
398.771	3.28
399.216	3.3
399.661	3.33
400.106	3.36
400.551	3.38
400.995	3.39
401.44	3.4
401.885	3.41
402.329	3.43
402.774	3.44
403.218	3.47
403.663	3.49
404.107	3.52
404.551	3.54
404.995	3.56
405.44	3.57
405.884	3.6
406.328	3.62
406.772	3.64
407.216	3.66
407.66	3.68
408.104	3.67
408.547	3.69
408.991	3.71
409.435	3.72
409.879	3.75
410.322	3.78
410.766	3.8
411.209	3.83
411.653	3.86
412.096	3.88
412.54	3.9
412.983	3.94
413.426	3.98
413.869	4
414.312	4.03
414.756	4.05
415.199	4.07
415.642	4.07
416.085	4.09
416.527	4.09
416.97	4.09
417.413	4.09
417.856	4.1
418.298	4.1
418.741	4.11
419.184	4.11
419.626	4.11
420.069	4.12
420.511	4.13
420.953	4.14
421.396	4.16
421.838	4.18
422.28	4.21
422.722	4.23
423.164	4.24
423.606	4.26
424.048	4.26
424.49	4.27
424.932	4.27
425.374	4.26
425.816	4.24
426.258	4.23
426.699	4.21
427.141	4.21
427.582	4.2
428.024	4.21
428.465	4.2
428.907	4.19
429.348	4.18
429.789	4.19
430.231	4.23
430.672	4.25
431.113	4.27
431.554	4.3
431.995	4.31
432.436	4.33
432.877	4.34
433.318	4.36
433.759	4.39
434.2	4.42
434.64	4.44
435.081	4.43
435.522	4.44
435.962	4.46
436.403	4.48
436.843	4.51
437.284	4.51
437.724	4.52
438.164	4.52
438.604	4.54
439.045	4.55
439.485	4.56
439.925	4.59
440.365	4.6
440.805	4.61
441.245	4.62
441.685	4.63
442.125	4.66
442.564	4.68
443.004	4.69
443.444	4.7
443.883	4.72
444.323	4.73
444.762	4.74
445.202	4.75
445.641	4.78
446.081	4.8
446.52	4.81
446.959	4.85
447.398	4.87
447.837	4.89
448.276	4.91
448.716	4.94
449.154	4.96
449.593	4.99
450.032	5.02
450.471	5.02
450.91	5.04
451.349	5.05
451.787	5.04
452.226	5.04
452.664	5.05
453.103	5.06
453.541	5.06
453.98	5.07
454.418	5.06
454.856	5.05
455.295	5.05
455.733	5.04
456.171	5.03
456.609	5.04
457.047	5.03
457.485	5.02
457.923	5.02
458.361	5.01
458.798	5.01
459.236	5.01
459.674	5
460.111	5
460.549	5.01
460.987	5.01
461.424	5.03
461.862	5.03
462.299	5.03
462.736	5.04
463.173	5.05
463.611	5.06
464.048	5.08
464.485	5.09
464.922	5.09
465.359	5.09
465.796	5.11
466.233	5.11
466.67	5.11
467.106	5.11
467.543	5.1
467.98	5.1
468.416	5.1
468.853	5.1
469.29	5.08
469.726	5.08
470.162	5.09
470.599	5.08
471.035	5.07
471.471	5.07
471.907	5.07
472.344	5.08
472.78	5.1
473.216	5.09
473.652	5.08
474.088	5.07
474.523	5.08
474.959	5.09
475.395	5.07
475.831	5.08
476.266	5.09
476.702	5.08
477.138	5.08
477.573	5.08
478.008	5.08
478.444	5.07
478.879	5.09
479.314	5.08
479.75	5.09
480.185	5.08
480.62	5.08
481.055	5.07
481.49	5.07
481.925	5.07
482.36	5.06
482.795	5.05
483.229	5.06
483.664	5.07
484.099	5.07
484.534	5.07
484.968	5.1
485.403	5.1
485.837	5.12
486.271	5.15
486.706	5.17
487.14	5.2
487.574	5.22
488.009	5.25
488.443	5.27
488.877	5.32
489.311	5.35
489.745	5.38
490.179	5.43
490.613	5.47
491.046	5.51
491.48	5.56
491.914	5.61
492.348	5.67
492.781	5.73
493.215	5.79
493.648	5.85
494.082	5.91
494.515	5.97
494.948	6.04
495.382	6.12
495.815	6.21
496.248	6.3
496.681	6.39
497.114	6.49
497.547	6.58
497.98	6.69
498.413	6.79
498.846	6.91
499.279	7.03
499.711	7.14
500.144	7.27
500.577	7.4
501.009	7.52
501.442	7.66
501.874	7.81
502.306	7.96
502.739	8.13
503.171	8.31
503.603	8.48
504.036	8.66
504.468	8.84
504.9	9.02
505.332	9.21
505.764	9.43
506.196	9.63
506.627	9.84
507.059	10.06
507.491	10.27
507.923	10.49
508.354	10.73
508.786	10.98
509.217	11.23
509.649	11.49
510.08	11.76
510.512	12.01
510.943	12.28
511.374	12.55
511.805	12.83
512.237	13.11
512.668	13.39
513.099	13.68
513.53	13.97
513.961	14.26
514.391	14.55
514.822	14.85
515.253	15.14
515.684	15.44
516.114	15.75
516.545	16.04
516.975	16.35
517.406	16.65
517.836	16.95
518.267	17.25
518.697	17.54
519.127	17.81
519.558	18.1
519.988	18.39
520.418	18.67
520.848	18.93
521.278	19.2
521.708	19.64
522.138	19.89
522.567	20.14
522.997	20.39
523.427	20.65
523.857	20.89
524.286	21.12
524.716	21.35
525.145	21.57
525.575	21.79
526.004	22.01
526.433	22.04
526.863	22.24
527.292	22.44
527.721	22.63
528.15	22.79
528.579	22.96
529.008	23.12
529.437	23.26
529.866	23.4
530.295	23.54
530.724	23.66
531.152	23.79
531.581	23.9
532.01	24
532.438	24.08
532.867	24.18
533.295	24.27
533.723	24.35
534.152	24.43
534.58	24.52
535.008	24.58
535.436	24.66
535.865	24.71
536.293	24.79
536.721	24.85
537.149	24.92
537.576	24.96
538.004	25.02
538.432	25.05
538.86	25.1
539.287	25.12
539.715	25.18
540.143	25.2
540.57	25.24
540.998	25.27
541.425	25.29
541.852	25.32
542.28	25.34
542.707	25.35
543.134	25.38
543.561	25.4
543.988	25.43
544.415	25.45
544.842	25.47
545.269	25.48
545.696	25.51
546.123	25.54
546.549	25.56
546.976	25.59
547.403	25.6
547.829	25.61
548.256	25.65
548.682	25.65
549.108	25.67
549.535	25.69
549.961	25.69
550.387	25.68
550.813	25.67
551.24	25.67
551.666	25.67
552.092	25.69
552.518	25.69
552.943	25.66
553.369	25.64
553.795	25.61
554.221	25.58
554.646	25.56
555.072	25.54
555.498	25.51
555.923	25.47
556.349	25.42
556.774	25.35
557.199	25.29
557.625	25.22
558.05	25.18
558.475	25.11
558.9	25.05
559.325	24.98
559.75	24.9
560.175	24.82
560.6	24.74
561.025	24.64
561.449	24.55
561.874	24.44
562.299	24.36
562.723	24.25
563.148	24.13
563.572	23.99
563.997	23.87
564.421	23.73
564.846	23.61
565.27	23.47
565.694	23.35
566.118	23.22
566.542	23.09
566.966	22.93
567.39	22.79
567.814	22.65
568.238	22.52
568.662	22.37
569.086	22.24
569.509	22.1
569.933	21.97
570.357	21.83
570.78	21.69
571.204	21.54
571.627	21.41
572.05	21.26
572.474	21.15
572.897	21.02
573.32	20.9
573.743	20.76
574.166	20.64
574.589	20.51
575.012	20.4
575.435	20.29
575.858	20.18
576.281	20.07
576.704	19.97
577.126	19.86
577.549	19.77
577.972	19.66
578.394	19.58
578.817	19.47
579.239	19.38
579.661	19.28
580.084	19.2
580.506	19.11
580.928	19.03
581.35	18.96
581.772	18.87
582.194	18.78
582.616	18.72
583.038	18.64
583.46	18.58
583.882	18.51
584.303	18.43
584.725	18.36
585.147	18.3
585.568	18.23
585.99	18.17
586.411	18.1
586.833	18.05
587.254	17.97
587.675	17.9
588.096	17.84
588.518	17.77
588.939	17.74
589.36	17.69
589.781	17.63
590.202	17.58
590.623	17.53
591.043	17.49
591.464	17.44
591.885	17.42
592.305	17.37
592.726	17.35
593.147	17.3
593.567	17.25
593.987	17.21
594.408	17.17
594.828	17.13
595.248	17.1
595.669	17.07
596.089	17.03
596.509	16.99
596.929	16.96
597.349	16.91
597.769	16.88
598.189	16.84
598.608	16.82
599.028	16.78
599.448	16.75
599.867	16.7
600.287	16.66
600.706	16.63
601.126	16.59
601.545	16.55
601.965	16.52
602.384	16.48
602.803	16.43
603.222	16.37
603.641	16.31
604.061	16.26
604.48	16.2
604.898	16.13
605.317	16.06
605.736	16
606.155	15.94
606.574	15.86
606.992	15.78
607.411	15.71
607.829	15.61
608.248	15.54
608.666	15.46
609.085	15.39
609.503	15.31
609.921	15.23
610.339	15.14
610.758	15.06
611.176	14.97
611.594	14.9
612.012	14.8
612.43	14.75
612.847	14.66
613.265	14.58
613.683	14.51
614.101	14.43
614.518	14.35
614.936	14.26
615.353	14.17
615.771	14.11
616.188	14.04
616.606	13.97
617.023	13.91
617.44	13.86
617.857	13.79
618.274	13.73
618.691	13.68
619.108	13.62
619.525	13.59
619.942	13.56
620.359	13.52
620.776	13.49
621.192	13.46
621.609	13.43
622.026	13.39
622.442	13.37
622.859	13.35
623.275	13.33
623.691	13.31
624.108	13.28
624.524	13.25
624.94	13.25
625.356	13.24
625.772	13.22
626.188	13.21
626.604	13.19
627.02	13.19
627.436	13.18
627.852	13.17
628.268	13.16
628.683	13.15
629.099	13.15
629.514	13.12
629.93	13.08
630.345	13.06
630.761	13.04
631.176	13
631.591	12.94
632.007	12.9
632.422	12.84
632.837	12.79
633.252	12.73
633.667	12.65
634.082	12.57
634.497	12.49
634.911	12.41
635.326	12.3
635.741	12.22
636.155	12.12
636.57	12.02
636.984	11.91
637.399	11.79
637.813	11.68
638.228	11.55
638.642	11.43
639.056	11.29
639.47	11.17
639.884	11.05
640.298	10.9
640.712	10.77
641.126	10.64
641.54	10.49
641.954	10.34
642.368	10.19
642.781	10.07
643.195	9.94
643.609	9.81
644.022	9.68
644.436	9.55
644.849	9.43
645.262	9.32
645.676	9.2
646.089	9.1
646.502	9.02
646.915	8.95
647.328	8.86
647.741	8.78
648.154	8.7
648.567	8.63
648.98	8.57
649.393	8.51
649.805	8.46
650.218	8.41
650.631	8.36
651.043	8.3
651.456	8.26
651.868	8.21
652.28	8.17
652.693	8.12
653.105	8.09
653.517	8.03
653.929	7.98
654.341	7.93
654.753	7.86
655.165	7.8
655.577	7.73
655.989	7.64
656.401	7.56
656.813	7.49
657.224	7.39
657.636	7.28
658.047	7.19
658.459	7.08
658.87	6.98
659.282	6.88
659.693	6.77
660.104	6.67
660.515	6.57
660.926	6.47
661.338	6.36
661.749	6.27
662.159	6.17
662.57	6.09
662.981	6.01
663.392	5.93
663.803	5.86
664.213	5.78
664.624	5.71
665.035	5.64
665.445	5.59
665.855	5.53
666.266	5.49
666.676	5.45
667.086	5.4
667.497	5.35
667.907	5.31
668.317	5.28
668.727	5.25
669.137	5.22
669.547	5.2
669.956	5.18
670.366	5.18
670.776	5.16
671.186	5.16
671.595	5.16
672.005	5.15
672.414	5.14
672.824	5.14
673.233	5.15
673.642	5.17
674.052	5.17
674.461	5.19
674.87	5.2
675.279	5.23
675.688	5.25
676.097	5.27
676.506	5.31
676.915	5.35
677.323	5.39
677.732	5.43
678.141	5.48
678.549	5.53
678.958	5.58
679.366	5.65
679.775	5.7
680.183	5.79
680.592	5.88
681	5.98
681.408	6.09
681.816	6.21
682.224	6.35
682.632	6.49
683.04	6.66
683.448	6.85
683.856	7.05
684.264	7.28
684.671	7.51
685.079	7.77
685.487	8.04
685.894	8.35
686.302	8.69
686.709	9.05
687.116	9.44
687.524	9.85
687.931	10.28
688.338	10.72
688.745	11.19
689.152	11.68
689.559	12.2
689.966	12.74
690.373	13.29
690.78	13.84
691.187	14.4
691.593	14.96
692	15.53
692.407	16.11
692.813	16.7
693.22	17.29
693.626	17.88
694.032	18.46
694.439	19.05
694.845	19.63
695.251	20.22
695.657	20.78
696.063	21.36
696.469	21.93
696.875	22.5
697.281	23.04
697.687	23.58
698.093	24.11
698.498	24.63
698.904	25.14
699.31	25.64
699.715	26.15
700.12	26.64
700.526	27.12
700.931	27.6
701.337	28.06
701.742	28.51
702.147	28.94
702.552	29.38
702.957	29.79
703.362	30.19
703.767	30.57
704.172	30.92
704.577	31.29
704.981	31.64
705.386	31.97
705.791	32.3
706.195	32.64
706.6	32.98
707.004	33.28
707.408	33.62
707.813	33.95
708.217	34.27
708.621	34.59
709.025	34.86
709.43	35.14
709.834	35.43
710.237	35.7
710.641	35.96
711.045	36.2
711.449	36.49
711.853	36.73
712.256	36.96
712.66	37.18
713.064	37.41
713.467	37.67
713.87	37.91
714.274	38.11
714.677	38.33
715.08	38.54
715.484	38.75
715.887	38.96
716.29	39.14
716.693	39.34
717.096	39.53
717.499	39.7
717.901	39.87
718.304	40.02
718.707	40.19
719.109	40.36
719.512	40.53
719.915	40.7
720.317	40.83
720.719	40.95
721.122	41.08
721.524	41.24
721.926	41.4
722.328	41.56
722.731	41.69
723.133	41.85
723.535	41.99
723.937	42.13
724.338	42.22
724.74	42.35
725.142	42.57
725.544	42.69
725.945	42.82
726.347	42.91
726.748	43
727.15	43.09
727.551	43.18
727.952	43.23
728.354	43.29
728.755	43.38
729.156	43.46
729.557	43.44
729.958	43.49
730.359	43.51
730.76	43.58
731.161	43.64
731.562	43.73
731.962	43.77
732.363	43.83
732.763	43.91
733.164	43.95
733.564	44
733.965	44.04
734.365	44.12
734.766	44.18
735.166	44.2
735.566	44.24
735.966	44.27
736.366	44.31
736.766	44.36
737.166	44.37
737.566	44.43
737.966	44.46
738.365	44.49
738.765	44.51
739.165	44.54
739.564	44.56
739.964	44.6
740.363	44.63
740.763	44.63
741.162	44.65
741.561	44.68
741.96	44.67
742.36	44.7
742.759	44.76
743.158	44.78
743.557	44.78
743.955	44.82
744.354	44.82
744.753	44.83
745.152	44.88
745.55	44.91
745.949	44.93
746.348	44.95
746.746	44.97
747.144	44.98
747.543	44.98
747.941	45.01
748.339	44.99
748.737	44.99
749.136	44.99
749.534	44.97
749.932	44.97
750.33	44.96
750.727	44.95
751.125	44.96
751.523	44.94
751.921	44.97
752.318	44.99
752.716	45.01
753.113	45.03
753.511	45.06
753.908	45.1
754.305	45.11
754.703	45.12
755.1	45.13
755.497	45.12
755.894	45.13
756.291	45.12
756.688	45.1
757.085	45.11
757.482	45.11
757.878	45.09
758.275	45.08
758.672	45.05
759.068	45.06
759.465	45.04
759.861	45.05
760.258	45.04
760.654	45.06
761.05	45.09
761.447	45.1
761.843	45.1
762.239	45.09
762.635	45.07
763.031	45.08
763.427	45.05
763.822	45.06
764.218	45.05
764.614	45.04
765.01	45.01
765.405	44.98
765.801	44.94
766.196	44.94
766.592	44.94
766.987	44.93
767.382	44.92
767.778	44.94
768.173	44.95
768.568	44.95
768.963	44.92
769.358	44.94
769.753	44.96
770.148	45
770.542	44.99
770.937	44.99
771.332	45
771.726	45
772.121	45.01
772.515	45
772.91	45.02
773.304	45.05
773.699	45.03
774.093	45
774.487	44.98
774.881	45.01
775.275	44.99
775.669	44.98
776.063	44.98
776.457	44.97
776.851	44.94
777.245	44.91
777.638	44.89
778.032	44.91
778.425	44.92
778.819	44.92
779.212	44.92
779.606	44.95
779.999	44.95
780.392	44.97
780.786	44.95
781.179	44.97
781.572	45.02
781.965	45.03
782.358	45.03
782.751	45.03
