Data from C_2_DIV_OH_2N_Splice17_13-25-21-831.txt Node
Date: Sat Mar 07 13:25:21 EST 2020
User: sa697716
Spectrometer: NQ5500242
Trigger mode: 0
Integration Time (sec): 1.450000E-1
Scans to average: 20
Nonlinearity correction enabled: false
Boxcar width: 5
Storing dark spectrum: false
XAxis mode: Wavelengths
Number of Pixels in Spectrum: 512
>>>>>Begin Spectral Data<<<<<
187.83	180.27
188.298	202.05
188.766	156.79
189.233	126.33
189.701	135.63
190.169	168.68
190.636	187.96
191.104	266.44
191.571	364.38
192.039	157.18
192.506	-173.88
192.974	76.89
193.441	239.85
193.908	11.66
194.375	-11.71
194.842	-22.17
195.31	56.99
195.777	-51.96
196.244	35.82
196.711	43.88
197.177	46.95
197.644	46.66
198.111	46.57
198.578	47
199.045	47.37
199.511	47.23
199.978	47.05
200.445	47.18
200.911	47.52
201.378	47.55
201.844	47.74
202.31	47.37
202.777	47.29
203.243	47.35
203.709	46.81
204.176	46.38
204.642	46.14
205.108	45.99
205.574	45.66
206.04	45.1
206.506	44.59
206.972	44.58
207.438	44.32
207.903	43.78
208.369	42.85
208.835	42.24
209.301	41.7
209.766	40.88
210.232	40.02
210.697	39.03
211.163	38.18
211.628	37.49
212.094	36.42
212.559	35.82
213.024	35.01
213.49	34.48
213.955	33.94
214.42	33.39
214.885	32.61
215.35	31.84
215.815	30.72
216.28	29.32
216.745	27.68
217.21	26.06
217.675	24.58
218.14	23.4
218.604	22.25
219.069	21.25
219.534	20.48
219.998	19.88
220.463	19.29
220.927	18.7
221.392	18.27
221.856	17.96
222.32	17.68
222.785	17.46
223.249	17.18
223.713	16.93
224.177	16.72
224.642	16.46
225.106	16.19
225.57	15.96
226.034	15.79
226.497	15.59
226.961	15.35
227.425	15.14
227.889	14.91
228.353	14.72
228.816	14.52
229.28	14.32
229.744	14.14
230.207	13.96
230.671	13.77
231.134	13.59
231.597	13.43
232.061	13.28
232.524	13.11
232.987	12.96
233.45	12.81
233.914	12.66
234.377	12.51
234.84	12.37
235.303	12.25
235.766	12.12
236.229	12
236.691	11.87
237.154	11.75
237.617	11.65
238.08	11.52
238.542	11.39
239.005	11.31
239.468	11.2
239.93	11.09
240.393	10.99
240.855	10.87
241.317	10.76
241.78	10.66
242.242	10.54
242.704	10.44
243.166	10.35
243.629	10.26
244.091	10.15
244.553	10.05
245.015	9.95
245.477	9.85
245.939	9.77
246.4	9.69
246.862	9.6
247.324	9.52
247.786	9.43
248.247	9.34
248.709	9.24
249.17	9.16
249.632	9.08
250.093	9.02
250.555	8.94
251.016	8.87
251.477	8.8
251.939	8.72
252.4	8.66
252.861	8.59
253.322	8.52
253.783	8.46
254.244	8.4
254.705	8.34
255.166	8.27
255.627	8.21
256.088	8.15
256.549	8.1
257.009	8.04
257.47	7.98
257.931	7.91
258.391	7.85
258.852	7.79
259.312	7.74
259.773	7.69
260.233	7.64
260.694	7.58
261.154	7.51
261.614	7.47
262.074	7.41
262.534	7.36
262.994	7.33
263.455	7.29
263.915	7.25
264.374	7.22
264.834	7.18
265.294	7.14
265.754	7.11
266.214	7.09
266.673	7.06
267.133	7.04
267.593	7.01
268.052	6.98
268.512	6.96
268.971	6.93
269.431	6.9
269.89	6.87
270.349	6.86
270.809	6.84
271.268	6.81
271.727	6.79
272.186	6.76
272.645	6.74
273.104	6.72
273.563	6.7
274.022	6.68
274.481	6.66
274.94	6.64
275.399	6.61
275.857	6.59
276.316	6.56
276.775	6.55
277.233	6.52
277.692	6.5
278.15	6.48
278.609	6.45
279.067	6.43
279.525	6.41
279.984	6.38
280.442	6.36
280.9	6.35
281.358	6.32
281.816	6.3
282.274	6.28
282.732	6.27
283.19	6.25
283.648	6.23
284.106	6.21
284.564	6.18
285.021	6.17
285.479	6.15
285.937	6.13
286.394	6.12
286.852	6.1
287.309	6.07
287.767	6.04
288.224	6.02
288.682	6
289.139	5.97
289.596	5.95
290.053	5.91
290.511	5.88
290.968	5.85
291.425	5.82
291.882	5.8
292.339	5.77
292.796	5.75
293.252	5.73
293.709	5.72
294.166	5.7
294.623	5.68
295.079	5.66
295.536	5.64
295.992	5.63
296.449	5.61
296.905	5.6
297.362	5.58
297.818	5.57
298.274	5.56
298.731	5.53
299.187	5.5
299.643	5.48
300.099	5.48
300.555	5.46
301.011	5.44
301.467	5.42
301.923	5.4
302.379	5.38
302.835	5.36
303.291	5.34
303.746	5.32
304.202	5.31
304.658	5.3
305.113	5.28
305.569	5.27
306.024	5.25
306.479	5.24
306.935	5.22
307.39	5.22
307.845	5.21
308.301	5.21
308.756	5.21
309.211	5.2
309.666	5.2
310.121	5.2
310.576	5.19
311.031	5.18
311.486	5.18
311.94	5.18
312.395	5.17
312.85	5.16
313.305	5.13
313.759	5.13
314.214	5.11
314.668	5.09
315.123	5.08
315.577	5.06
316.032	5.06
316.486	5.04
316.94	5.02
317.394	4.99
317.849	4.97
318.303	4.96
318.757	4.93
319.211	4.92
319.665	4.9
320.119	4.88
320.572	4.86
321.026	4.84
321.48	4.81
321.934	4.79
322.387	4.78
322.841	4.76
323.295	4.75
323.748	4.74
324.202	4.72
324.655	4.72
325.108	4.71
325.562	4.71
326.015	4.7
326.468	4.71
326.921	4.7
327.374	4.7
327.827	4.7
328.28	4.68
328.733	4.67
329.186	4.66
329.639	4.66
330.092	4.65
330.545	4.63
330.997	4.62
331.45	4.62
331.903	4.62
332.355	4.62
332.808	4.61
333.26	4.61
333.713	4.6
334.165	4.6
334.617	4.59
335.069	4.58
335.522	4.59
335.974	4.59
336.426	4.57
336.878	4.57
337.33	4.56
337.782	4.56
338.234	4.57
338.686	4.57
339.137	4.57
339.589	4.56
340.041	4.55
340.493	4.53
340.944	4.51
341.396	4.5
341.847	4.49
342.299	4.46
342.75	4.45
343.201	4.42
343.653	4.4
344.104	4.38
344.555	4.37
345.006	4.35
345.457	4.34
345.908	4.33
346.359	4.32
346.81	4.31
347.261	4.31
347.712	4.3
348.163	4.29
348.613	4.29
349.064	4.28
349.515	4.28
349.965	4.28
350.416	4.27
350.866	4.26
351.317	4.26
351.767	4.26
352.217	4.25
352.668	4.25
353.118	4.25
353.568	4.23
354.018	4.23
354.468	4.23
354.918	4.22
355.368	4.23
355.818	4.23
356.268	4.22
356.718	4.22
357.168	4.21
357.617	4.21
358.067	4.21
358.517	4.22
358.966	4.22
359.416	4.22
359.865	4.2
360.315	4.2
360.764	4.19
361.213	4.2
361.663	4.19
362.112	4.19
362.561	4.19
363.01	4.18
363.459	4.17
363.908	4.16
364.357	4.14
364.806	4.14
365.255	4.13
365.703	4.14
366.152	4.13
366.601	4.13
367.05	4.13
367.498	4.13
367.947	4.13
368.395	4.13
368.844	4.12
369.292	4.12
369.74	4.13
370.189	4.13
370.637	4.12
371.085	4.11
371.533	4.1
371.981	4.09
372.429	4.09
372.877	4.08
373.325	4.07
373.773	4.06
374.221	4.06
374.669	4.05
375.116	4.03
375.564	4.03
376.012	4.02
376.459	4.02
376.907	4.01
377.354	4.01
377.801	4.01
378.249	4.01
378.696	4.01
379.143	4.01
379.591	4.01
380.038	4.01
380.485	4
380.932	4
381.379	4
381.826	4
382.273	3.99
382.72	3.98
383.166	3.98
383.613	3.98
384.06	3.96
384.506	3.95
384.953	3.95
385.4	3.95
385.846	3.95
386.292	3.94
386.739	3.94
387.185	3.94
387.631	3.94
388.078	3.94
388.524	3.93
388.97	3.94
389.416	3.94
389.862	3.95
390.308	3.96
390.754	3.97
391.2	3.99
391.645	4
392.091	4.01
392.537	4.02
392.983	4.03
393.428	4.03
393.874	4.03
394.319	4.04
394.765	4.04
395.21	4.02
395.655	4.02
396.101	4.02
396.546	4.02
396.991	4.03
397.436	4.03
397.881	4.04
398.326	4.05
398.771	4.07
399.216	4.07
399.661	4.09
400.106	4.11
400.551	4.11
400.995	4.11
401.44	4.12
401.885	4.12
402.329	4.13
402.774	4.13
403.218	4.16
403.663	4.16
404.107	4.17
404.551	4.18
404.995	4.18
405.44	4.19
405.884	4.19
406.328	4.2
406.772	4.21
407.216	4.22
407.66	4.22
408.104	4.2
408.547	4.2
408.991	4.21
409.435	4.21
409.879	4.23
410.322	4.24
410.766	4.26
411.209	4.29
411.653	4.31
412.096	4.33
412.54	4.35
412.983	4.37
413.426	4.4
413.869	4.42
414.312	4.44
414.756	4.45
415.199	4.46
415.642	4.47
416.085	4.47
416.527	4.47
416.97	4.46
417.413	4.46
417.856	4.45
418.298	4.44
418.741	4.44
419.184	4.45
419.626	4.44
420.069	4.45
420.511	4.44
420.953	4.46
421.396	4.47
421.838	4.48
422.28	4.49
422.722	4.52
423.164	4.53
423.606	4.53
424.048	4.54
424.49	4.54
424.932	4.54
425.374	4.52
425.816	4.5
426.258	4.49
426.699	4.48
427.141	4.48
427.582	4.48
428.024	4.49
428.465	4.5
428.907	4.48
429.348	4.48
429.789	4.49
430.231	4.52
430.672	4.54
431.113	4.55
431.554	4.56
431.995	4.56
432.436	4.56
432.877	4.56
433.318	4.57
433.759	4.6
434.2	4.63
434.64	4.65
435.081	4.66
435.522	4.69
435.962	4.71
436.403	4.75
436.843	4.76
437.284	4.76
437.724	4.77
438.164	4.76
438.604	4.76
439.045	4.75
439.485	4.75
439.925	4.74
440.365	4.73
440.805	4.73
441.245	4.73
441.685	4.74
442.125	4.75
442.564	4.76
443.004	4.76
443.444	4.76
443.883	4.78
444.323	4.78
444.762	4.79
445.202	4.8
445.641	4.82
446.081	4.83
446.52	4.83
446.959	4.87
447.398	4.88
447.837	4.9
448.276	4.91
448.716	4.91
449.154	4.94
449.593	4.95
450.032	4.96
450.471	4.94
450.91	4.93
451.349	4.95
451.787	4.92
452.226	4.91
452.664	4.91
453.103	4.89
453.541	4.89
453.98	4.89
454.418	4.87
454.856	4.86
455.295	4.86
455.733	4.84
456.171	4.82
456.609	4.81
457.047	4.79
457.485	4.79
457.923	4.79
458.361	4.78
458.798	4.78
459.236	4.78
459.674	4.77
460.111	4.76
460.549	4.76
460.987	4.77
461.424	4.78
461.862	4.79
462.299	4.79
462.736	4.79
463.173	4.78
463.611	4.77
464.048	4.77
464.485	4.78
464.922	4.78
465.359	4.79
465.796	4.81
466.233	4.81
466.67	4.81
467.106	4.81
467.543	4.81
467.98	4.82
468.416	4.81
468.853	4.8
469.29	4.78
469.726	4.79
470.162	4.78
470.599	4.76
471.035	4.74
471.471	4.74
471.907	4.72
472.344	4.72
472.78	4.73
473.216	4.74
473.652	4.74
474.088	4.73
474.523	4.72
474.959	4.72
475.395	4.7
475.831	4.7
476.266	4.7
476.702	4.69
477.138	4.68
477.573	4.66
478.008	4.66
478.444	4.64
478.879	4.65
479.314	4.64
479.75	4.63
480.185	4.62
480.62	4.6
481.055	4.59
481.49	4.58
481.925	4.58
482.36	4.57
482.795	4.56
483.229	4.56
483.664	4.55
484.099	4.54
484.534	4.53
484.968	4.54
485.403	4.55
485.837	4.55
486.271	4.57
486.706	4.58
487.14	4.59
487.574	4.6
488.009	4.62
488.443	4.62
488.877	4.65
489.311	4.67
489.745	4.69
490.179	4.72
490.613	4.74
491.046	4.76
491.48	4.79
491.914	4.82
492.348	4.86
492.781	4.89
493.215	4.93
493.648	4.98
494.082	5.02
494.515	5.06
494.948	5.11
495.382	5.15
495.815	5.21
496.248	5.26
496.681	5.33
497.114	5.39
497.547	5.45
497.98	5.53
498.413	5.59
498.846	5.66
499.279	5.74
499.711	5.83
500.144	5.93
500.577	6.02
501.009	6.11
501.442	6.21
501.874	6.33
502.306	6.44
502.739	6.56
503.171	6.68
503.603	6.82
504.036	6.97
504.468	7.11
504.9	7.25
505.332	7.4
505.764	7.57
506.196	7.73
506.627	7.91
507.059	8.09
507.491	8.27
507.923	8.47
508.354	8.67
508.786	8.88
509.217	9.1
509.649	9.33
510.08	9.56
510.512	9.8
510.943	10.04
511.374	10.28
511.805	10.53
512.237	10.78
512.668	11.04
513.099	11.29
513.53	11.56
513.961	11.83
514.391	12.11
514.822	12.4
515.253	12.68
515.684	12.97
516.114	13.27
516.545	13.55
516.975	13.85
517.406	14.15
517.836	14.45
518.267	14.75
518.697	15.03
519.127	15.31
519.558	15.59
519.988	15.88
520.418	16.16
520.848	16.43
521.278	16.7
521.708	17.13
522.138	17.4
522.567	17.68
522.997	17.94
523.427	18.21
523.857	18.47
524.286	18.71
524.716	18.94
525.145	19.18
525.575	19.41
526.004	19.64
526.433	19.7
526.863	19.9
527.292	20.09
527.721	20.27
528.15	20.45
528.579	20.62
529.008	20.8
529.437	20.95
529.866	21.1
530.295	21.24
530.724	21.38
531.152	21.52
531.581	21.64
532.01	21.76
532.438	21.88
532.867	21.98
533.295	22.08
533.723	22.17
534.152	22.28
534.58	22.38
535.008	22.44
535.436	22.54
535.865	22.59
536.293	22.65
536.721	22.72
537.149	22.79
537.576	22.85
538.004	22.91
538.432	22.96
538.86	22.99
539.287	23
539.715	23.07
540.143	23.08
540.57	23.12
540.998	23.14
541.425	23.16
541.852	23.18
542.28	23.19
542.707	23.21
543.134	23.22
543.561	23.24
543.988	23.28
544.415	23.28
544.842	23.29
545.269	23.32
545.696	23.36
546.123	23.39
546.549	23.41
546.976	23.43
547.403	23.47
547.829	23.49
548.256	23.51
548.682	23.51
549.108	23.53
549.535	23.54
549.961	23.54
550.387	23.53
550.813	23.52
551.24	23.5
551.666	23.51
552.092	23.49
552.518	23.48
552.943	23.47
553.369	23.47
553.795	23.43
554.221	23.41
554.646	23.37
555.072	23.34
555.498	23.3
555.923	23.26
556.349	23.18
556.774	23.11
557.199	23.04
557.625	22.96
558.05	22.88
558.475	22.81
558.9	22.71
559.325	22.64
559.75	22.56
560.175	22.47
560.6	22.36
561.025	22.27
561.449	22.16
561.874	22.04
562.299	21.92
562.723	21.79
563.148	21.66
563.572	21.54
563.997	21.4
564.421	21.24
564.846	21.1
565.27	20.96
565.694	20.82
566.118	20.67
566.542	20.52
566.966	20.38
567.39	20.21
567.814	20.06
568.238	19.9
568.662	19.76
569.086	19.61
569.509	19.47
569.933	19.33
570.357	19.17
570.78	19.02
571.204	18.87
571.627	18.72
572.05	18.59
572.474	18.46
572.897	18.32
573.32	18.18
573.743	18.04
574.166	17.91
574.589	17.77
575.012	17.65
575.435	17.52
575.858	17.4
576.281	17.28
576.704	17.17
577.126	17.06
577.549	16.96
577.972	16.86
578.394	16.75
578.817	16.66
579.239	16.57
579.661	16.5
580.084	16.41
580.506	16.33
580.928	16.25
581.35	16.17
581.772	16.08
582.194	16
582.616	15.94
583.038	15.86
583.46	15.77
583.882	15.69
584.303	15.61
584.725	15.54
585.147	15.47
585.568	15.41
585.99	15.34
586.411	15.28
586.833	15.22
587.254	15.13
587.675	15.06
588.096	15
588.518	14.94
588.939	14.89
589.36	14.83
589.781	14.79
590.202	14.75
590.623	14.71
591.043	14.65
591.464	14.6
591.885	14.56
592.305	14.53
592.726	14.5
593.147	14.46
593.567	14.44
593.987	14.41
594.408	14.37
594.828	14.32
595.248	14.27
595.669	14.24
596.089	14.21
596.509	14.19
596.929	14.16
597.349	14.12
597.769	14.08
598.189	14.04
598.608	14
599.028	13.96
599.448	13.93
599.867	13.89
600.287	13.85
600.706	13.8
601.126	13.75
601.545	13.7
601.965	13.67
602.384	13.61
602.803	13.55
603.222	13.5
603.641	13.44
604.061	13.38
604.48	13.32
604.898	13.25
605.317	13.2
605.736	13.13
606.155	13.06
606.574	12.98
606.992	12.91
607.411	12.84
607.829	12.74
608.248	12.65
608.666	12.58
609.085	12.49
609.503	12.43
609.921	12.34
610.339	12.27
610.758	12.18
611.176	12.1
611.594	12.02
612.012	11.95
612.43	11.9
612.847	11.83
613.265	11.74
613.683	11.68
614.101	11.59
614.518	11.53
614.936	11.45
615.353	11.37
615.771	11.3
616.188	11.24
616.606	11.18
617.023	11.11
617.44	11.05
617.857	11
618.274	10.94
618.691	10.88
619.108	10.82
619.525	10.77
619.942	10.74
620.359	10.71
620.776	10.66
621.192	10.63
621.609	10.6
622.026	10.57
622.442	10.54
622.859	10.51
623.275	10.49
623.691	10.47
624.108	10.46
624.524	10.43
624.94	10.42
625.356	10.4
625.772	10.39
626.188	10.37
626.604	10.35
627.02	10.34
627.436	10.34
627.852	10.34
628.268	10.33
628.683	10.33
629.099	10.31
629.514	10.3
629.93	10.28
630.345	10.26
630.761	10.23
631.176	10.21
631.591	10.17
632.007	10.14
632.422	10.08
632.837	10.03
633.252	9.96
633.667	9.91
634.082	9.83
634.497	9.76
634.911	9.69
635.326	9.62
635.741	9.54
636.155	9.45
636.57	9.36
636.984	9.27
637.399	9.18
637.813	9.08
638.228	8.98
638.642	8.87
639.056	8.76
639.47	8.65
639.884	8.54
640.298	8.42
640.712	8.31
641.126	8.2
641.54	8.08
641.954	7.96
642.368	7.84
642.781	7.74
643.195	7.63
643.609	7.53
644.022	7.43
644.436	7.32
644.849	7.22
645.262	7.12
645.676	7.02
646.089	6.94
646.502	6.87
646.915	6.8
647.328	6.73
647.741	6.68
648.154	6.62
648.567	6.57
648.98	6.51
649.393	6.47
649.805	6.44
650.218	6.4
650.631	6.37
651.043	6.34
651.456	6.31
651.868	6.27
652.28	6.23
652.693	6.2
653.105	6.16
653.517	6.12
653.929	6.08
654.341	6.03
654.753	5.98
655.165	5.93
655.577	5.88
655.989	5.81
656.401	5.76
656.813	5.71
657.224	5.63
657.636	5.57
658.047	5.5
658.459	5.43
658.87	5.36
659.282	5.27
659.693	5.2
660.104	5.12
660.515	5.04
660.926	4.97
661.338	4.89
661.749	4.83
662.159	4.76
662.57	4.71
662.981	4.66
663.392	4.61
663.803	4.56
664.213	4.51
664.624	4.46
665.035	4.42
665.445	4.38
665.855	4.34
666.266	4.32
666.676	4.29
667.086	4.26
667.497	4.24
667.907	4.22
668.317	4.21
668.727	4.2
669.137	4.2
669.547	4.2
669.956	4.2
670.366	4.21
670.776	4.2
671.186	4.2
671.595	4.2
672.005	4.2
672.414	4.21
672.824	4.22
673.233	4.23
673.642	4.24
674.052	4.25
674.461	4.26
674.87	4.27
675.279	4.3
675.688	4.33
676.097	4.35
676.506	4.38
676.915	4.41
677.323	4.44
677.732	4.47
678.141	4.5
678.549	4.54
678.958	4.57
679.366	4.61
679.775	4.65
680.183	4.7
680.592	4.76
681	4.83
681.408	4.9
681.816	4.98
682.224	5.06
682.632	5.17
683.04	5.28
683.448	5.4
683.856	5.54
684.264	5.69
684.671	5.86
685.079	6.03
685.487	6.23
685.894	6.45
686.302	6.7
686.709	6.97
687.116	7.26
687.524	7.58
687.931	7.93
688.338	8.3
688.745	8.7
689.152	9.12
689.559	9.57
689.966	10.03
690.373	10.52
690.78	11.04
691.187	11.55
691.593	12.1
692	12.65
692.407	13.2
692.813	13.75
693.22	14.32
693.626	14.9
694.032	15.48
694.439	16.08
694.845	16.68
695.251	17.25
695.657	17.82
696.063	18.41
696.469	18.98
696.875	19.56
697.281	20.14
697.687	20.73
698.093	21.29
698.498	21.85
698.904	22.4
699.31	22.93
699.715	23.49
700.12	24.04
700.526	24.57
700.931	25.1
701.337	25.64
701.742	26.16
702.147	26.66
702.552	27.15
702.957	27.61
703.362	28.07
703.767	28.54
704.172	28.98
704.577	29.43
704.981	29.88
705.386	30.33
705.791	30.73
706.195	31.13
706.6	31.54
707.004	31.92
707.408	32.34
707.813	32.73
708.217	33.1
708.621	33.49
709.025	33.85
709.43	34.2
709.834	34.55
710.237	34.9
710.641	35.24
711.045	35.57
711.449	35.91
711.853	36.24
712.256	36.56
712.66	36.88
713.064	37.18
713.467	37.48
713.87	37.79
714.274	38.05
714.677	38.33
715.08	38.6
715.484	38.89
715.887	39.17
716.29	39.42
716.693	39.69
717.096	39.95
717.499	40.21
717.901	40.46
718.304	40.7
718.707	40.97
719.109	41.22
719.512	41.45
719.915	41.66
720.317	41.86
720.719	42.05
721.122	42.25
721.524	42.45
721.926	42.64
722.328	42.84
722.731	42.99
723.133	43.17
723.535	43.32
723.937	43.5
724.338	43.66
724.74	43.79
725.142	44.05
725.544	44.2
725.945	44.34
726.347	44.46
726.748	44.59
727.15	44.7
727.551	44.84
727.952	44.94
728.354	45.04
728.755	45.16
729.156	45.28
729.557	45.29
729.958	45.37
730.359	45.47
730.76	45.59
731.161	45.68
731.562	45.79
731.962	45.84
732.363	45.95
732.763	46.05
733.164	46.15
733.564	46.23
733.965	46.3
734.365	46.39
734.766	46.45
735.166	46.5
735.566	46.55
735.966	46.63
736.366	46.69
736.766	46.73
737.166	46.75
737.566	46.78
737.966	46.84
738.365	46.9
738.765	46.95
739.165	47
739.564	47.06
739.964	47.11
740.363	47.13
740.763	47.18
741.162	47.24
741.561	47.28
741.96	47.3
742.36	47.34
742.759	47.38
743.158	47.4
743.557	47.42
743.955	47.44
744.354	47.45
744.753	47.51
745.152	47.57
745.55	47.61
745.949	47.65
746.348	47.71
746.746	47.7
747.144	47.76
747.543	47.76
747.941	47.79
748.339	47.79
748.737	47.8
749.136	47.79
749.534	47.75
749.932	47.74
750.33	47.72
750.727	47.72
751.125	47.73
751.523	47.69
751.921	47.72
752.318	47.72
752.716	47.73
753.113	47.73
753.511	47.73
753.908	47.76
754.305	47.78
754.703	47.77
755.1	47.77
755.497	47.77
755.894	47.75
756.291	47.73
756.688	47.7
757.085	47.71
757.482	47.72
757.878	47.72
758.275	47.7
758.672	47.68
759.068	47.75
759.465	47.74
759.861	47.74
760.258	47.76
760.654	47.76
761.05	47.79
761.447	47.8
761.843	47.79
762.239	47.79
762.635	47.8
763.031	47.79
763.427	47.73
763.822	47.73
764.218	47.74
764.614	47.74
765.01	47.74
765.405	47.72
765.801	47.7
766.196	47.69
766.592	47.7
766.987	47.72
767.382	47.71
767.778	47.74
768.173	47.77
768.568	47.74
768.963	47.76
769.358	47.78
769.753	47.79
770.148	47.8
770.542	47.83
770.937	47.81
771.332	47.79
771.726	47.79
772.121	47.78
772.515	47.75
772.91	47.77
773.304	47.76
773.699	47.74
774.093	47.75
774.487	47.74
774.881	47.74
775.275	47.77
775.669	47.76
776.063	47.76
776.457	47.79
776.851	47.77
777.245	47.78
777.638	47.76
778.032	47.78
778.425	47.81
778.819	47.82
779.212	47.82
779.606	47.83
779.999	47.86
780.392	47.89
780.786	47.88
781.179	47.88
781.572	47.89
781.965	47.92
782.358	47.93
