Data from C_2_DIV_IL_4N_Splice17_13-40-35-904.txt Node
Date: Sat Mar 07 13:40:35 EST 2020
User: sa697716
Spectrometer: NQ5500242
Trigger mode: 0
Integration Time (sec): 1.450000E-1
Scans to average: 20
Nonlinearity correction enabled: false
Boxcar width: 5
Storing dark spectrum: false
XAxis mode: Wavelengths
Number of Pixels in Spectrum: 512
>>>>>Begin Spectral Data<<<<<
187.83	225.42
188.298	270.42
188.766	253.22
189.233	201.9
189.701	208.53
190.169	246.05
190.636	285.72
191.104	428.47
191.571	333.12
192.039	67.45
192.506	-75.78
192.974	-81.59
193.441	181.58
193.908	40.84
194.375	28.34
194.842	23.09
195.31	78.15
195.777	263.93
196.244	97.72
196.711	93.24
197.177	94.49
197.644	94.18
198.111	95.31
198.578	95.54
199.045	96.21
199.511	95.46
199.978	95.1
200.445	95.59
200.911	95.46
201.378	95.52
201.844	95.59
202.31	95.52
202.777	95.64
203.243	95.16
203.709	94.46
204.176	93.89
204.642	93.64
205.108	93.2
205.574	92.23
206.04	91.21
206.506	90.44
206.972	89.9
207.438	88.8
207.903	87.27
208.369	85.57
208.835	83.74
209.301	81.65
209.766	79.48
210.232	77.53
210.697	75.06
211.163	73.07
211.628	71.28
212.094	69.24
212.559	67.87
213.024	66.4
213.49	64.95
213.955	63.48
214.42	62.01
214.885	59.97
215.35	57.44
215.815	54.81
216.28	50.96
216.745	46.71
217.21	42.54
217.675	38.5
218.14	35.06
218.604	32.13
219.069	29.68
219.534	27.69
219.998	26.06
220.463	24.72
220.927	23.45
221.392	22.54
221.856	21.77
222.32	21.09
222.785	20.49
223.249	19.95
223.713	19.43
224.177	19.03
224.642	18.61
225.106	18.18
225.57	17.75
226.034	17.45
226.497	17.12
226.961	16.79
227.425	16.5
227.889	16.24
228.353	15.96
228.816	15.7
229.28	15.44
229.744	15.19
230.207	14.99
230.671	14.76
231.134	14.53
231.597	14.34
232.061	14.13
232.524	13.93
232.987	13.71
233.45	13.55
233.914	13.38
234.377	13.2
234.84	13.02
235.303	12.86
235.766	12.73
236.229	12.58
236.691	12.43
237.154	12.3
237.617	12.18
238.08	12.07
238.542	11.94
239.005	11.82
239.468	11.69
239.93	11.58
240.393	11.48
240.855	11.34
241.317	11.23
241.78	11.11
242.242	10.99
242.704	10.89
243.166	10.78
243.629	10.68
244.091	10.57
244.553	10.48
245.015	10.38
245.477	10.26
245.939	10.17
246.4	10.08
246.862	9.99
247.324	9.9
247.786	9.8
248.247	9.71
248.709	9.61
249.17	9.52
249.632	9.46
250.093	9.38
250.555	9.31
251.016	9.24
251.477	9.16
251.939	9.1
252.4	9.04
252.861	8.97
253.322	8.92
253.783	8.86
254.244	8.82
254.705	8.74
255.166	8.67
255.627	8.61
256.088	8.56
256.549	8.5
257.009	8.42
257.47	8.35
257.931	8.29
258.391	8.2
258.852	8.13
259.312	8.05
259.773	8
260.233	7.94
260.694	7.88
261.154	7.81
261.614	7.76
262.074	7.7
262.534	7.65
262.994	7.6
263.455	7.57
263.915	7.52
264.374	7.48
264.834	7.45
265.294	7.41
265.754	7.37
266.214	7.34
266.673	7.32
267.133	7.29
267.593	7.26
268.052	7.24
268.512	7.22
268.971	7.21
269.431	7.18
269.89	7.16
270.349	7.14
270.809	7.12
271.268	7.1
271.727	7.08
272.186	7.07
272.645	7.05
273.104	7.03
273.563	7.01
274.022	6.99
274.481	6.97
274.94	6.96
275.399	6.94
275.857	6.92
276.316	6.9
276.775	6.88
277.233	6.86
277.692	6.85
278.15	6.84
278.609	6.83
279.067	6.82
279.525	6.81
279.984	6.79
280.442	6.78
280.9	6.78
281.358	6.78
281.816	6.77
282.274	6.76
282.732	6.74
283.19	6.73
283.648	6.71
284.106	6.7
284.564	6.68
285.021	6.68
285.479	6.66
285.937	6.63
286.394	6.61
286.852	6.58
287.309	6.56
287.767	6.53
288.224	6.49
288.682	6.46
289.139	6.43
289.596	6.39
290.053	6.35
290.511	6.31
290.968	6.29
291.425	6.25
291.882	6.23
292.339	6.2
292.796	6.19
293.252	6.17
293.709	6.15
294.166	6.14
294.623	6.12
295.079	6.11
295.536	6.09
295.992	6.08
296.449	6.07
296.905	6.06
297.362	6.05
297.818	6.03
298.274	6.02
298.731	6
299.187	5.98
299.643	5.97
300.099	5.97
300.555	5.96
301.011	5.94
301.467	5.94
301.923	5.92
302.379	5.91
302.835	5.91
303.291	5.9
303.746	5.89
304.202	5.89
304.658	5.89
305.113	5.88
305.569	5.89
306.024	5.88
306.479	5.88
306.935	5.87
307.39	5.88
307.845	5.87
308.301	5.89
308.756	5.89
309.211	5.89
309.666	5.89
310.121	5.89
310.576	5.88
311.031	5.88
311.486	5.87
311.94	5.88
312.395	5.87
312.85	5.86
313.305	5.86
313.759	5.86
314.214	5.85
314.668	5.84
315.123	5.83
315.577	5.82
316.032	5.82
316.486	5.8
316.94	5.79
317.394	5.78
317.849	5.76
318.303	5.73
318.757	5.71
319.211	5.69
319.665	5.68
320.119	5.66
320.572	5.64
321.026	5.63
321.48	5.61
321.934	5.6
322.387	5.59
322.841	5.58
323.295	5.59
323.748	5.58
324.202	5.58
324.655	5.58
325.108	5.58
325.562	5.58
326.015	5.57
326.468	5.56
326.921	5.57
327.374	5.56
327.827	5.58
328.28	5.57
328.733	5.57
329.186	5.56
329.639	5.57
330.092	5.56
330.545	5.57
330.997	5.57
331.45	5.59
331.903	5.59
332.355	5.6
332.808	5.6
333.26	5.6
333.713	5.6
334.165	5.6
334.617	5.6
335.069	5.59
335.522	5.59
335.974	5.59
336.426	5.57
336.878	5.56
337.33	5.56
337.782	5.56
338.234	5.56
338.686	5.56
339.137	5.56
339.589	5.54
340.041	5.55
340.493	5.52
340.944	5.5
341.396	5.49
341.847	5.47
342.299	5.44
342.75	5.42
343.201	5.38
343.653	5.36
344.104	5.32
344.555	5.31
345.006	5.29
345.457	5.28
345.908	5.27
346.359	5.26
346.81	5.25
347.261	5.23
347.712	5.23
348.163	5.23
348.613	5.24
349.064	5.24
349.515	5.23
349.965	5.24
350.416	5.23
350.866	5.23
351.317	5.22
351.767	5.23
352.217	5.24
352.668	5.23
353.118	5.23
353.568	5.22
354.018	5.23
354.468	5.23
354.918	5.23
355.368	5.24
355.818	5.25
356.268	5.26
356.718	5.26
357.168	5.25
357.617	5.25
358.067	5.25
358.517	5.26
358.966	5.26
359.416	5.27
359.865	5.25
360.315	5.25
360.764	5.24
361.213	5.24
361.663	5.23
362.112	5.24
362.561	5.24
363.01	5.24
363.459	5.21
363.908	5.21
364.357	5.2
364.806	5.2
365.255	5.2
365.703	5.21
366.152	5.21
366.601	5.22
367.05	5.22
367.498	5.22
367.947	5.22
368.395	5.23
368.844	5.23
369.292	5.23
369.74	5.23
370.189	5.21
370.637	5.2
371.085	5.19
371.533	5.18
371.981	5.18
372.429	5.18
372.877	5.18
373.325	5.18
373.773	5.17
374.221	5.17
374.669	5.16
375.116	5.16
375.564	5.15
376.012	5.16
376.459	5.15
376.907	5.15
377.354	5.14
377.801	5.15
378.249	5.15
378.696	5.15
379.143	5.15
379.591	5.15
380.038	5.15
380.485	5.15
380.932	5.15
381.379	5.16
381.826	5.15
382.273	5.17
382.72	5.14
383.166	5.14
383.613	5.14
384.06	5.14
384.506	5.15
384.953	5.15
385.4	5.16
385.846	5.17
386.292	5.17
386.739	5.18
387.185	5.18
387.631	5.19
388.078	5.22
388.524	5.23
388.97	5.24
389.416	5.27
389.862	5.3
390.308	5.32
390.754	5.35
391.2	5.38
391.645	5.41
392.091	5.46
392.537	5.5
392.983	5.52
393.428	5.55
393.874	5.58
394.319	5.61
394.765	5.63
395.21	5.65
395.655	5.69
396.101	5.72
396.546	5.74
396.991	5.77
397.436	5.81
397.881	5.85
398.326	5.89
398.771	5.93
399.216	5.96
399.661	6
400.106	6.03
400.551	6.06
400.995	6.07
401.44	6.1
401.885	6.13
402.329	6.16
402.774	6.19
403.218	6.24
403.663	6.27
404.107	6.3
404.551	6.32
404.995	6.35
405.44	6.38
405.884	6.43
406.328	6.46
406.772	6.48
407.216	6.51
407.66	6.53
408.104	6.54
408.547	6.55
408.991	6.59
409.435	6.63
409.879	6.67
410.322	6.72
410.766	6.76
411.209	6.81
411.653	6.86
412.096	6.91
412.54	6.95
412.983	7.01
413.426	7.09
413.869	7.14
414.312	7.19
414.756	7.23
415.199	7.25
415.642	7.27
416.085	7.28
416.527	7.3
416.97	7.3
417.413	7.32
417.856	7.31
418.298	7.3
418.741	7.3
419.184	7.3
419.626	7.3
420.069	7.32
420.511	7.34
420.953	7.36
421.396	7.39
421.838	7.41
422.28	7.44
422.722	7.48
423.164	7.5
423.606	7.51
424.048	7.54
424.49	7.55
424.932	7.54
425.374	7.52
425.816	7.49
426.258	7.49
426.699	7.48
427.141	7.48
427.582	7.49
428.024	7.51
428.465	7.53
428.907	7.53
429.348	7.51
429.789	7.53
430.231	7.59
430.672	7.63
431.113	7.68
431.554	7.7
431.995	7.72
432.436	7.72
432.877	7.74
433.318	7.77
433.759	7.82
434.2	7.87
434.64	7.9
435.081	7.9
435.522	7.92
435.962	7.93
436.403	7.98
436.843	7.99
437.284	8
437.724	8.01
438.164	7.98
438.604	8
439.045	8.01
439.485	8.03
439.925	8.06
440.365	8.05
440.805	8.06
441.245	8.07
441.685	8.11
442.125	8.15
442.564	8.17
443.004	8.2
443.444	8.21
443.883	8.23
444.323	8.23
444.762	8.24
445.202	8.26
445.641	8.3
446.081	8.32
446.52	8.3
446.959	8.33
447.398	8.35
447.837	8.37
448.276	8.39
448.716	8.41
449.154	8.43
449.593	8.47
450.032	8.47
450.471	8.45
450.91	8.45
451.349	8.47
451.787	8.43
452.226	8.42
452.664	8.4
453.103	8.37
453.541	8.35
453.98	8.34
454.418	8.3
454.856	8.28
455.295	8.28
455.733	8.24
456.171	8.22
456.609	8.21
457.047	8.19
457.485	8.18
457.923	8.17
458.361	8.15
458.798	8.13
459.236	8.13
459.674	8.12
460.111	8.11
460.549	8.14
460.987	8.14
461.424	8.15
461.862	8.16
462.299	8.16
462.736	8.16
463.173	8.19
463.611	8.2
464.048	8.22
464.485	8.23
464.922	8.24
465.359	8.24
465.796	8.27
466.233	8.28
466.67	8.28
467.106	8.29
467.543	8.29
467.98	8.28
468.416	8.25
468.853	8.25
469.29	8.25
469.726	8.25
470.162	8.24
470.599	8.2
471.035	8.2
471.471	8.18
471.907	8.16
472.344	8.17
472.78	8.17
473.216	8.16
473.652	8.15
474.088	8.12
474.523	8.12
474.959	8.1
475.395	8.09
475.831	8.07
476.266	8.06
476.702	8.04
477.138	8.04
477.573	8.01
478.008	8
478.444	7.98
478.879	7.99
479.314	7.97
479.75	7.95
480.185	7.94
480.62	7.92
481.055	7.9
481.49	7.9
481.925	7.88
482.36	7.87
482.795	7.87
483.229	7.87
483.664	7.86
484.099	7.86
484.534	7.86
484.968	7.88
485.403	7.88
485.837	7.88
486.271	7.89
486.706	7.9
487.14	7.9
487.574	7.91
488.009	7.92
488.443	7.94
488.877	7.97
489.311	7.99
489.745	8.01
490.179	8.05
490.613	8.09
491.046	8.12
491.48	8.15
491.914	8.2
492.348	8.24
492.781	8.28
493.215	8.33
493.648	8.37
494.082	8.42
494.515	8.46
494.948	8.51
495.382	8.56
495.815	8.62
496.248	8.68
496.681	8.74
497.114	8.81
497.547	8.89
497.98	8.97
498.413	9.05
498.846	9.13
499.279	9.21
499.711	9.3
500.144	9.39
500.577	9.49
501.009	9.59
501.442	9.71
501.874	9.82
502.306	9.92
502.739	10.06
503.171	10.18
503.603	10.31
504.036	10.46
504.468	10.6
504.9	10.74
505.332	10.91
505.764	11.08
506.196	11.24
506.627	11.43
507.059	11.61
507.491	11.78
507.923	11.97
508.354	12.18
508.786	12.38
509.217	12.61
509.649	12.84
510.08	13.06
510.512	13.29
510.943	13.52
511.374	13.77
511.805	14.02
512.237	14.28
512.668	14.55
513.099	14.82
513.53	15.09
513.961	15.37
514.391	15.65
514.822	15.96
515.253	16.24
515.684	16.53
516.114	16.83
516.545	17.13
516.975	17.44
517.406	17.74
517.836	18.05
518.267	18.34
518.697	18.63
519.127	18.91
519.558	19.2
519.988	19.49
520.418	19.77
520.848	20.05
521.278	20.34
521.708	20.87
522.138	21.15
522.567	21.42
522.997	21.69
523.427	21.97
523.857	22.23
524.286	22.48
524.716	22.75
525.145	23.01
525.575	23.25
526.004	23.48
526.433	23.46
526.863	23.68
527.292	23.91
527.721	24.11
528.15	24.3
528.579	24.49
529.008	24.68
529.437	24.84
529.866	24.99
530.295	25.14
530.724	25.3
531.152	25.44
531.581	25.59
532.01	25.71
532.438	25.86
532.867	25.99
533.295	26.12
533.723	26.23
534.152	26.34
534.58	26.46
535.008	26.54
535.436	26.63
535.865	26.73
536.293	26.81
536.721	26.88
537.149	26.95
537.576	27.02
538.004	27.1
538.432	27.17
538.86	27.25
539.287	27.31
539.715	27.38
540.143	27.43
540.57	27.48
540.998	27.53
541.425	27.59
541.852	27.64
542.28	27.69
542.707	27.74
543.134	27.79
543.561	27.83
543.988	27.88
544.415	27.92
544.842	27.95
545.269	28
545.696	28.04
546.123	28.08
546.549	28.12
546.976	28.15
547.403	28.19
547.829	28.22
548.256	28.24
548.682	28.26
549.108	28.31
549.535	28.36
549.961	28.38
550.387	28.4
550.813	28.42
551.24	28.43
551.666	28.44
552.092	28.44
552.518	28.44
552.943	28.45
553.369	28.46
553.795	28.43
554.221	28.41
554.646	28.4
555.072	28.36
555.498	28.32
555.923	28.3
556.349	28.23
556.774	28.18
557.199	28.12
557.625	28.07
558.05	27.99
558.475	27.93
558.9	27.88
559.325	27.81
559.75	27.74
560.175	27.66
560.6	27.57
561.025	27.49
561.449	27.38
561.874	27.28
562.299	27.18
562.723	27.07
563.148	26.93
563.572	26.79
563.997	26.65
564.421	26.5
564.846	26.35
565.27	26.21
565.694	26.08
566.118	25.95
566.542	25.81
566.966	25.65
567.39	25.5
567.814	25.36
568.238	25.21
568.662	25.07
569.086	24.92
569.509	24.79
569.933	24.67
570.357	24.52
570.78	24.37
571.204	24.23
571.627	24.1
572.05	23.95
572.474	23.83
572.897	23.7
573.32	23.58
573.743	23.46
574.166	23.34
574.589	23.21
575.012	23.08
575.435	22.96
575.858	22.85
576.281	22.74
576.704	22.65
577.126	22.55
577.549	22.45
577.972	22.34
578.394	22.23
578.817	22.13
579.239	22.03
579.661	21.94
580.084	21.86
580.506	21.77
580.928	21.68
581.35	21.6
581.772	21.51
582.194	21.44
582.616	21.37
583.038	21.29
583.46	21.21
583.882	21.14
584.303	21.04
584.725	20.96
585.147	20.91
585.568	20.84
585.99	20.77
586.411	20.71
586.833	20.63
587.254	20.56
587.675	20.5
588.096	20.44
588.518	20.39
588.939	20.36
589.36	20.3
589.781	20.22
590.202	20.19
590.623	20.14
591.043	20.07
591.464	20.03
591.885	19.99
592.305	19.96
592.726	19.93
593.147	19.89
593.567	19.83
593.987	19.8
594.408	19.77
594.828	19.71
595.248	19.69
595.669	19.66
596.089	19.63
596.509	19.59
596.929	19.56
597.349	19.51
597.769	19.48
598.189	19.44
598.608	19.4
599.028	19.37
599.448	19.33
599.867	19.29
600.287	19.25
600.706	19.2
601.126	19.15
601.545	19.1
601.965	19.06
602.384	19.02
602.803	18.97
603.222	18.92
603.641	18.85
604.061	18.79
604.48	18.72
604.898	18.64
605.317	18.58
605.736	18.52
606.155	18.44
606.574	18.36
606.992	18.27
607.411	18.19
607.829	18.08
608.248	18
608.666	17.91
609.085	17.83
609.503	17.76
609.921	17.66
610.339	17.58
610.758	17.5
611.176	17.4
611.594	17.34
612.012	17.25
612.43	17.19
612.847	17.1
613.265	17.01
613.683	16.93
614.101	16.85
614.518	16.77
614.936	16.7
615.353	16.6
615.771	16.54
616.188	16.45
616.606	16.38
617.023	16.33
617.44	16.28
617.857	16.22
618.274	16.17
618.691	16.11
619.108	16.06
619.525	16.01
619.942	15.97
620.359	15.94
620.776	15.91
621.192	15.87
621.609	15.83
622.026	15.79
622.442	15.76
622.859	15.73
623.275	15.7
623.691	15.67
624.108	15.65
624.524	15.63
624.94	15.61
625.356	15.59
625.772	15.57
626.188	15.57
626.604	15.57
627.02	15.56
627.436	15.56
627.852	15.55
628.268	15.54
628.683	15.54
629.099	15.52
629.514	15.51
629.93	15.51
630.345	15.49
630.761	15.45
631.176	15.42
631.591	15.39
632.007	15.37
632.422	15.31
632.837	15.26
633.252	15.21
633.667	15.15
634.082	15.08
634.497	15.01
634.911	14.94
635.326	14.88
635.741	14.79
636.155	14.7
636.57	14.6
636.984	14.52
637.399	14.43
637.813	14.33
638.228	14.23
638.642	14.11
639.056	13.99
639.47	13.88
639.884	13.75
640.298	13.62
640.712	13.5
641.126	13.38
641.54	13.26
641.954	13.13
642.368	13
642.781	12.88
643.195	12.77
643.609	12.65
644.022	12.53
644.436	12.42
644.849	12.32
645.262	12.21
645.676	12.11
646.089	12.02
646.502	11.93
646.915	11.85
647.328	11.77
647.741	11.7
648.154	11.63
648.567	11.58
648.98	11.52
649.393	11.45
649.805	11.41
650.218	11.34
650.631	11.3
651.043	11.25
651.456	11.19
651.868	11.13
652.28	11.09
652.693	11.04
653.105	10.97
653.517	10.91
653.929	10.85
654.341	10.79
654.753	10.72
655.165	10.64
655.577	10.58
655.989	10.5
656.401	10.42
656.813	10.33
657.224	10.23
657.636	10.13
658.047	10.05
658.459	9.94
658.87	9.83
659.282	9.73
659.693	9.63
660.104	9.51
660.515	9.41
660.926	9.31
661.338	9.21
661.749	9.12
662.159	9.03
662.57	8.95
662.981	8.87
663.392	8.8
663.803	8.72
664.213	8.64
664.624	8.58
665.035	8.5
665.445	8.44
665.855	8.37
666.266	8.32
666.676	8.27
667.086	8.2
667.497	8.14
667.907	8.11
668.317	8.08
668.727	8.06
669.137	8.02
669.547	8
669.956	7.98
670.366	7.97
670.776	7.95
671.186	7.94
671.595	7.94
672.005	7.93
672.414	7.92
672.824	7.91
673.233	7.91
673.642	7.91
674.052	7.92
674.461	7.91
674.87	7.92
675.279	7.95
675.688	7.96
676.097	7.97
676.506	8
676.915	8.03
677.323	8.06
677.732	8.09
678.141	8.12
678.549	8.16
678.958	8.21
679.366	8.27
679.775	8.32
680.183	8.39
680.592	8.49
681	8.58
681.408	8.68
681.816	8.8
682.224	8.93
682.632	9.07
683.04	9.24
683.448	9.41
683.856	9.59
684.264	9.8
684.671	10.03
685.079	10.26
685.487	10.53
685.894	10.83
686.302	11.15
686.709	11.49
687.116	11.87
687.524	12.26
687.931	12.68
688.338	13.13
688.745	13.6
689.152	14.08
689.559	14.61
689.966	15.14
690.373	15.69
690.78	16.27
691.187	16.84
691.593	17.44
692	18.03
692.407	18.64
692.813	19.26
693.22	19.89
693.626	20.53
694.032	21.17
694.439	21.8
694.845	22.42
695.251	23.04
695.657	23.67
696.063	24.29
696.469	24.92
696.875	25.55
697.281	26.16
697.687	26.77
698.093	27.36
698.498	27.94
698.904	28.5
699.31	29.06
699.715	29.62
700.12	30.18
700.526	30.71
700.931	31.24
701.337	31.75
701.742	32.26
702.147	32.75
702.552	33.24
702.957	33.68
703.362	34.15
703.767	34.59
704.172	35.02
704.577	35.45
704.981	35.89
705.386	36.3
705.791	36.69
706.195	37.09
706.6	37.5
707.004	37.87
707.408	38.26
707.813	38.67
708.217	39.03
708.621	39.39
709.025	39.72
709.43	40.06
709.834	40.41
710.237	40.76
710.641	41.06
711.045	41.37
711.449	41.7
711.853	42.04
712.256	42.3
712.66	42.62
713.064	42.92
713.467	43.24
713.87	43.55
714.274	43.81
714.677	44.1
715.08	44.39
715.484	44.65
715.887	44.95
716.29	45.19
716.693	45.48
717.096	45.71
717.499	45.95
717.901	46.2
718.304	46.4
718.707	46.64
719.109	46.85
719.512	47.07
719.915	47.3
720.317	47.46
720.719	47.63
721.122	47.83
721.524	48.02
721.926	48.22
722.328	48.4
722.731	48.56
723.133	48.73
723.535	48.9
723.937	49.06
724.338	49.19
724.74	49.35
725.142	49.67
725.544	49.79
725.945	49.96
726.347	50.06
726.748	50.16
727.15	50.27
727.551	50.4
727.952	50.5
728.354	50.58
728.755	50.7
729.156	50.79
729.557	50.71
729.958	50.79
730.359	50.86
730.76	50.97
731.161	51.08
731.562	51.19
731.962	51.24
732.363	51.35
732.763	51.43
733.164	51.49
733.564	51.57
733.965	51.65
734.365	51.74
734.766	51.81
735.166	51.86
735.566	51.9
735.966	51.95
736.366	52.02
736.766	52.04
737.166	52.1
737.566	52.15
737.966	52.19
738.365	52.23
738.765	52.28
739.165	52.31
739.564	52.36
739.964	52.42
740.363	52.46
740.763	52.48
741.162	52.53
741.561	52.54
741.96	52.56
742.36	52.59
742.759	52.63
743.158	52.66
743.557	52.67
743.955	52.7
744.354	52.68
744.753	52.7
745.152	52.74
745.55	52.77
745.949	52.8
746.348	52.82
746.746	52.84
747.144	52.85
747.543	52.84
747.941	52.86
748.339	52.84
748.737	52.86
749.136	52.85
749.534	52.8
749.932	52.79
750.33	52.79
750.727	52.8
751.125	52.82
751.523	52.82
751.921	52.82
752.318	52.85
752.716	52.88
753.113	52.9
753.511	52.92
753.908	52.97
754.305	53
754.703	53.03
755.1	53.05
755.497	53.05
755.894	53.05
756.291	53.07
756.688	53.05
757.085	53.07
757.482	53.09
757.878	53.11
758.275	53.12
758.672	53.12
759.068	53.14
759.465	53.14
759.861	53.15
760.258	53.19
760.654	53.2
761.05	53.24
761.447	53.25
761.843	53.23
762.239	53.23
762.635	53.24
763.031	53.24
763.427	53.22
763.822	53.24
764.218	53.27
764.614	53.27
765.01	53.24
765.405	53.22
765.801	53.23
766.196	53.21
766.592	53.23
766.987	53.24
767.382	53.23
767.778	53.22
768.173	53.23
768.568	53.21
768.963	53.2
769.358	53.25
769.753	53.26
770.148	53.25
770.542	53.29
770.937	53.29
771.332	53.29
771.726	53.31
772.121	53.3
772.515	53.29
772.91	53.29
773.304	53.3
773.699	53.3
774.093	53.29
774.487	53.29
774.881	53.3
775.275	53.28
775.669	53.27
776.063	53.25
776.457	53.27
776.851	53.28
777.245	53.26
777.638	53.25
778.032	53.24
778.425	53.28
778.819	53.3
779.212	53.29
779.606	53.31
