Data from C_2_DIV_WI_4N_Splice17_13-21-48-129.txt Node
Date: Sat Mar 07 13:21:48 EST 2020
User: sa697716
Spectrometer: NQ5500242
Trigger mode: 0
Integration Time (sec): 1.450000E-1
Scans to average: 20
Nonlinearity correction enabled: false
Boxcar width: 5
Storing dark spectrum: false
XAxis mode: Wavelengths
Number of Pixels in Spectrum: 512
>>>>>Begin Spectral Data<<<<<
187.83	178.56
188.298	192.62
188.766	179.24
189.233	127.41
189.701	136.15
190.169	166.31
190.636	167.53
191.104	168.8
191.571	50.33
192.039	-180.81
192.506	-561
192.974	263.43
193.441	369.82
193.908	190
194.375	49.82
194.842	19.66
195.31	45.29
195.777	-13.75
196.244	30.26
196.711	41.4
197.177	46.11
197.644	45.92
198.111	45.46
198.578	45.9
199.045	46.25
199.511	46.27
199.978	46.12
200.445	46.37
200.911	46.2
201.378	46.43
201.844	46.44
202.31	45.68
202.777	45.81
203.243	46.1
203.709	45.69
204.176	45.33
204.642	45.52
205.108	45.57
205.574	45.28
206.04	44.92
206.506	44.33
206.972	44.15
207.438	43.85
207.903	43.21
208.369	42.33
208.835	41.57
209.301	40.68
209.766	39.11
210.232	38.02
210.697	37.04
211.163	36.23
211.628	35.45
212.094	34.59
212.559	33.9
213.024	32.96
213.49	32.26
213.955	31.45
214.42	30.74
214.885	29.99
215.35	28.94
215.815	27.55
216.28	25.54
216.745	23.4
217.21	21.37
217.675	19.5
218.14	17.89
218.604	16.47
219.069	15.29
219.534	14.34
219.998	13.49
220.463	12.78
220.927	12.15
221.392	11.69
221.856	11.32
222.32	10.97
222.785	10.68
223.249	10.42
223.713	10.17
224.177	9.96
224.642	9.74
225.106	9.53
225.57	9.34
226.034	9.17
226.497	9.02
226.961	8.85
227.425	8.72
227.889	8.57
228.353	8.43
228.816	8.29
229.28	8.16
229.744	8.03
230.207	7.92
230.671	7.78
231.134	7.66
231.597	7.58
232.061	7.46
232.524	7.35
232.987	7.25
233.45	7.16
233.914	7.06
234.377	6.97
234.84	6.88
235.303	6.81
235.766	6.76
236.229	6.68
236.691	6.59
237.154	6.52
237.617	6.46
238.08	6.39
238.542	6.33
239.005	6.28
239.468	6.23
239.93	6.17
240.393	6.11
240.855	6.03
241.317	5.97
241.78	5.91
242.242	5.85
242.704	5.81
243.166	5.74
243.629	5.68
244.091	5.61
244.553	5.55
245.015	5.49
245.477	5.43
245.939	5.39
246.4	5.34
246.862	5.29
247.324	5.24
247.786	5.19
248.247	5.14
248.709	5.08
249.17	5.03
249.632	5
250.093	4.96
250.555	4.92
251.016	4.88
251.477	4.83
251.939	4.8
252.4	4.76
252.861	4.73
253.322	4.7
253.783	4.66
254.244	4.64
254.705	4.6
255.166	4.55
255.627	4.52
256.088	4.5
256.549	4.47
257.009	4.43
257.47	4.39
257.931	4.35
258.391	4.31
258.852	4.28
259.312	4.25
259.773	4.21
260.233	4.19
260.694	4.16
261.154	4.12
261.614	4.1
262.074	4.06
262.534	4.04
262.994	4.02
263.455	3.99
263.915	3.96
264.374	3.93
264.834	3.91
265.294	3.88
265.754	3.86
266.214	3.83
266.673	3.81
267.133	3.79
267.593	3.78
268.052	3.76
268.512	3.75
268.971	3.74
269.431	3.73
269.89	3.72
270.349	3.71
270.809	3.69
271.268	3.68
271.727	3.67
272.186	3.66
272.645	3.65
273.104	3.64
273.563	3.63
274.022	3.62
274.481	3.61
274.94	3.61
275.399	3.6
275.857	3.59
276.316	3.58
276.775	3.57
277.233	3.56
277.692	3.55
278.15	3.54
278.609	3.54
279.067	3.53
279.525	3.52
279.984	3.51
280.442	3.5
280.9	3.5
281.358	3.5
281.816	3.5
282.274	3.49
282.732	3.49
283.19	3.48
283.648	3.47
284.106	3.46
284.564	3.46
285.021	3.45
285.479	3.45
285.937	3.44
286.394	3.43
286.852	3.42
287.309	3.41
287.767	3.39
288.224	3.38
288.682	3.38
289.139	3.36
289.596	3.34
290.053	3.32
290.511	3.3
290.968	3.29
291.425	3.27
291.882	3.25
292.339	3.23
292.796	3.22
293.252	3.2
293.709	3.19
294.166	3.19
294.623	3.18
295.079	3.17
295.536	3.16
295.992	3.15
296.449	3.15
296.905	3.15
297.362	3.14
297.818	3.13
298.274	3.13
298.731	3.12
299.187	3.11
299.643	3.11
300.099	3.11
300.555	3.1
301.011	3.1
301.467	3.09
301.923	3.08
302.379	3.07
302.835	3.07
303.291	3.07
303.746	3.06
304.202	3.06
304.658	3.06
305.113	3.05
305.569	3.05
306.024	3.05
306.479	3.04
306.935	3.04
307.39	3.04
307.845	3.04
308.301	3.04
308.756	3.04
309.211	3.05
309.666	3.05
310.121	3.05
310.576	3.06
311.031	3.06
311.486	3.06
311.94	3.07
312.395	3.07
312.85	3.06
313.305	3.06
313.759	3.06
314.214	3.05
314.668	3.04
315.123	3.03
315.577	3.03
316.032	3.01
316.486	3.01
316.94	3.01
317.394	3
317.849	2.99
318.303	2.99
318.757	2.98
319.211	2.97
319.665	2.95
320.119	2.95
320.572	2.93
321.026	2.93
321.48	2.92
321.934	2.9
322.387	2.89
322.841	2.88
323.295	2.89
323.748	2.88
324.202	2.88
324.655	2.88
325.108	2.88
325.562	2.88
326.015	2.88
326.468	2.88
326.921	2.88
327.374	2.88
327.827	2.88
328.28	2.87
328.733	2.87
329.186	2.87
329.639	2.87
330.092	2.87
330.545	2.87
330.997	2.86
331.45	2.87
331.903	2.88
332.355	2.89
332.808	2.9
333.26	2.89
333.713	2.88
334.165	2.88
334.617	2.9
335.069	2.89
335.522	2.89
335.974	2.9
336.426	2.89
336.878	2.89
337.33	2.89
337.782	2.89
338.234	2.9
338.686	2.91
339.137	2.91
339.589	2.89
340.041	2.9
340.493	2.89
340.944	2.88
341.396	2.87
341.847	2.87
342.299	2.85
342.75	2.84
343.201	2.82
343.653	2.81
344.104	2.8
344.555	2.79
345.006	2.77
345.457	2.77
345.908	2.76
346.359	2.75
346.81	2.74
347.261	2.73
347.712	2.73
348.163	2.72
348.613	2.73
349.064	2.73
349.515	2.74
349.965	2.74
350.416	2.74
350.866	2.74
351.317	2.74
351.767	2.75
352.217	2.76
352.668	2.76
353.118	2.76
353.568	2.75
354.018	2.75
354.468	2.75
354.918	2.75
355.368	2.75
355.818	2.75
356.268	2.75
356.718	2.76
357.168	2.75
357.617	2.75
358.067	2.75
358.517	2.77
358.966	2.77
359.416	2.77
359.865	2.77
360.315	2.77
360.764	2.77
361.213	2.77
361.663	2.77
362.112	2.78
362.561	2.79
363.01	2.8
363.459	2.78
363.908	2.78
364.357	2.79
364.806	2.78
365.255	2.78
365.703	2.8
366.152	2.81
366.601	2.81
367.05	2.82
367.498	2.82
367.947	2.83
368.395	2.85
368.844	2.86
369.292	2.85
369.74	2.86
370.189	2.87
370.637	2.87
371.085	2.87
371.533	2.88
371.981	2.88
372.429	2.88
372.877	2.89
373.325	2.9
373.773	2.9
374.221	2.92
374.669	2.93
375.116	2.93
375.564	2.94
376.012	2.95
376.459	2.97
376.907	2.99
377.354	3.01
377.801	3.03
378.249	3.03
378.696	3.05
379.143	3.07
379.591	3.08
380.038	3.1
380.485	3.12
380.932	3.14
381.379	3.16
381.826	3.18
382.273	3.19
382.72	3.2
383.166	3.22
383.613	3.25
384.06	3.26
384.506	3.28
384.953	3.3
385.4	3.32
385.846	3.35
386.292	3.37
386.739	3.39
387.185	3.41
387.631	3.44
388.078	3.47
388.524	3.48
388.97	3.51
389.416	3.54
389.862	3.57
390.308	3.61
390.754	3.63
391.2	3.67
391.645	3.7
392.091	3.74
392.537	3.77
392.983	3.81
393.428	3.85
393.874	3.88
394.319	3.91
394.765	3.93
395.21	3.96
395.655	3.99
396.101	4.02
396.546	4.04
396.991	4.07
397.436	4.1
397.881	4.13
398.326	4.17
398.771	4.2
399.216	4.24
399.661	4.27
400.106	4.29
400.551	4.31
400.995	4.33
401.44	4.36
401.885	4.37
402.329	4.38
402.774	4.4
403.218	4.43
403.663	4.44
404.107	4.46
404.551	4.47
404.995	4.49
405.44	4.5
405.884	4.51
406.328	4.53
406.772	4.54
407.216	4.56
407.66	4.56
408.104	4.56
408.547	4.57
408.991	4.59
409.435	4.6
409.879	4.61
410.322	4.64
410.766	4.66
411.209	4.69
411.653	4.72
412.096	4.74
412.54	4.77
412.983	4.77
413.426	4.81
413.869	4.83
414.312	4.86
414.756	4.89
415.199	4.89
415.642	4.91
416.085	4.92
416.527	4.91
416.97	4.89
417.413	4.89
417.856	4.91
418.298	4.89
418.741	4.89
419.184	4.88
419.626	4.88
420.069	4.89
420.511	4.89
420.953	4.89
421.396	4.91
421.838	4.92
422.28	4.94
422.722	4.96
423.164	4.97
423.606	4.98
424.048	4.98
424.49	4.97
424.932	4.95
425.374	4.93
425.816	4.91
426.258	4.9
426.699	4.89
427.141	4.87
427.582	4.86
428.024	4.86
428.465	4.86
428.907	4.85
429.348	4.83
429.789	4.84
430.231	4.86
430.672	4.89
431.113	4.91
431.554	4.92
431.995	4.94
432.436	4.95
432.877	4.96
433.318	4.97
433.759	5.01
434.2	5.04
434.64	5.06
435.081	5.07
435.522	5.09
435.962	5.09
436.403	5.11
436.843	5.14
437.284	5.15
437.724	5.16
438.164	5.15
438.604	5.16
439.045	5.17
439.485	5.17
439.925	5.18
440.365	5.19
440.805	5.2
441.245	5.23
441.685	5.25
442.125	5.28
442.564	5.29
443.004	5.32
443.444	5.35
443.883	5.37
444.323	5.39
444.762	5.42
445.202	5.45
445.641	5.5
446.081	5.52
446.52	5.52
446.959	5.56
447.398	5.6
447.837	5.62
448.276	5.64
448.716	5.68
449.154	5.72
449.593	5.74
450.032	5.76
450.471	5.75
450.91	5.77
451.349	5.8
451.787	5.79
452.226	5.79
452.664	5.81
453.103	5.81
453.541	5.82
453.98	5.83
454.418	5.82
454.856	5.83
455.295	5.84
455.733	5.81
456.171	5.8
456.609	5.82
457.047	5.8
457.485	5.79
457.923	5.79
458.361	5.78
458.798	5.77
459.236	5.77
459.674	5.76
460.111	5.75
460.549	5.76
460.987	5.76
461.424	5.75
461.862	5.76
462.299	5.77
462.736	5.77
463.173	5.77
463.611	5.78
464.048	5.8
464.485	5.8
464.922	5.81
465.359	5.81
465.796	5.82
466.233	5.82
466.67	5.84
467.106	5.85
467.543	5.85
467.98	5.84
468.416	5.82
468.853	5.81
469.29	5.81
469.726	5.83
470.162	5.83
470.599	5.82
471.035	5.82
471.471	5.8
471.907	5.8
472.344	5.79
472.78	5.81
473.216	5.82
473.652	5.83
474.088	5.82
474.523	5.81
474.959	5.81
475.395	5.8
475.831	5.8
476.266	5.8
476.702	5.79
477.138	5.81
477.573	5.8
478.008	5.8
478.444	5.78
478.879	5.8
479.314	5.79
479.75	5.79
480.185	5.79
480.62	5.78
481.055	5.77
481.49	5.77
481.925	5.76
482.36	5.76
482.795	5.75
483.229	5.76
483.664	5.76
484.099	5.75
484.534	5.76
484.968	5.77
485.403	5.78
485.837	5.8
486.271	5.83
486.706	5.84
487.14	5.86
487.574	5.89
488.009	5.92
488.443	5.94
488.877	5.98
489.311	6.02
489.745	6.06
490.179	6.11
490.613	6.16
491.046	6.21
491.48	6.26
491.914	6.32
492.348	6.37
492.781	6.43
493.215	6.49
493.648	6.57
494.082	6.62
494.515	6.7
494.948	6.76
495.382	6.82
495.815	6.91
496.248	7
496.681	7.09
497.114	7.19
497.547	7.29
497.98	7.4
498.413	7.5
498.846	7.62
499.279	7.73
499.711	7.86
500.144	7.99
500.577	8.11
501.009	8.24
501.442	8.37
501.874	8.51
502.306	8.66
502.739	8.82
503.171	8.99
503.603	9.16
504.036	9.33
504.468	9.51
504.9	9.69
505.332	9.88
505.764	10.08
506.196	10.28
506.627	10.5
507.059	10.71
507.491	10.92
507.923	11.14
508.354	11.37
508.786	11.6
509.217	11.84
509.649	12.09
510.08	12.34
510.512	12.59
510.943	12.85
511.374	13.11
511.805	13.37
512.237	13.63
512.668	13.9
513.099	14.18
513.53	14.46
513.961	14.75
514.391	15.04
514.822	15.33
515.253	15.61
515.684	15.9
516.114	16.2
516.545	16.5
516.975	16.79
517.406	17.09
517.836	17.36
518.267	17.66
518.697	17.93
519.127	18.19
519.558	18.46
519.988	18.73
520.418	19
520.848	19.26
521.278	19.51
521.708	19.83
522.138	20.09
522.567	20.34
522.997	20.58
523.427	20.81
523.857	21.07
524.286	21.29
524.716	21.52
525.145	21.72
525.575	21.93
526.004	22.14
526.433	22.26
526.863	22.43
527.292	22.62
527.721	22.77
528.15	22.92
528.579	23.07
529.008	23.23
529.437	23.38
529.866	23.51
530.295	23.64
530.724	23.76
531.152	23.89
531.581	24
532.01	24.1
532.438	24.21
532.867	24.32
533.295	24.41
533.723	24.49
534.152	24.55
534.58	24.64
535.008	24.69
535.436	24.75
535.865	24.8
536.293	24.85
536.721	24.91
537.149	24.97
537.576	25
538.004	25.06
538.432	25.11
538.86	25.17
539.287	25.2
539.715	25.27
540.143	25.31
540.57	25.35
540.998	25.37
541.425	25.39
541.852	25.42
542.28	25.46
542.707	25.49
543.134	25.51
543.561	25.53
543.988	25.54
544.415	25.55
544.842	25.56
545.269	25.58
545.696	25.62
546.123	25.65
546.549	25.67
546.976	25.69
547.403	25.71
547.829	25.73
548.256	25.74
548.682	25.75
549.108	25.77
549.535	25.78
549.961	25.8
550.387	25.79
550.813	25.79
551.24	25.78
551.666	25.78
552.092	25.77
552.518	25.76
552.943	25.74
553.369	25.73
553.795	25.7
554.221	25.67
554.646	25.63
555.072	25.6
555.498	25.55
555.923	25.49
556.349	25.43
556.774	25.37
557.199	25.32
557.625	25.26
558.05	25.2
558.475	25.14
558.9	25.08
559.325	25.03
559.75	24.97
560.175	24.9
560.6	24.82
561.025	24.74
561.449	24.65
561.874	24.54
562.299	24.45
562.723	24.34
563.148	24.23
563.572	24.11
563.997	23.98
564.421	23.84
564.846	23.72
565.27	23.59
565.694	23.47
566.118	23.33
566.542	23.21
566.966	23.07
567.39	22.94
567.814	22.8
568.238	22.66
568.662	22.52
569.086	22.39
569.509	22.26
569.933	22.11
570.357	21.98
570.78	21.85
571.204	21.72
571.627	21.59
572.05	21.46
572.474	21.35
572.897	21.22
573.32	21.11
573.743	20.97
574.166	20.86
574.589	20.74
575.012	20.63
575.435	20.52
575.858	20.4
576.281	20.3
576.704	20.2
577.126	20.09
577.549	20.01
577.972	19.91
578.394	19.83
578.817	19.75
579.239	19.66
579.661	19.58
580.084	19.49
580.506	19.43
580.928	19.35
581.35	19.28
581.772	19.2
582.194	19.12
582.616	19.03
583.038	18.96
583.46	18.87
583.882	18.81
584.303	18.72
584.725	18.66
585.147	18.59
585.568	18.52
585.99	18.44
586.411	18.38
586.833	18.32
587.254	18.26
587.675	18.2
588.096	18.15
588.518	18.11
588.939	18.08
589.36	18.02
589.781	17.97
590.202	17.93
590.623	17.9
591.043	17.85
591.464	17.82
591.885	17.78
592.305	17.75
592.726	17.71
593.147	17.65
593.567	17.61
593.987	17.57
594.408	17.53
594.828	17.49
595.248	17.44
595.669	17.41
596.089	17.36
596.509	17.35
596.929	17.3
597.349	17.27
597.769	17.25
598.189	17.21
598.608	17.18
599.028	17.14
599.448	17.1
599.867	17.05
600.287	17.01
600.706	16.99
601.126	16.93
601.545	16.9
601.965	16.87
602.384	16.82
602.803	16.77
603.222	16.72
603.641	16.68
604.061	16.63
604.48	16.58
604.898	16.51
605.317	16.43
605.736	16.39
606.155	16.33
606.574	16.25
606.992	16.18
607.411	16.1
607.829	16.01
608.248	15.92
608.666	15.85
609.085	15.78
609.503	15.72
609.921	15.64
610.339	15.55
610.758	15.48
611.176	15.4
611.594	15.32
612.012	15.24
612.43	15.19
612.847	15.11
613.265	15.04
613.683	14.96
614.101	14.88
614.518	14.8
614.936	14.72
615.353	14.65
615.771	14.58
616.188	14.52
616.606	14.47
617.023	14.4
617.44	14.36
617.857	14.29
618.274	14.24
618.691	14.2
619.108	14.16
619.525	14.13
619.942	14.08
620.359	14.05
620.776	14.02
621.192	13.99
621.609	13.96
622.026	13.93
622.442	13.91
622.859	13.88
623.275	13.84
623.691	13.83
624.108	13.81
624.524	13.8
624.94	13.78
625.356	13.75
625.772	13.73
626.188	13.73
626.604	13.72
627.02	13.7
627.436	13.7
627.852	13.69
628.268	13.67
628.683	13.65
629.099	13.64
629.514	13.62
629.93	13.6
630.345	13.57
630.761	13.53
631.176	13.51
631.591	13.47
632.007	13.42
632.422	13.37
632.837	13.33
633.252	13.26
633.667	13.19
634.082	13.12
634.497	13.03
634.911	12.96
635.326	12.87
635.741	12.76
636.155	12.67
636.57	12.57
636.984	12.47
637.399	12.35
637.813	12.24
638.228	12.12
638.642	12
639.056	11.87
639.47	11.73
639.884	11.62
640.298	11.47
640.712	11.34
641.126	11.21
641.54	11.08
641.954	10.94
642.368	10.81
642.781	10.69
643.195	10.57
643.609	10.46
644.022	10.34
644.436	10.23
644.849	10.12
645.262	10.01
645.676	9.91
646.089	9.81
646.502	9.72
646.915	9.64
647.328	9.56
647.741	9.48
648.154	9.4
648.567	9.34
648.98	9.28
649.393	9.22
649.805	9.18
650.218	9.13
650.631	9.1
651.043	9.05
651.456	9.02
651.868	8.97
652.28	8.93
652.693	8.89
653.105	8.84
653.517	8.79
653.929	8.75
654.341	8.69
654.753	8.62
655.165	8.55
655.577	8.49
655.989	8.4
656.401	8.32
656.813	8.24
657.224	8.15
657.636	8.04
658.047	7.96
658.459	7.86
658.87	7.76
659.282	7.65
659.693	7.55
660.104	7.44
660.515	7.34
660.926	7.23
661.338	7.12
661.749	7.03
662.159	6.94
662.57	6.84
662.981	6.75
663.392	6.66
663.803	6.59
664.213	6.5
664.624	6.42
665.035	6.34
665.445	6.28
665.855	6.23
666.266	6.16
666.676	6.12
667.086	6.07
667.497	6.03
667.907	6
668.317	5.97
668.727	5.94
669.137	5.92
669.547	5.9
669.956	5.88
670.366	5.87
670.776	5.86
671.186	5.84
671.595	5.83
672.005	5.82
672.414	5.82
672.824	5.83
673.233	5.84
673.642	5.86
674.052	5.87
674.461	5.89
674.87	5.91
675.279	5.93
675.688	5.96
676.097	6
676.506	6.04
676.915	6.07
677.323	6.11
677.732	6.15
678.141	6.2
678.549	6.26
678.958	6.32
679.366	6.39
679.775	6.47
680.183	6.56
680.592	6.66
681	6.77
681.408	6.9
681.816	7.04
682.224	7.18
682.632	7.35
683.04	7.51
683.448	7.7
683.856	7.9
684.264	8.13
684.671	8.37
685.079	8.62
685.487	8.92
685.894	9.21
686.302	9.54
686.709	9.89
687.116	10.26
687.524	10.67
687.931	11.09
688.338	11.55
688.745	12.01
689.152	12.48
689.559	13
689.966	13.52
690.373	14.05
690.78	14.59
691.187	15.14
691.593	15.7
692	16.26
692.407	16.81
692.813	17.37
693.22	17.94
693.626	18.51
694.032	19.07
694.439	19.63
694.845	20.2
695.251	20.76
695.657	21.3
696.063	21.84
696.469	22.38
696.875	22.93
697.281	23.46
697.687	23.99
698.093	24.5
698.498	24.99
698.904	25.48
699.31	25.96
699.715	26.45
700.12	26.93
700.526	27.38
700.931	27.83
701.337	28.26
701.742	28.68
702.147	29.08
702.552	29.47
702.957	29.84
703.362	30.21
703.767	30.56
704.172	30.89
704.577	31.22
704.981	31.57
705.386	31.91
705.791	32.24
706.195	32.55
706.6	32.88
707.004	33.19
707.408	33.5
707.813	33.82
708.217	34.12
708.621	34.42
709.025	34.71
709.43	34.95
709.834	35.23
710.237	35.49
710.641	35.73
711.045	35.95
711.449	36.22
711.853	36.49
712.256	36.72
712.66	36.96
713.064	37.18
713.467	37.4
713.87	37.64
714.274	37.86
714.677	38.08
715.08	38.32
715.484	38.56
715.887	38.78
716.29	38.98
716.693	39.18
717.096	39.37
717.499	39.58
717.901	39.76
718.304	39.94
718.707	40.11
719.109	40.28
719.512	40.42
719.915	40.58
720.317	40.69
720.719	40.79
721.122	40.94
721.524	41.08
721.926	41.22
722.328	41.38
722.731	41.5
723.133	41.63
723.535	41.74
723.937	41.88
724.338	41.98
724.74	42.12
725.142	42.35
725.544	42.44
725.945	42.55
726.347	42.63
726.748	42.68
727.15	42.75
727.551	42.86
727.952	42.96
728.354	43.02
728.755	43.07
729.156	43.14
729.557	43.1
729.958	43.16
730.359	43.23
730.76	43.31
731.161	43.36
731.562	43.43
731.962	43.44
732.363	43.5
732.763	43.58
733.164	43.65
733.564	43.71
733.965	43.75
734.365	43.82
734.766	43.87
735.166	43.9
735.566	43.97
735.966	44.01
736.366	44.06
736.766	44.1
737.166	44.14
737.566	44.16
737.966	44.19
738.365	44.25
738.765	44.29
739.165	44.31
739.564	44.35
739.964	44.38
740.363	44.41
740.763	44.44
741.162	44.46
741.561	44.47
741.96	44.49
742.36	44.5
742.759	44.52
743.158	44.5
743.557	44.52
743.955	44.54
744.354	44.58
744.753	44.62
745.152	44.67
745.55	44.67
745.949	44.69
746.348	44.72
746.746	44.75
747.144	44.77
747.543	44.79
747.941	44.8
748.339	44.78
748.737	44.74
749.136	44.7
749.534	44.66
749.932	44.68
750.33	44.67
750.727	44.67
751.125	44.66
751.523	44.64
751.921	44.66
752.318	44.68
752.716	44.7
753.113	44.73
753.511	44.74
753.908	44.78
754.305	44.77
754.703	44.77
755.1	44.78
755.497	44.8
755.894	44.81
756.291	44.8
756.688	44.77
757.085	44.78
757.482	44.79
757.878	44.8
758.275	44.78
758.672	44.79
759.068	44.84
759.465	44.83
759.861	44.83
760.258	44.84
760.654	44.84
761.05	44.87
761.447	44.86
761.843	44.84
762.239	44.84
762.635	44.84
763.031	44.85
763.427	44.79
763.822	44.78
764.218	44.79
764.614	44.79
765.01	44.78
765.405	44.77
765.801	44.75
766.196	44.77
766.592	44.76
766.987	44.76
767.382	44.74
767.778	44.78
768.173	44.77
768.568	44.76
768.963	44.75
769.358	44.77
769.753	44.77
770.148	44.79
770.542	44.79
770.937	44.81
771.332	44.82
771.726	44.84
772.121	44.82
772.515	44.83
772.91	44.84
773.304	44.83
773.699	44.81
774.093	44.81
774.487	44.83
774.881	44.83
775.275	44.81
775.669	44.79
776.063	44.77
776.457	44.78
776.851	44.77
777.245	44.74
777.638	44.73
778.032	44.73
778.425	44.75
778.819	44.75
779.212	44.76
779.606	44.79
779.999	44.81
780.392	44.85
780.786	44.85
781.179	44.86
781.572	44.91
781.965	44.94
