Data from C_2_DEC_OH_4N_Splice17_13-05-40-553.txt Node
Date: Sat Mar 07 13:05:40 EST 2020
User: sa697716
Spectrometer: NQ5500242
Trigger mode: 0
Integration Time (sec): 1.450000E-1
Scans to average: 20
Nonlinearity correction enabled: false
Boxcar width: 5
Storing dark spectrum: false
XAxis mode: Wavelengths
Number of Pixels in Spectrum: 512
>>>>>Begin Spectral Data<<<<<
187.83	152.87
188.298	173.53
188.766	148.29
189.233	113.57
189.701	122.84
190.169	146.97
190.636	169.62
191.104	264.22
191.571	315.49
192.039	112.03
192.506	96.81
192.974	34.58
193.441	145.86
193.908	-10.34
194.375	14.16
194.842	18.87
195.31	59.11
195.777	229.02
196.244	43.41
196.711	35.99
197.177	37.51
197.644	37.25
198.111	37.3
198.578	37.65
199.045	38.15
199.511	37.78
199.978	37.46
200.445	37.65
200.911	37.37
201.378	37.61
201.844	37.88
202.31	37.82
202.777	38.04
203.243	37.81
203.709	37.44
204.176	36.94
204.642	36.63
205.108	36.6
205.574	36.21
206.04	35.76
206.506	35.23
206.972	35.07
207.438	34.57
207.903	33.79
208.369	33.15
208.835	32.54
209.301	31.78
209.766	30.58
210.232	29.77
210.697	28.91
211.163	28.3
211.628	27.59
212.094	26.48
212.559	25.89
213.024	25.28
213.49	24.7
213.955	23.85
214.42	23.36
214.885	22.83
215.35	21.84
215.815	20.7
216.28	19.07
216.745	17.23
217.21	15.7
217.675	13.99
218.14	12.59
218.604	11.33
219.069	10.31
219.534	9.46
219.998	8.73
220.463	8.15
220.927	7.56
221.392	7.13
221.856	6.8
222.32	6.47
222.785	6.24
223.249	5.99
223.713	5.81
224.177	5.67
224.642	5.5
225.106	5.34
225.57	5.17
226.034	5.06
226.497	4.96
226.961	4.86
227.425	4.77
227.889	4.66
228.353	4.56
228.816	4.46
229.28	4.35
229.744	4.27
230.207	4.19
230.671	4.12
231.134	4.05
231.597	3.99
232.061	3.92
232.524	3.85
232.987	3.78
233.45	3.73
233.914	3.67
234.377	3.61
234.84	3.55
235.303	3.51
235.766	3.47
236.229	3.41
236.691	3.35
237.154	3.31
237.617	3.28
238.08	3.25
238.542	3.2
239.005	3.18
239.468	3.15
239.93	3.12
240.393	3.1
240.855	3.05
241.317	3.02
241.78	2.99
242.242	2.95
242.704	2.92
243.166	2.89
243.629	2.86
244.091	2.82
244.553	2.79
245.015	2.75
245.477	2.71
245.939	2.67
246.4	2.64
246.862	2.62
247.324	2.6
247.786	2.56
248.247	2.52
248.709	2.48
249.17	2.45
249.632	2.43
250.093	2.41
250.555	2.38
251.016	2.36
251.477	2.33
251.939	2.31
252.4	2.28
252.861	2.26
253.322	2.24
253.783	2.23
254.244	2.21
254.705	2.18
255.166	2.16
255.627	2.14
256.088	2.13
256.549	2.12
257.009	2.09
257.47	2.07
257.931	2.04
258.391	2.01
258.852	1.99
259.312	1.97
259.773	1.95
260.233	1.93
260.694	1.9
261.154	1.88
261.614	1.86
262.074	1.83
262.534	1.81
262.994	1.8
263.455	1.79
263.915	1.77
264.374	1.75
264.834	1.74
265.294	1.72
265.754	1.7
266.214	1.69
266.673	1.68
267.133	1.67
267.593	1.65
268.052	1.64
268.512	1.63
268.971	1.63
269.431	1.62
269.89	1.61
270.349	1.61
270.809	1.6
271.268	1.59
271.727	1.58
272.186	1.58
272.645	1.57
273.104	1.56
273.563	1.56
274.022	1.55
274.481	1.55
274.94	1.55
275.399	1.54
275.857	1.54
276.316	1.53
276.775	1.53
277.233	1.53
277.692	1.53
278.15	1.53
278.609	1.52
279.067	1.52
279.525	1.51
279.984	1.51
280.442	1.5
280.9	1.51
281.358	1.51
281.816	1.51
282.274	1.52
282.732	1.51
283.19	1.51
283.648	1.51
284.106	1.5
284.564	1.51
285.021	1.51
285.479	1.51
285.937	1.51
286.394	1.51
286.852	1.51
287.309	1.5
287.767	1.5
288.224	1.49
288.682	1.49
289.139	1.48
289.596	1.47
290.053	1.45
290.511	1.44
290.968	1.43
291.425	1.41
291.882	1.4
292.339	1.39
292.796	1.39
293.252	1.38
293.709	1.37
294.166	1.37
294.623	1.36
295.079	1.36
295.536	1.35
295.992	1.35
296.449	1.35
296.905	1.35
297.362	1.35
297.818	1.34
298.274	1.34
298.731	1.33
299.187	1.33
299.643	1.32
300.099	1.32
300.555	1.32
301.011	1.32
301.467	1.32
301.923	1.31
302.379	1.32
302.835	1.32
303.291	1.32
303.746	1.32
304.202	1.33
304.658	1.34
305.113	1.34
305.569	1.34
306.024	1.34
306.479	1.33
306.935	1.33
307.39	1.33
307.845	1.33
308.301	1.33
308.756	1.33
309.211	1.33
309.666	1.33
310.121	1.34
310.576	1.34
311.031	1.34
311.486	1.34
311.94	1.35
312.395	1.35
312.85	1.35
313.305	1.35
313.759	1.36
314.214	1.36
314.668	1.35
315.123	1.36
315.577	1.36
316.032	1.36
316.486	1.36
316.94	1.37
317.394	1.37
317.849	1.36
318.303	1.35
318.757	1.34
319.211	1.34
319.665	1.33
320.119	1.33
320.572	1.32
321.026	1.31
321.48	1.31
321.934	1.29
322.387	1.29
322.841	1.29
323.295	1.29
323.748	1.29
324.202	1.29
324.655	1.3
325.108	1.31
325.562	1.31
326.015	1.32
326.468	1.32
326.921	1.33
327.374	1.33
327.827	1.33
328.28	1.33
328.733	1.33
329.186	1.33
329.639	1.33
330.092	1.33
330.545	1.33
330.997	1.32
331.45	1.32
331.903	1.34
332.355	1.35
332.808	1.35
333.26	1.35
333.713	1.34
334.165	1.35
334.617	1.35
335.069	1.35
335.522	1.36
335.974	1.36
336.426	1.36
336.878	1.36
337.33	1.35
337.782	1.36
338.234	1.37
338.686	1.38
339.137	1.39
339.589	1.38
340.041	1.38
340.493	1.37
340.944	1.37
341.396	1.37
341.847	1.36
342.299	1.34
342.75	1.33
343.201	1.32
343.653	1.32
344.104	1.3
344.555	1.29
345.006	1.29
345.457	1.28
345.908	1.28
346.359	1.28
346.81	1.28
347.261	1.28
347.712	1.28
348.163	1.27
348.613	1.28
349.064	1.28
349.515	1.28
349.965	1.28
350.416	1.28
350.866	1.28
351.317	1.27
351.767	1.27
352.217	1.27
352.668	1.27
353.118	1.27
353.568	1.27
354.018	1.27
354.468	1.28
354.918	1.28
355.368	1.29
355.818	1.29
356.268	1.3
356.718	1.31
357.168	1.31
357.617	1.3
358.067	1.3
358.517	1.31
358.966	1.32
359.416	1.33
359.865	1.33
360.315	1.33
360.764	1.33
361.213	1.33
361.663	1.31
362.112	1.32
362.561	1.34
363.01	1.34
363.459	1.33
363.908	1.32
364.357	1.32
364.806	1.31
365.255	1.31
365.703	1.32
366.152	1.32
366.601	1.34
367.05	1.33
367.498	1.32
367.947	1.33
368.395	1.33
368.844	1.34
369.292	1.33
369.74	1.34
370.189	1.34
370.637	1.33
371.085	1.32
371.533	1.32
371.981	1.32
372.429	1.32
372.877	1.32
373.325	1.32
373.773	1.32
374.221	1.31
374.669	1.31
375.116	1.31
375.564	1.3
376.012	1.31
376.459	1.31
376.907	1.31
377.354	1.31
377.801	1.32
378.249	1.32
378.696	1.32
379.143	1.32
379.591	1.33
380.038	1.33
380.485	1.33
380.932	1.34
381.379	1.34
381.826	1.34
382.273	1.33
382.72	1.32
383.166	1.32
383.613	1.31
384.06	1.3
384.506	1.3
384.953	1.29
385.4	1.29
385.846	1.3
386.292	1.29
386.739	1.29
387.185	1.28
387.631	1.3
388.078	1.3
388.524	1.3
388.97	1.3
389.416	1.31
389.862	1.32
390.308	1.33
390.754	1.34
391.2	1.34
391.645	1.35
392.091	1.38
392.537	1.39
392.983	1.39
393.428	1.41
393.874	1.42
394.319	1.43
394.765	1.44
395.21	1.44
395.655	1.45
396.101	1.46
396.546	1.46
396.991	1.46
397.436	1.46
397.881	1.48
398.326	1.49
398.771	1.5
399.216	1.5
399.661	1.52
400.106	1.53
400.551	1.53
400.995	1.54
401.44	1.55
401.885	1.56
402.329	1.59
402.774	1.59
403.218	1.62
403.663	1.63
404.107	1.65
404.551	1.66
404.995	1.67
405.44	1.68
405.884	1.69
406.328	1.71
406.772	1.72
407.216	1.72
407.66	1.73
408.104	1.73
408.547	1.75
408.991	1.76
409.435	1.76
409.879	1.78
410.322	1.8
410.766	1.83
411.209	1.85
411.653	1.87
412.096	1.89
412.54	1.9
412.983	1.91
413.426	1.95
413.869	1.97
414.312	2
414.756	2.01
415.199	2.02
415.642	2.03
416.085	2.04
416.527	2.04
416.97	2.04
417.413	2.06
417.856	2.06
418.298	2.05
418.741	2.05
419.184	2.06
419.626	2.05
420.069	2.06
420.511	2.07
420.953	2.07
421.396	2.08
421.838	2.09
422.28	2.1
422.722	2.13
423.164	2.14
423.606	2.14
424.048	2.14
424.49	2.15
424.932	2.16
425.374	2.14
425.816	2.13
426.258	2.13
426.699	2.13
427.141	2.13
427.582	2.13
428.024	2.14
428.465	2.15
428.907	2.15
429.348	2.15
429.789	2.15
430.231	2.18
430.672	2.21
431.113	2.25
431.554	2.27
431.995	2.29
432.436	2.3
432.877	2.31
433.318	2.33
433.759	2.37
434.2	2.39
434.64	2.42
435.081	2.43
435.522	2.43
435.962	2.44
436.403	2.48
436.843	2.5
437.284	2.5
437.724	2.53
438.164	2.52
438.604	2.53
439.045	2.54
439.485	2.54
439.925	2.55
440.365	2.57
440.805	2.57
441.245	2.57
441.685	2.58
442.125	2.61
442.564	2.62
443.004	2.63
443.444	2.63
443.883	2.66
444.323	2.65
444.762	2.66
445.202	2.67
445.641	2.7
446.081	2.71
446.52	2.72
446.959	2.74
447.398	2.76
447.837	2.77
448.276	2.79
448.716	2.8
449.154	2.82
449.593	2.83
450.032	2.83
450.471	2.82
450.91	2.81
451.349	2.82
451.787	2.8
452.226	2.79
452.664	2.79
453.103	2.77
453.541	2.77
453.98	2.77
454.418	2.76
454.856	2.77
455.295	2.76
455.733	2.75
456.171	2.73
456.609	2.73
457.047	2.74
457.485	2.74
457.923	2.75
458.361	2.74
458.798	2.75
459.236	2.74
459.674	2.74
460.111	2.75
460.549	2.77
460.987	2.79
461.424	2.8
461.862	2.82
462.299	2.83
462.736	2.83
463.173	2.84
463.611	2.86
464.048	2.89
464.485	2.91
464.922	2.91
465.359	2.92
465.796	2.95
466.233	2.96
466.67	2.97
467.106	2.98
467.543	2.99
467.98	2.99
468.416	2.97
468.853	2.97
469.29	2.96
469.726	2.97
470.162	2.96
470.599	2.94
471.035	2.93
471.471	2.93
471.907	2.91
472.344	2.91
472.78	2.92
473.216	2.92
473.652	2.93
474.088	2.92
474.523	2.93
474.959	2.93
475.395	2.94
475.831	2.93
476.266	2.95
476.702	2.95
477.138	2.95
477.573	2.96
478.008	2.96
478.444	2.95
478.879	2.96
479.314	2.97
479.75	2.96
480.185	2.94
480.62	2.94
481.055	2.93
481.49	2.92
481.925	2.92
482.36	2.92
482.795	2.92
483.229	2.92
483.664	2.93
484.099	2.92
484.534	2.93
484.968	2.94
485.403	2.95
485.837	2.96
486.271	2.97
486.706	2.98
487.14	2.98
487.574	2.99
488.009	3.01
488.443	3.02
488.877	3.05
489.311	3.07
489.745	3.09
490.179	3.12
490.613	3.14
491.046	3.16
491.48	3.18
491.914	3.22
492.348	3.25
492.781	3.28
493.215	3.31
493.648	3.34
494.082	3.37
494.515	3.4
494.948	3.43
495.382	3.47
495.815	3.51
496.248	3.56
496.681	3.6
497.114	3.64
497.547	3.69
497.98	3.74
498.413	3.79
498.846	3.83
499.279	3.88
499.711	3.92
500.144	3.97
500.577	4.03
501.009	4.08
501.442	4.14
501.874	4.2
502.306	4.25
502.739	4.32
503.171	4.38
503.603	4.44
504.036	4.51
504.468	4.59
504.9	4.64
505.332	4.7
505.764	4.77
506.196	4.83
506.627	4.9
507.059	4.96
507.491	5.01
507.923	5.08
508.354	5.15
508.786	5.22
509.217	5.29
509.649	5.36
510.08	5.43
510.512	5.5
510.943	5.57
511.374	5.64
511.805	5.71
512.237	5.78
512.668	5.85
513.099	5.92
513.53	5.98
513.961	6.05
514.391	6.13
514.822	6.21
515.253	6.27
515.684	6.34
516.114	6.4
516.545	6.47
516.975	6.53
517.406	6.6
517.836	6.65
518.267	6.71
518.697	6.76
519.127	6.8
519.558	6.83
519.988	6.87
520.418	6.92
520.848	6.95
521.278	6.99
521.708	7.21
522.138	7.25
522.567	7.29
522.997	7.32
523.427	7.37
523.857	7.4
524.286	7.44
524.716	7.47
525.145	7.5
525.575	7.54
526.004	7.57
526.433	7.41
526.863	7.42
527.292	7.44
527.721	7.46
528.15	7.47
528.579	7.49
529.008	7.52
529.437	7.53
529.866	7.53
530.295	7.54
530.724	7.55
531.152	7.57
531.581	7.59
532.01	7.6
532.438	7.61
532.867	7.62
533.295	7.61
533.723	7.61
534.152	7.62
534.58	7.63
535.008	7.63
535.436	7.64
535.865	7.64
536.293	7.63
536.721	7.64
537.149	7.65
537.576	7.66
538.004	7.67
538.432	7.67
538.86	7.68
539.287	7.69
539.715	7.7
540.143	7.7
540.57	7.7
540.998	7.71
541.425	7.73
541.852	7.73
542.28	7.73
542.707	7.73
543.134	7.74
543.561	7.75
543.988	7.75
544.415	7.75
544.842	7.76
545.269	7.77
545.696	7.78
546.123	7.78
546.549	7.78
546.976	7.79
547.403	7.82
547.829	7.82
548.256	7.84
548.682	7.86
549.108	7.88
549.535	7.9
549.961	7.9
550.387	7.92
550.813	7.93
551.24	7.94
551.666	7.96
552.092	7.98
552.518	8
552.943	8.01
553.369	8.03
553.795	8.02
554.221	8.04
554.646	8.05
555.072	8.05
555.498	8.07
555.923	8.08
556.349	8.09
556.774	8.09
557.199	8.1
557.625	8.12
558.05	8.14
558.475	8.15
558.9	8.16
559.325	8.19
559.75	8.21
560.175	8.22
560.6	8.24
561.025	8.25
561.449	8.25
561.874	8.26
562.299	8.27
562.723	8.27
563.148	8.28
563.572	8.28
563.997	8.28
564.421	8.28
564.846	8.28
565.27	8.29
565.694	8.3
566.118	8.31
566.542	8.32
566.966	8.33
567.39	8.33
567.814	8.34
568.238	8.36
568.662	8.36
569.086	8.38
569.509	8.4
569.933	8.4
570.357	8.41
570.78	8.42
571.204	8.42
571.627	8.43
572.05	8.44
572.474	8.45
572.897	8.46
573.32	8.49
573.743	8.49
574.166	8.5
574.589	8.51
575.012	8.53
575.435	8.55
575.858	8.57
576.281	8.59
576.704	8.6
577.126	8.63
577.549	8.65
577.972	8.65
578.394	8.68
578.817	8.71
579.239	8.74
579.661	8.75
580.084	8.78
580.506	8.8
580.928	8.82
581.35	8.83
581.772	8.84
582.194	8.87
582.616	8.9
583.038	8.92
583.46	8.92
583.882	8.95
584.303	8.96
584.725	8.98
585.147	9.01
585.568	9.05
585.99	9.08
586.411	9.11
586.833	9.13
587.254	9.16
587.675	9.18
588.096	9.22
588.518	9.24
588.939	9.29
589.36	9.32
589.781	9.35
590.202	9.38
590.623	9.41
591.043	9.44
591.464	9.49
591.885	9.51
592.305	9.55
592.726	9.59
593.147	9.62
593.567	9.66
593.987	9.7
594.408	9.73
594.828	9.76
595.248	9.82
595.669	9.86
596.089	9.89
596.509	9.95
596.929	9.99
597.349	10.03
597.769	10.08
598.189	10.12
598.608	10.17
599.028	10.22
599.448	10.27
599.867	10.31
600.287	10.36
600.706	10.41
601.126	10.46
601.545	10.51
601.965	10.58
602.384	10.63
602.803	10.68
603.222	10.73
603.641	10.78
604.061	10.84
604.48	10.89
604.898	10.94
605.317	10.99
605.736	11.04
606.155	11.09
606.574	11.13
606.992	11.18
607.411	11.23
607.829	11.25
608.248	11.28
608.666	11.32
609.085	11.39
609.503	11.44
609.921	11.48
610.339	11.53
610.758	11.57
611.176	11.61
611.594	11.66
612.012	11.69
612.43	11.74
612.847	11.8
613.265	11.84
613.683	11.87
614.101	11.89
614.518	11.93
614.936	11.96
615.353	11.99
615.771	12.02
616.188	12.06
616.606	12.09
617.023	12.13
617.44	12.18
617.857	12.22
618.274	12.25
618.691	12.29
619.108	12.33
619.525	12.39
619.942	12.45
620.359	12.5
620.776	12.55
621.192	12.61
621.609	12.66
622.026	12.71
622.442	12.77
622.859	12.82
623.275	12.88
623.691	12.94
624.108	12.99
624.524	13.05
624.94	13.12
625.356	13.17
625.772	13.22
626.188	13.28
626.604	13.35
627.02	13.41
627.436	13.46
627.852	13.53
628.268	13.59
628.683	13.65
629.099	13.69
629.514	13.74
629.93	13.78
630.345	13.82
630.761	13.85
631.176	13.86
631.591	13.87
632.007	13.87
632.422	13.86
632.837	13.85
633.252	13.82
633.667	13.79
634.082	13.73
634.497	13.69
634.911	13.63
635.326	13.56
635.741	13.49
636.155	13.4
636.57	13.32
636.984	13.23
637.399	13.12
637.813	13
638.228	12.87
638.642	12.74
639.056	12.59
639.47	12.46
639.884	12.33
640.298	12.18
640.712	12.03
641.126	11.88
641.54	11.71
641.954	11.56
642.368	11.41
642.781	11.28
643.195	11.13
643.609	11
644.022	10.87
644.436	10.74
644.849	10.6
645.262	10.48
645.676	10.37
646.089	10.27
646.502	10.17
646.915	10.09
647.328	9.99
647.741	9.93
648.154	9.86
648.567	9.79
648.98	9.73
649.393	9.69
649.805	9.66
650.218	9.62
650.631	9.59
651.043	9.57
651.456	9.55
651.868	9.51
652.28	9.47
652.693	9.45
653.105	9.43
653.517	9.39
653.929	9.37
654.341	9.3
654.753	9.26
655.165	9.21
655.577	9.15
655.989	9.07
656.401	9
656.813	8.94
657.224	8.84
657.636	8.74
658.047	8.65
658.459	8.54
658.87	8.44
659.282	8.33
659.693	8.21
660.104	8.08
660.515	7.96
660.926	7.85
661.338	7.71
661.749	7.59
662.159	7.47
662.57	7.35
662.981	7.24
663.392	7.12
663.803	7.02
664.213	6.9
664.624	6.78
665.035	6.69
665.445	6.59
665.855	6.5
666.266	6.41
666.676	6.34
667.086	6.25
667.497	6.17
667.907	6.1
668.317	6.03
668.727	5.97
669.137	5.92
669.547	5.87
669.956	5.82
670.366	5.78
670.776	5.74
671.186	5.7
671.595	5.68
672.005	5.65
672.414	5.63
672.824	5.62
673.233	5.61
673.642	5.61
674.052	5.6
674.461	5.6
674.87	5.61
675.279	5.63
675.688	5.65
676.097	5.68
676.506	5.71
676.915	5.75
677.323	5.8
677.732	5.84
678.141	5.91
678.549	6
678.958	6.1
679.366	6.22
679.775	6.34
680.183	6.49
680.592	6.67
681	6.88
681.408	7.09
681.816	7.35
682.224	7.63
682.632	7.94
683.04	8.27
683.448	8.64
683.856	9.03
684.264	9.47
684.671	9.93
685.079	10.42
685.487	10.95
685.894	11.52
686.302	12.12
686.709	12.74
687.116	13.38
687.524	14.05
687.931	14.75
688.338	15.46
688.745	16.18
689.152	16.9
689.559	17.66
689.966	18.41
690.373	19.16
690.78	19.91
691.187	20.64
691.593	21.38
692	22.12
692.407	22.79
692.813	23.51
693.22	24.2
693.626	24.9
694.032	25.56
694.439	26.19
694.845	26.8
695.251	27.42
695.657	28.01
696.063	28.6
696.469	29.15
696.875	29.72
697.281	30.24
697.687	30.77
698.093	31.25
698.498	31.74
698.904	32.2
699.31	32.65
699.715	33.09
700.12	33.51
700.526	33.89
700.931	34.28
701.337	34.67
701.742	35.03
702.147	35.36
702.552	35.69
702.957	35.98
703.362	36.29
703.767	36.57
704.172	36.85
704.577	37.1
704.981	37.38
705.386	37.63
705.791	37.88
706.195	38.12
706.6	38.36
707.004	38.55
707.408	38.79
707.813	39.02
708.217	39.23
708.621	39.44
709.025	39.64
709.43	39.82
709.834	40.04
710.237	40.21
710.641	40.37
711.045	40.54
711.449	40.73
711.853	40.92
712.256	41.06
712.66	41.2
713.064	41.36
713.467	41.5
713.87	41.64
714.274	41.75
714.677	41.9
715.08	42.04
715.484	42.19
715.887	42.35
716.29	42.44
716.693	42.55
717.096	42.67
717.499	42.79
717.901	42.89
718.304	43
718.707	43.12
719.109	43.22
719.512	43.31
719.915	43.39
720.317	43.45
720.719	43.53
721.122	43.62
721.524	43.71
721.926	43.78
722.328	43.87
722.731	43.93
723.133	43.99
723.535	44.07
723.937	44.16
724.338	44.23
724.74	44.3
725.142	44.49
725.544	44.55
725.945	44.66
726.347	44.74
726.748	44.81
727.15	44.85
727.551	44.93
727.952	44.98
728.354	45.02
728.755	45.06
729.156	45.1
729.557	45.03
729.958	45.05
730.359	45.07
730.76	45.11
731.161	45.16
731.562	45.23
731.962	45.25
732.363	45.3
732.763	45.33
733.164	45.37
733.564	45.43
733.965	45.48
734.365	45.53
734.766	45.56
735.166	45.58
735.566	45.6
735.966	45.63
736.366	45.64
736.766	45.64
737.166	45.68
737.566	45.71
737.966	45.71
738.365	45.74
738.765	45.75
739.165	45.76
739.564	45.8
739.964	45.82
740.363	45.82
740.763	45.85
741.162	45.89
741.561	45.88
741.96	45.92
742.36	45.94
742.759	45.96
743.158	45.97
743.557	45.98
743.955	45.98
744.354	45.98
744.753	46.01
745.152	46.02
745.55	46.04
745.949	46.08
746.348	46.09
746.746	46.09
747.144	46.1
747.543	46.12
747.941	46.15
748.339	46.16
748.737	46.2
749.136	46.19
749.534	46.19
749.932	46.18
750.33	46.16
750.727	46.17
751.125	46.18
751.523	46.17
751.921	46.2
752.318	46.19
752.716	46.19
753.113	46.19
753.511	46.21
753.908	46.27
754.305	46.3
754.703	46.29
755.1	46.29
755.497	46.3
755.894	46.31
756.291	46.3
756.688	46.3
757.085	46.33
757.482	46.33
757.878	46.32
758.275	46.3
758.672	46.29
759.068	46.33
759.465	46.32
759.861	46.33
760.258	46.32
760.654	46.32
761.05	46.32
761.447	46.31
761.843	46.32
762.239	46.33
762.635	46.33
763.031	46.34
763.427	46.32
763.822	46.32
764.218	46.31
764.614	46.32
765.01	46.31
765.405	46.3
765.801	46.29
766.196	46.28
766.592	46.27
766.987	46.26
767.382	46.23
767.778	46.25
768.173	46.25
768.568	46.25
768.963	46.23
769.358	46.23
769.753	46.24
770.148	46.26
770.542	46.25
770.937	46.26
771.332	46.26
771.726	46.27
772.121	46.25
772.515	46.26
772.91	46.25
773.304	46.28
773.699	46.28
774.093	46.26
774.487	46.26
774.881	46.3
775.275	46.26
775.669	46.25
776.063	46.25
776.457	46.26
776.851	46.25
777.245	46.21
777.638	46.18
778.032	46.2
778.425	46.23
778.819	46.23
779.212	46.22
779.606	46.24
779.999	46.24
780.392	46.26
780.786	46.24
781.179	46.26
781.572	46.33
781.965	46.36
782.358	46.34
782.751	46.3
783.143	46.31
783.536	46.28
783.929	46.26
784.322	46.28
784.714	46.28
785.107	46.3
785.499	46.3
785.891	46.3
786.284	46.29
786.676	46.3
787.068	46.32
