Data from C_2_DIV_IL_4N_Splice17_13-41-14-067.txt Node
Date: Sat Mar 07 13:41:14 EST 2020
User: sa697716
Spectrometer: NQ5500242
Trigger mode: 0
Integration Time (sec): 1.450000E-1
Scans to average: 20
Nonlinearity correction enabled: false
Boxcar width: 5
Storing dark spectrum: false
XAxis mode: Wavelengths
Number of Pixels in Spectrum: 512
>>>>>Begin Spectral Data<<<<<
187.83	233.39
188.298	267.68
188.766	247.02
189.233	176.82
189.701	190.22
190.169	218.1
190.636	223.78
191.104	278.36
191.571	-114.5
192.039	-380.09
192.506	-667.14
192.974	75.07
193.441	206.28
193.908	119.44
194.375	31.3
194.842	-43.74
195.31	-16.03
195.777	20.91
196.244	92.12
196.711	92.7
197.177	94.74
197.644	94.93
198.111	95.24
198.578	96.32
199.045	96.84
199.511	96.95
199.978	97.48
200.445	97.59
200.911	97.49
201.378	97.64
201.844	97.51
202.31	96.98
202.777	96.8
203.243	96.6
203.709	95.45
204.176	94.22
204.642	93.31
205.108	92.85
205.574	91.96
206.04	90.84
206.506	89.61
206.972	89.13
207.438	88.3
207.903	86.99
208.369	84.98
208.835	83.51
209.301	82.03
209.766	79.81
210.232	77.4
210.697	75.07
211.163	73.25
211.628	71.8
212.094	69.77
212.559	68.29
213.024	66.58
213.49	65.2
213.955	63.63
214.42	61.96
214.885	60.07
215.35	57.81
215.815	54.98
216.28	51.05
216.745	46.58
217.21	42.35
217.675	38.29
218.14	34.95
218.604	31.89
219.069	29.46
219.534	27.5
219.998	25.79
220.463	24.42
220.927	23.14
221.392	22.24
221.856	21.47
222.32	20.72
222.785	20.16
223.249	19.63
223.713	19.17
224.177	18.75
224.642	18.31
225.106	17.91
225.57	17.5
226.034	17.18
226.497	16.84
226.961	16.53
227.425	16.27
227.889	15.96
228.353	15.65
228.816	15.38
229.28	15.09
229.744	14.85
230.207	14.61
230.671	14.37
231.134	14.15
231.597	13.94
232.061	13.73
232.524	13.54
232.987	13.36
233.45	13.2
233.914	13.02
234.377	12.85
234.84	12.68
235.303	12.54
235.766	12.41
236.229	12.26
236.691	12.12
237.154	11.99
237.617	11.87
238.08	11.76
238.542	11.63
239.005	11.54
239.468	11.42
239.93	11.3
240.393	11.2
240.855	11.07
241.317	10.94
241.78	10.81
242.242	10.68
242.704	10.57
243.166	10.45
243.629	10.35
244.091	10.22
244.553	10.13
245.015	10.03
245.477	9.92
245.939	9.82
246.4	9.73
246.862	9.64
247.324	9.56
247.786	9.47
248.247	9.38
248.709	9.27
249.17	9.19
249.632	9.12
250.093	9.04
250.555	8.96
251.016	8.9
251.477	8.83
251.939	8.76
252.4	8.71
252.861	8.64
253.322	8.57
253.783	8.52
254.244	8.46
254.705	8.39
255.166	8.33
255.627	8.27
256.088	8.22
256.549	8.16
257.009	8.09
257.47	8.02
257.931	7.95
258.391	7.88
258.852	7.81
259.312	7.75
259.773	7.68
260.233	7.63
260.694	7.56
261.154	7.49
261.614	7.44
262.074	7.38
262.534	7.33
262.994	7.29
263.455	7.24
263.915	7.2
264.374	7.15
264.834	7.11
265.294	7.08
265.754	7.05
266.214	7.02
266.673	7
267.133	6.97
267.593	6.95
268.052	6.92
268.512	6.9
268.971	6.88
269.431	6.86
269.89	6.84
270.349	6.82
270.809	6.8
271.268	6.79
271.727	6.76
272.186	6.74
272.645	6.73
273.104	6.71
273.563	6.69
274.022	6.67
274.481	6.66
274.94	6.65
275.399	6.63
275.857	6.61
276.316	6.59
276.775	6.58
277.233	6.57
277.692	6.56
278.15	6.54
278.609	6.53
279.067	6.52
279.525	6.51
279.984	6.49
280.442	6.49
280.9	6.49
281.358	6.48
281.816	6.47
282.274	6.45
282.732	6.43
283.19	6.42
283.648	6.4
284.106	6.38
284.564	6.36
285.021	6.35
285.479	6.33
285.937	6.29
286.394	6.27
286.852	6.25
287.309	6.23
287.767	6.2
288.224	6.18
288.682	6.14
289.139	6.1
289.596	6.07
290.053	6.04
290.511	6
290.968	5.98
291.425	5.94
291.882	5.92
292.339	5.89
292.796	5.87
293.252	5.85
293.709	5.84
294.166	5.83
294.623	5.81
295.079	5.8
295.536	5.8
295.992	5.78
296.449	5.77
296.905	5.75
297.362	5.74
297.818	5.73
298.274	5.72
298.731	5.7
299.187	5.68
299.643	5.66
300.099	5.66
300.555	5.64
301.011	5.63
301.467	5.62
301.923	5.61
302.379	5.61
302.835	5.6
303.291	5.59
303.746	5.59
304.202	5.6
304.658	5.6
305.113	5.59
305.569	5.59
306.024	5.58
306.479	5.57
306.935	5.57
307.39	5.57
307.845	5.57
308.301	5.58
308.756	5.59
309.211	5.57
309.666	5.57
310.121	5.58
310.576	5.58
311.031	5.58
311.486	5.58
311.94	5.57
312.395	5.57
312.85	5.56
313.305	5.54
313.759	5.55
314.214	5.54
314.668	5.53
315.123	5.53
315.577	5.51
316.032	5.5
316.486	5.49
316.94	5.49
317.394	5.48
317.849	5.46
318.303	5.45
318.757	5.42
319.211	5.41
319.665	5.39
320.119	5.36
320.572	5.34
321.026	5.33
321.48	5.32
321.934	5.3
322.387	5.28
322.841	5.28
323.295	5.28
323.748	5.28
324.202	5.27
324.655	5.26
325.108	5.28
325.562	5.28
326.015	5.28
326.468	5.28
326.921	5.28
327.374	5.28
327.827	5.29
328.28	5.28
328.733	5.28
329.186	5.29
329.639	5.29
330.092	5.28
330.545	5.28
330.997	5.28
331.45	5.28
331.903	5.29
332.355	5.3
332.808	5.29
333.26	5.29
333.713	5.29
334.165	5.28
334.617	5.29
335.069	5.29
335.522	5.29
335.974	5.3
336.426	5.29
336.878	5.27
337.33	5.27
337.782	5.28
338.234	5.29
338.686	5.28
339.137	5.28
339.589	5.26
340.041	5.25
340.493	5.24
340.944	5.22
341.396	5.21
341.847	5.2
342.299	5.18
342.75	5.15
343.201	5.12
343.653	5.11
344.104	5.08
344.555	5.06
345.006	5.04
345.457	5.04
345.908	5.02
346.359	5.01
346.81	5.01
347.261	5
347.712	5
348.163	4.99
348.613	4.99
349.064	5
349.515	4.99
349.965	5
350.416	4.99
350.866	4.99
351.317	4.98
351.767	4.98
352.217	4.98
352.668	4.98
353.118	5
353.568	4.99
354.018	5
354.468	5.01
354.918	5.01
355.368	5.02
355.818	5.02
356.268	5.03
356.718	5.04
357.168	5.03
357.617	5.03
358.067	5.02
358.517	5.04
358.966	5.03
359.416	5.04
359.865	5.03
360.315	5.04
360.764	5.04
361.213	5.04
361.663	5.02
362.112	5.03
362.561	5.03
363.01	5.03
363.459	5.01
363.908	5
364.357	5
364.806	5
365.255	5
365.703	5.01
366.152	5.01
366.601	5.01
367.05	5.01
367.498	5
367.947	5
368.395	5.01
368.844	5.01
369.292	5
369.74	5
370.189	5
370.637	4.98
371.085	4.96
371.533	4.97
371.981	4.96
372.429	4.96
372.877	4.96
373.325	4.95
373.773	4.94
374.221	4.93
374.669	4.92
375.116	4.91
375.564	4.91
376.012	4.92
376.459	4.92
376.907	4.92
377.354	4.93
377.801	4.94
378.249	4.94
378.696	4.93
379.143	4.94
379.591	4.94
380.038	4.95
380.485	4.95
380.932	4.96
381.379	4.97
381.826	4.97
382.273	4.97
382.72	4.96
383.166	4.97
383.613	4.97
384.06	4.98
384.506	4.98
384.953	4.98
385.4	4.99
385.846	5
386.292	5
386.739	5
387.185	5.01
387.631	5.03
388.078	5.03
388.524	5.04
388.97	5.06
389.416	5.08
389.862	5.12
390.308	5.13
390.754	5.16
391.2	5.2
391.645	5.23
392.091	5.27
392.537	5.3
392.983	5.33
393.428	5.36
393.874	5.38
394.319	5.4
394.765	5.42
395.21	5.44
395.655	5.47
396.101	5.5
396.546	5.52
396.991	5.55
397.436	5.6
397.881	5.64
398.326	5.68
398.771	5.74
399.216	5.77
399.661	5.8
400.106	5.83
400.551	5.86
400.995	5.88
401.44	5.92
401.885	5.95
402.329	5.98
402.774	6.03
403.218	6.07
403.663	6.1
404.107	6.14
404.551	6.17
404.995	6.2
405.44	6.22
405.884	6.27
406.328	6.29
406.772	6.32
407.216	6.33
407.66	6.35
408.104	6.35
408.547	6.37
408.991	6.41
409.435	6.44
409.879	6.48
410.322	6.53
410.766	6.57
411.209	6.62
411.653	6.67
412.096	6.72
412.54	6.75
412.983	6.8
413.426	6.87
413.869	6.92
414.312	6.97
414.756	7.01
415.199	7.03
415.642	7.05
416.085	7.07
416.527	7.08
416.97	7.08
417.413	7.08
417.856	7.08
418.298	7.08
418.741	7.08
419.184	7.09
419.626	7.1
420.069	7.13
420.511	7.14
420.953	7.17
421.396	7.21
421.838	7.23
422.28	7.27
422.722	7.3
423.164	7.31
423.606	7.34
424.048	7.35
424.49	7.35
424.932	7.36
425.374	7.33
425.816	7.31
426.258	7.28
426.699	7.29
427.141	7.29
427.582	7.31
428.024	7.33
428.465	7.33
428.907	7.33
429.348	7.33
429.789	7.35
430.231	7.4
430.672	7.45
431.113	7.49
431.554	7.52
431.995	7.54
432.436	7.56
432.877	7.59
433.318	7.62
433.759	7.67
434.2	7.72
434.64	7.76
435.081	7.79
435.522	7.81
435.962	7.83
436.403	7.85
436.843	7.86
437.284	7.85
437.724	7.87
438.164	7.86
438.604	7.88
439.045	7.87
439.485	7.86
439.925	7.86
440.365	7.87
440.805	7.88
441.245	7.91
441.685	7.94
442.125	7.97
442.564	7.98
443.004	8
443.444	8.01
443.883	8.05
444.323	8.07
444.762	8.09
445.202	8.12
445.641	8.16
446.081	8.17
446.52	8.18
446.959	8.22
447.398	8.24
447.837	8.26
448.276	8.29
448.716	8.29
449.154	8.31
449.593	8.33
450.032	8.33
450.471	8.31
450.91	8.33
451.349	8.34
451.787	8.32
452.226	8.3
452.664	8.31
453.103	8.28
453.541	8.26
453.98	8.26
454.418	8.23
454.856	8.22
455.295	8.21
455.733	8.16
456.171	8.13
456.609	8.13
457.047	8.11
457.485	8.1
457.923	8.11
458.361	8.11
458.798	8.1
459.236	8.1
459.674	8.1
460.111	8.1
460.549	8.12
460.987	8.13
461.424	8.13
461.862	8.15
462.299	8.16
462.736	8.16
463.173	8.16
463.611	8.18
464.048	8.19
464.485	8.2
464.922	8.2
465.359	8.21
465.796	8.23
466.233	8.24
466.67	8.25
467.106	8.25
467.543	8.25
467.98	8.24
468.416	8.23
468.853	8.21
469.29	8.19
469.726	8.19
470.162	8.2
470.599	8.17
471.035	8.15
471.471	8.14
471.907	8.11
472.344	8.1
472.78	8.11
473.216	8.09
473.652	8.09
474.088	8.08
474.523	8.08
474.959	8.07
475.395	8.05
475.831	8.05
476.266	8.04
476.702	8.03
477.138	8.02
477.573	8.02
478.008	8.02
478.444	8
478.879	8
479.314	7.98
479.75	7.96
480.185	7.94
480.62	7.91
481.055	7.9
481.49	7.89
481.925	7.88
482.36	7.87
482.795	7.85
483.229	7.84
483.664	7.84
484.099	7.83
484.534	7.83
484.968	7.84
485.403	7.85
485.837	7.85
486.271	7.87
486.706	7.87
487.14	7.88
487.574	7.9
488.009	7.92
488.443	7.93
488.877	7.96
489.311	7.99
489.745	8.02
490.179	8.07
490.613	8.11
491.046	8.14
491.48	8.17
491.914	8.21
492.348	8.25
492.781	8.3
493.215	8.35
493.648	8.4
494.082	8.44
494.515	8.48
494.948	8.54
495.382	8.58
495.815	8.65
496.248	8.72
496.681	8.8
497.114	8.86
497.547	8.94
497.98	9.02
498.413	9.1
498.846	9.19
499.279	9.28
499.711	9.36
500.144	9.46
500.577	9.57
501.009	9.65
501.442	9.76
501.874	9.88
502.306	9.99
502.739	10.12
503.171	10.26
503.603	10.39
504.036	10.54
504.468	10.69
504.9	10.84
505.332	10.99
505.764	11.17
506.196	11.34
506.627	11.53
507.059	11.73
507.491	11.91
507.923	12.11
508.354	12.33
508.786	12.54
509.217	12.77
509.649	13.01
510.08	13.24
510.512	13.49
510.943	13.73
511.374	13.97
511.805	14.23
512.237	14.48
512.668	14.75
513.099	15.01
513.53	15.28
513.961	15.57
514.391	15.85
514.822	16.15
515.253	16.42
515.684	16.71
516.114	17.01
516.545	17.32
516.975	17.62
517.406	17.94
517.836	18.23
518.267	18.55
518.697	18.84
519.127	19.13
519.558	19.42
519.988	19.73
520.418	20.03
520.848	20.32
521.278	20.59
521.708	21.12
522.138	21.4
522.567	21.68
522.997	21.95
523.427	22.22
523.857	22.49
524.286	22.75
524.716	23
525.145	23.24
525.575	23.48
526.004	23.73
526.433	23.71
526.863	23.92
527.292	24.14
527.721	24.33
528.15	24.51
528.579	24.7
529.008	24.89
529.437	25.06
529.866	25.22
530.295	25.37
530.724	25.53
531.152	25.68
531.581	25.83
532.01	25.96
532.438	26.1
532.867	26.24
533.295	26.34
533.723	26.44
534.152	26.55
534.58	26.65
535.008	26.74
535.436	26.83
535.865	26.91
536.293	26.98
536.721	27.06
537.149	27.14
537.576	27.2
538.004	27.29
538.432	27.35
538.86	27.41
539.287	27.46
539.715	27.52
540.143	27.56
540.57	27.62
540.998	27.68
541.425	27.73
541.852	27.77
542.28	27.81
542.707	27.84
543.134	27.89
543.561	27.94
543.988	27.99
544.415	28.03
544.842	28.06
545.269	28.11
545.696	28.13
546.123	28.16
546.549	28.19
546.976	28.24
547.403	28.27
547.829	28.3
548.256	28.31
548.682	28.34
549.108	28.38
549.535	28.41
549.961	28.42
550.387	28.44
550.813	28.48
551.24	28.49
551.666	28.49
552.092	28.5
552.518	28.49
552.943	28.49
553.369	28.47
553.795	28.45
554.221	28.43
554.646	28.41
555.072	28.4
555.498	28.34
555.923	28.29
556.349	28.22
556.774	28.17
557.199	28.11
557.625	28.05
558.05	27.98
558.475	27.91
558.9	27.84
559.325	27.76
559.75	27.68
560.175	27.6
560.6	27.5
561.025	27.42
561.449	27.32
561.874	27.22
562.299	27.11
562.723	26.99
563.148	26.85
563.572	26.71
563.997	26.57
564.421	26.42
564.846	26.29
565.27	26.16
565.694	26.04
566.118	25.88
566.542	25.74
566.966	25.59
567.39	25.45
567.814	25.31
568.238	25.18
568.662	25.04
569.086	24.9
569.509	24.75
569.933	24.63
570.357	24.46
570.78	24.33
571.204	24.2
571.627	24.07
572.05	23.93
572.474	23.82
572.897	23.69
573.32	23.57
573.743	23.44
574.166	23.33
574.589	23.2
575.012	23.1
575.435	22.97
575.858	22.86
576.281	22.74
576.704	22.63
577.126	22.5
577.549	22.39
577.972	22.28
578.394	22.19
578.817	22.09
579.239	21.99
579.661	21.91
580.084	21.83
580.506	21.75
580.928	21.67
581.35	21.58
581.772	21.5
582.194	21.43
582.616	21.36
583.038	21.27
583.46	21.19
583.882	21.12
584.303	21.03
584.725	20.95
585.147	20.89
585.568	20.81
585.99	20.76
586.411	20.71
586.833	20.63
587.254	20.56
587.675	20.49
588.096	20.43
588.518	20.37
588.939	20.34
589.36	20.28
589.781	20.21
590.202	20.19
590.623	20.13
591.043	20.08
591.464	20.05
591.885	20.01
592.305	19.98
592.726	19.95
593.147	19.91
593.567	19.85
593.987	19.82
594.408	19.78
594.828	19.73
595.248	19.69
595.669	19.65
596.089	19.61
596.509	19.57
596.929	19.53
597.349	19.48
597.769	19.45
598.189	19.42
598.608	19.38
599.028	19.35
599.448	19.3
599.867	19.26
600.287	19.22
600.706	19.17
601.126	19.13
601.545	19.09
601.965	19.05
602.384	19
602.803	18.94
603.222	18.88
603.641	18.81
604.061	18.76
604.48	18.7
604.898	18.63
605.317	18.57
605.736	18.49
606.155	18.42
606.574	18.33
606.992	18.25
607.411	18.18
607.829	18.07
608.248	17.99
608.666	17.9
609.085	17.82
609.503	17.75
609.921	17.67
610.339	17.59
610.758	17.51
611.176	17.42
611.594	17.35
612.012	17.25
612.43	17.19
612.847	17.12
613.265	17.05
613.683	16.97
614.101	16.89
614.518	16.8
614.936	16.72
615.353	16.62
615.771	16.55
616.188	16.48
616.606	16.41
617.023	16.36
617.44	16.31
617.857	16.24
618.274	16.18
618.691	16.13
619.108	16.08
619.525	16.02
619.942	16
620.359	15.96
620.776	15.93
621.192	15.89
621.609	15.86
622.026	15.81
622.442	15.79
622.859	15.76
623.275	15.73
623.691	15.7
624.108	15.69
624.524	15.68
624.94	15.67
625.356	15.66
625.772	15.64
626.188	15.64
626.604	15.63
627.02	15.61
627.436	15.61
627.852	15.61
628.268	15.62
628.683	15.6
629.099	15.59
629.514	15.57
629.93	15.54
630.345	15.53
630.761	15.49
631.176	15.47
631.591	15.44
632.007	15.41
632.422	15.35
632.837	15.31
633.252	15.26
633.667	15.19
634.082	15.12
634.497	15.08
634.911	15.02
635.326	14.94
635.741	14.86
636.155	14.78
636.57	14.67
636.984	14.59
637.399	14.48
637.813	14.38
638.228	14.28
638.642	14.17
639.056	14.04
639.47	13.91
639.884	13.8
640.298	13.67
640.712	13.55
641.126	13.44
641.54	13.3
641.954	13.18
642.368	13.06
642.781	12.94
643.195	12.81
643.609	12.72
644.022	12.6
644.436	12.48
644.849	12.38
645.262	12.27
645.676	12.17
646.089	12.08
646.502	12
646.915	11.92
647.328	11.84
647.741	11.77
648.154	11.69
648.567	11.64
648.98	11.58
649.393	11.52
649.805	11.48
650.218	11.43
650.631	11.38
651.043	11.34
651.456	11.29
651.868	11.23
652.28	11.19
652.693	11.15
653.105	11.09
653.517	11.03
653.929	10.97
654.341	10.89
654.753	10.83
655.165	10.75
655.577	10.68
655.989	10.59
656.401	10.52
656.813	10.43
657.224	10.32
657.636	10.22
658.047	10.12
658.459	10.03
658.87	9.94
659.282	9.83
659.693	9.74
660.104	9.63
660.515	9.54
660.926	9.43
661.338	9.32
661.749	9.22
662.159	9.13
662.57	9.04
662.981	8.94
663.392	8.86
663.803	8.77
664.213	8.69
664.624	8.62
665.035	8.54
665.445	8.48
665.855	8.44
666.266	8.4
666.676	8.36
667.086	8.31
667.497	8.28
667.907	8.25
668.317	8.22
668.727	8.2
669.137	8.17
669.547	8.15
669.956	8.13
670.366	8.11
670.776	8.09
671.186	8.06
671.595	8.04
672.005	8.03
672.414	8.02
672.824	8.02
673.233	8.02
673.642	8.03
674.052	8.04
674.461	8.05
674.87	8.06
675.279	8.08
675.688	8.11
676.097	8.14
676.506	8.17
676.915	8.2
677.323	8.24
677.732	8.27
678.141	8.29
678.549	8.33
678.958	8.38
679.366	8.46
679.775	8.51
680.183	8.59
680.592	8.68
681	8.76
681.408	8.86
681.816	8.97
682.224	9.1
682.632	9.25
683.04	9.4
683.448	9.56
683.856	9.73
684.264	9.94
684.671	10.16
685.079	10.4
685.487	10.67
685.894	10.97
686.302	11.28
686.709	11.62
687.116	11.98
687.524	12.38
687.931	12.79
688.338	13.23
688.745	13.67
689.152	14.15
689.559	14.66
689.966	15.17
690.373	15.7
690.78	16.25
691.187	16.82
691.593	17.4
692	17.99
692.407	18.58
692.813	19.2
693.22	19.81
693.626	20.44
694.032	21.06
694.439	21.7
694.845	22.33
695.251	22.95
695.657	23.58
696.063	24.2
696.469	24.81
696.875	25.44
697.281	26.04
697.687	26.65
698.093	27.25
698.498	27.83
698.904	28.39
699.31	28.96
699.715	29.52
700.12	30.06
700.526	30.6
700.931	31.13
701.337	31.63
701.742	32.12
702.147	32.6
702.552	33.06
702.957	33.53
703.362	34
703.767	34.44
704.172	34.86
704.577	35.29
704.981	35.71
705.386	36.12
705.791	36.54
706.195	36.95
706.6	37.37
707.004	37.77
707.408	38.14
707.813	38.52
708.217	38.9
708.621	39.3
709.025	39.64
709.43	39.98
709.834	40.32
710.237	40.64
710.641	40.96
711.045	41.26
711.449	41.59
711.853	41.94
712.256	42.24
712.66	42.54
713.064	42.81
713.467	43.11
713.87	43.4
714.274	43.68
714.677	43.95
715.08	44.2
715.484	44.47
715.887	44.74
716.29	44.96
716.693	45.21
717.096	45.42
717.499	45.67
717.901	45.92
718.304	46.16
718.707	46.39
719.109	46.64
719.512	46.88
719.915	47.09
720.317	47.25
720.719	47.42
721.122	47.6
721.524	47.83
721.926	48
722.328	48.18
722.731	48.32
723.133	48.49
723.535	48.62
723.937	48.75
724.338	48.91
724.74	49.07
725.142	49.4
725.544	49.54
725.945	49.68
726.347	49.79
726.748	49.91
727.15	50
727.551	50.14
727.952	50.22
728.354	50.34
728.755	50.42
729.156	50.5
729.557	50.43
729.958	50.49
730.359	50.56
730.76	50.66
731.161	50.74
731.562	50.84
731.962	50.89
732.363	50.98
732.763	51.03
733.164	51.12
733.564	51.19
733.965	51.27
734.365	51.36
734.766	51.42
735.166	51.48
735.566	51.55
735.966	51.62
736.366	51.67
736.766	51.72
737.166	51.78
737.566	51.8
737.966	51.83
738.365	51.87
738.765	51.92
739.165	51.94
739.564	51.99
739.964	52
740.363	52.02
740.763	52.09
741.162	52.14
741.561	52.18
741.96	52.26
742.36	52.3
742.759	52.34
743.158	52.35
743.557	52.38
743.955	52.41
744.354	52.45
744.753	52.48
745.152	52.5
745.55	52.51
745.949	52.52
746.348	52.5
746.746	52.51
747.144	52.52
747.543	52.53
747.941	52.55
748.339	52.54
748.737	52.55
749.136	52.55
749.534	52.52
749.932	52.51
750.33	52.51
750.727	52.54
751.125	52.54
751.523	52.53
751.921	52.56
752.318	52.57
752.716	52.6
753.113	52.6
753.511	52.61
753.908	52.67
754.305	52.7
754.703	52.73
755.1	52.76
755.497	52.78
755.894	52.79
756.291	52.79
756.688	52.8
757.085	52.82
757.482	52.86
757.878	52.9
758.275	52.88
758.672	52.9
759.068	52.9
759.465	52.93
759.861	52.92
760.258	52.94
760.654	52.95
761.05	52.98
761.447	52.98
761.843	52.98
762.239	52.98
762.635	52.98
763.031	52.98
763.427	52.96
763.822	52.95
764.218	52.95
764.614	52.97
765.01	52.98
765.405	52.97
765.801	52.97
766.196	52.95
766.592	52.92
766.987	52.93
767.382	52.93
767.778	52.96
768.173	52.96
768.568	52.96
768.963	52.95
769.358	52.95
769.753	52.95
770.148	52.94
770.542	52.95
770.937	52.98
771.332	52.97
771.726	52.99
772.121	52.98
772.515	53
772.91	53.01
773.304	53.03
773.699	53.03
774.093	53.03
774.487	53.06
774.881	53.09
775.275	53.06
775.669	53.03
776.063	53
776.457	53
776.851	52.98
777.245	52.96
777.638	52.96
778.032	52.98
778.425	53
778.819	52.98
779.212	53.01
779.606	53.06
779.999	53.09
780.392	53.11
780.786	53.13
781.179	53.16
