Data from C_2_DEC_NC_4N_Splice17_13-28-22-885.txt Node
Date: Sat Mar 07 13:28:22 EST 2020
User: sa697716
Spectrometer: NQ5500242
Trigger mode: 0
Integration Time (sec): 1.450000E-1
Scans to average: 20
Nonlinearity correction enabled: false
Boxcar width: 5
Storing dark spectrum: false
XAxis mode: Wavelengths
Number of Pixels in Spectrum: 512
>>>>>Begin Spectral Data<<<<<
187.83	229.13
188.298	235.09
188.766	202.8
189.233	174.71
189.701	186.23
190.169	227.1
190.636	270.78
191.104	449.32
191.571	408.81
192.039	245.22
192.506	80.45
192.974	65.66
193.441	132.33
193.908	44.69
194.375	19.84
194.842	14.47
195.31	36.72
195.777	131.61
196.244	64.81
196.711	63.77
197.177	64.9
197.644	64.15
198.111	63.08
198.578	62.4
199.045	62.58
199.511	62.82
199.978	62.71
200.445	62.83
200.911	62.65
201.378	62.42
201.844	62.01
202.31	61.33
202.777	60.93
203.243	60.81
203.709	60.4
204.176	59.44
204.642	58.71
205.108	57.99
205.574	57.39
206.04	56.33
206.506	55.72
206.972	55.16
207.438	54.2
207.903	53.18
208.369	51.69
208.835	50.42
209.301	49.18
209.766	47.58
210.232	46.13
210.697	44.6
211.163	43.42
211.628	42.17
212.094	40.89
212.559	39.82
213.024	38.71
213.49	37.8
213.955	36.74
214.42	35.66
214.885	34.42
215.35	32.93
215.815	30.94
216.28	28.34
216.745	25.55
217.21	22.72
217.675	20.2
218.14	17.92
218.604	15.94
219.069	14.3
219.534	12.95
219.998	11.81
220.463	10.88
220.927	10.07
221.392	9.45
221.856	8.94
222.32	8.49
222.785	8.12
223.249	7.8
223.713	7.55
224.177	7.3
224.642	7.07
225.106	6.84
225.57	6.62
226.034	6.44
226.497	6.29
226.961	6.13
227.425	5.98
227.889	5.82
228.353	5.68
228.816	5.54
229.28	5.41
229.744	5.29
230.207	5.2
230.671	5.1
231.134	5
231.597	4.92
232.061	4.83
232.524	4.77
232.987	4.71
233.45	4.67
233.914	4.6
234.377	4.53
234.84	4.47
235.303	4.42
235.766	4.37
236.229	4.33
236.691	4.28
237.154	4.24
237.617	4.19
238.08	4.15
238.542	4.09
239.005	4.05
239.468	4.02
239.93	3.99
240.393	3.96
240.855	3.92
241.317	3.87
241.78	3.83
242.242	3.79
242.704	3.76
243.166	3.73
243.629	3.69
244.091	3.66
244.553	3.62
245.015	3.58
245.477	3.54
245.939	3.52
246.4	3.49
246.862	3.46
247.324	3.43
247.786	3.4
248.247	3.36
248.709	3.33
249.17	3.29
249.632	3.28
250.093	3.26
250.555	3.24
251.016	3.21
251.477	3.19
251.939	3.18
252.4	3.17
252.861	3.14
253.322	3.13
253.783	3.12
254.244	3.11
254.705	3.09
255.166	3.08
255.627	3.06
256.088	3.05
256.549	3.03
257.009	3.01
257.47	2.98
257.931	2.96
258.391	2.93
258.852	2.9
259.312	2.87
259.773	2.85
260.233	2.83
260.694	2.8
261.154	2.78
261.614	2.76
262.074	2.74
262.534	2.71
262.994	2.7
263.455	2.69
263.915	2.67
264.374	2.66
264.834	2.65
265.294	2.62
265.754	2.62
266.214	2.6
266.673	2.59
267.133	2.59
267.593	2.58
268.052	2.57
268.512	2.56
268.971	2.55
269.431	2.55
269.89	2.54
270.349	2.54
270.809	2.53
271.268	2.53
271.727	2.52
272.186	2.52
272.645	2.51
273.104	2.51
273.563	2.51
274.022	2.5
274.481	2.51
274.94	2.5
275.399	2.5
275.857	2.49
276.316	2.49
276.775	2.49
277.233	2.49
277.692	2.5
278.15	2.5
278.609	2.5
279.067	2.5
279.525	2.5
279.984	2.5
280.442	2.5
280.9	2.51
281.358	2.51
281.816	2.52
282.274	2.52
282.732	2.52
283.19	2.52
283.648	2.51
284.106	2.51
284.564	2.51
285.021	2.52
285.479	2.52
285.937	2.52
286.394	2.51
286.852	2.51
287.309	2.5
287.767	2.49
288.224	2.49
288.682	2.48
289.139	2.48
289.596	2.47
290.053	2.45
290.511	2.44
290.968	2.43
291.425	2.41
291.882	2.4
292.339	2.39
292.796	2.38
293.252	2.37
293.709	2.36
294.166	2.35
294.623	2.34
295.079	2.34
295.536	2.34
295.992	2.34
296.449	2.34
296.905	2.33
297.362	2.33
297.818	2.33
298.274	2.33
298.731	2.33
299.187	2.32
299.643	2.32
300.099	2.31
300.555	2.31
301.011	2.3
301.467	2.3
301.923	2.29
302.379	2.29
302.835	2.3
303.291	2.3
303.746	2.29
304.202	2.3
304.658	2.31
305.113	2.31
305.569	2.31
306.024	2.31
306.479	2.31
306.935	2.31
307.39	2.31
307.845	2.32
308.301	2.32
308.756	2.32
309.211	2.32
309.666	2.33
310.121	2.33
310.576	2.33
311.031	2.34
311.486	2.34
311.94	2.35
312.395	2.35
312.85	2.35
313.305	2.35
313.759	2.36
314.214	2.36
314.668	2.36
315.123	2.36
315.577	2.36
316.032	2.35
316.486	2.35
316.94	2.35
317.394	2.35
317.849	2.33
318.303	2.33
318.757	2.31
319.211	2.31
319.665	2.29
320.119	2.28
320.572	2.27
321.026	2.26
321.48	2.25
321.934	2.25
322.387	2.24
322.841	2.24
323.295	2.24
323.748	2.24
324.202	2.24
324.655	2.24
325.108	2.25
325.562	2.25
326.015	2.26
326.468	2.26
326.921	2.26
327.374	2.26
327.827	2.27
328.28	2.27
328.733	2.27
329.186	2.28
329.639	2.28
330.092	2.29
330.545	2.29
330.997	2.29
331.45	2.3
331.903	2.31
332.355	2.31
332.808	2.31
333.26	2.31
333.713	2.31
334.165	2.31
334.617	2.32
335.069	2.31
335.522	2.32
335.974	2.33
336.426	2.33
336.878	2.31
337.33	2.32
337.782	2.32
338.234	2.33
338.686	2.34
339.137	2.34
339.589	2.33
340.041	2.32
340.493	2.31
340.944	2.29
341.396	2.29
341.847	2.3
342.299	2.29
342.75	2.27
343.201	2.25
343.653	2.24
344.104	2.22
344.555	2.22
345.006	2.21
345.457	2.2
345.908	2.2
346.359	2.2
346.81	2.19
347.261	2.19
347.712	2.19
348.163	2.19
348.613	2.2
349.064	2.21
349.515	2.21
349.965	2.22
350.416	2.21
350.866	2.21
351.317	2.21
351.767	2.22
352.217	2.22
352.668	2.23
353.118	2.23
353.568	2.22
354.018	2.23
354.468	2.23
354.918	2.23
355.368	2.23
355.818	2.24
356.268	2.24
356.718	2.24
357.168	2.24
357.617	2.23
358.067	2.22
358.517	2.24
358.966	2.26
359.416	2.26
359.865	2.26
360.315	2.26
360.764	2.27
361.213	2.28
361.663	2.28
362.112	2.29
362.561	2.3
363.01	2.3
363.459	2.28
363.908	2.27
364.357	2.28
364.806	2.28
365.255	2.29
365.703	2.29
366.152	2.29
366.601	2.3
367.05	2.31
367.498	2.3
367.947	2.31
368.395	2.32
368.844	2.33
369.292	2.33
369.74	2.34
370.189	2.33
370.637	2.32
371.085	2.32
371.533	2.32
371.981	2.32
372.429	2.34
372.877	2.34
373.325	2.34
373.773	2.34
374.221	2.34
374.669	2.34
375.116	2.34
375.564	2.35
376.012	2.35
376.459	2.34
376.907	2.35
377.354	2.35
377.801	2.35
378.249	2.36
378.696	2.37
379.143	2.39
379.591	2.4
380.038	2.41
380.485	2.43
380.932	2.45
381.379	2.47
381.826	2.5
382.273	2.52
382.72	2.54
383.166	2.58
383.613	2.62
384.06	2.66
384.506	2.72
384.953	2.81
385.4	2.91
385.846	3.05
386.292	3.2
386.739	3.38
387.185	3.58
387.631	3.79
388.078	3.98
388.524	4.15
388.97	4.34
389.416	4.59
389.862	4.93
390.308	5.36
390.754	5.86
391.2	6.37
391.645	6.83
392.091	7.27
392.537	7.74
392.983	8.43
393.428	9.38
393.874	10.53
394.319	11.82
394.765	13.16
395.21	14.54
395.655	16
396.101	17.58
396.546	19.34
396.991	21.29
397.436	23.37
397.881	25.45
398.326	27.41
398.771	29.28
399.216	31.02
399.661	32.63
400.106	34.03
400.551	35.28
400.995	36.38
401.44	37.39
401.885	38.36
402.329	39.34
402.774	40.39
403.218	41.56
403.663	42.77
404.107	44.07
404.551	45.36
404.995	46.61
405.44	47.83
405.884	49.1
406.328	50.53
406.772	52.06
407.216	53.61
407.66	54.98
408.104	56.15
408.547	57.18
408.991	58.12
409.435	59.18
409.879	60.4
410.322	61.82
410.766	63.24
411.209	64.57
411.653	65.74
412.096	66.77
412.54	67.75
412.983	68.87
413.426	70.04
413.869	71.21
414.312	72.32
414.756	73.28
415.199	74.07
415.642	74.73
416.085	75.21
416.527	75.48
416.97	75.5
417.413	75.39
417.856	75.11
418.298	74.89
418.741	74.76
419.184	74.78
419.626	74.94
420.069	75.18
420.511	75.49
420.953	75.88
421.396	76.55
421.838	77.47
422.28	78.4
422.722	79.44
423.164	80.32
423.606	81.08
424.048	81.53
424.49	81.55
424.932	81
425.374	79.74
425.816	78.1
426.258	76.42
426.699	75.27
427.141	75.11
427.582	75.67
428.024	76.61
428.465	77.54
428.907	78.31
429.348	79.1
429.789	80.42
430.231	82.74
430.672	85.8
431.113	89.17
431.554	92.09
431.995	94.24
432.436	95.63
432.877	96.74
433.318	97.78
433.759	99.06
434.2	100.72
434.64	102.49
435.081	104.05
435.522	105.43
435.962	106.38
436.403	107.31
436.843	107.95
437.284	108.58
437.724	109.32
438.164	110.28
438.604	111.47
439.045	112.51
439.485	113.39
439.925	114.07
440.365	114.56
440.805	114.98
441.245	115.17
441.685	115.66
442.125	116.1
442.564	116.6
443.004	116.99
443.444	117.55
443.883	118.13
444.323	118.75
444.762	119.4
445.202	120.11
445.641	120.98
446.081	122.19
446.52	123
446.959	123.96
447.398	124.64
447.837	124.82
448.276	124.61
448.716	124.33
449.154	124.1
449.593	123.82
450.032	123.17
450.471	122.27
450.91	121.14
451.349	120.11
451.787	119
452.226	117.94
452.664	117.07
453.103	116.27
453.541	115.18
453.98	114.01
454.418	112.67
454.856	111.48
455.295	110.59
455.733	109.51
456.171	108.62
456.609	107.93
457.047	106.83
457.485	106.26
457.923	105.9
458.361	105.75
458.798	105.76
459.236	105.77
459.674	106.03
460.111	106.08
460.549	106.52
460.987	106.9
461.424	107.08
461.862	107.76
462.299	108.11
462.736	108.37
463.173	108.9
463.611	109.44
464.048	110.2
464.485	110.87
464.922	111.6
465.359	112.28
465.796	112.8
466.233	113.67
466.67	114.36
467.106	115.06
467.543	115.71
467.98	116.22
468.416	116.64
468.853	116.9
469.29	117.04
469.726	117.23
470.162	117.24
470.599	117.03
471.035	116.68
471.471	116.23
471.907	115.69
472.344	115.16
472.78	114.33
473.216	113.34
473.652	112.36
474.088	111.24
474.523	109.92
474.959	108.65
475.395	107.38
475.831	106.03
476.266	104.69
476.702	103.34
477.138	101.79
477.573	100.33
478.008	98.86
478.444	97.24
478.879	95.73
479.314	94.29
479.75	92.8
480.185	91.35
480.62	89.83
481.055	88.35
481.49	86.76
481.925	85.28
482.36	83.9
482.795	82.66
483.229	81.6
483.664	80.5
484.099	79.37
484.534	78.32
484.968	77.45
485.403	76.55
485.837	75.84
486.271	75.2
486.706	74.52
487.14	74.01
487.574	73.44
488.009	72.88
488.443	72.36
488.877	71.96
489.311	71.6
489.745	71.26
490.179	71.06
490.613	70.79
491.046	70.64
491.48	70.57
491.914	70.43
492.348	70.36
492.781	70.33
493.215	70.38
493.648	70.43
494.082	70.49
494.515	70.57
494.948	70.65
495.382	70.75
495.815	70.81
496.248	70.95
496.681	71.07
497.114	71.19
497.547	71.28
497.98	71.39
498.413	71.47
498.846	71.62
499.279	71.72
499.711	71.84
500.144	72
500.577	72.19
501.009	72.34
501.442	72.57
501.874	72.72
502.306	72.99
502.739	73.22
503.171	73.58
503.603	73.81
504.036	74.07
504.468	74.35
504.9	74.64
505.332	74.91
505.764	75.22
506.196	75.5
506.627	75.85
507.059	76.16
507.491	76.47
507.923	76.65
508.354	77
508.786	77.37
509.217	77.71
509.649	78.11
510.08	78.49
510.512	78.9
510.943	79.36
511.374	79.83
511.805	80.24
512.237	80.7
512.668	81.24
513.099	81.72
513.53	82.2
513.961	82.71
514.391	83.15
514.822	83.58
515.253	83.98
515.684	84.33
516.114	84.69
516.545	84.99
516.975	85.27
517.406	85.47
517.836	85.67
518.267	85.85
518.697	85.96
519.127	86.03
519.558	86.14
519.988	86.26
520.418	86.38
520.848	86.43
521.278	86.54
521.708	86.62
522.138	86.84
522.567	86.99
522.997	87.14
523.427	87.33
523.857	87.5
524.286	87.72
524.716	87.91
525.145	88.07
525.575	88.33
526.004	88.55
526.433	88.82
526.863	89.05
527.292	89.24
527.721	89.4
528.15	89.57
528.579	89.73
529.008	89.93
529.437	90.06
529.866	90.23
530.295	90.38
530.724	90.54
531.152	90.66
531.581	90.76
532.01	90.89
532.438	90.99
532.867	91.14
533.295	91.28
533.723	91.38
534.152	91.53
534.58	91.62
535.008	91.68
535.436	91.8
535.865	91.87
536.293	91.95
536.721	92.07
537.149	92.24
537.576	92.45
538.004	92.71
538.432	92.87
538.86	93.06
539.287	93.25
539.715	93.49
540.143	93.74
540.57	94.06
540.998	94.38
541.425	94.61
541.852	94.96
542.28	95.23
542.707	95.53
543.134	95.85
543.561	96.11
543.988	96.43
544.415	96.74
544.842	97.04
545.269	97.3
545.696	97.58
546.123	97.96
546.549	98.21
546.976	98.43
547.403	98.62
547.829	98.85
548.256	99.12
548.682	99.33
549.108	99.62
549.535	99.88
549.961	100.04
550.387	100.2
550.813	100.34
551.24	100.51
551.666	100.61
552.092	100.73
552.518	100.87
552.943	100.94
553.369	101.08
553.795	101.14
554.221	101.13
554.646	101.18
555.072	101.11
555.498	101.03
555.923	100.95
556.349	100.86
556.774	100.72
557.199	100.51
557.625	100.39
558.05	100.18
558.475	99.91
558.9	99.65
559.325	99.37
559.75	99.1
560.175	98.79
560.6	98.45
561.025	98.05
561.449	97.66
561.874	97.21
562.299	96.67
562.723	96.17
563.148	95.57
563.572	94.93
563.997	94.32
564.421	93.61
564.846	92.97
565.27	92.26
565.694	91.64
566.118	90.87
566.542	90.23
566.966	89.56
567.39	88.89
567.814	88.31
568.238	87.84
568.662	87.34
569.086	86.95
569.509	86.62
569.933	86.37
570.357	86.15
570.78	86.04
571.204	85.95
571.627	85.96
572.05	86.04
572.474	86.19
572.897	86.38
573.32	86.57
573.743	86.85
574.166	87.08
574.589	87.32
575.012	87.59
575.435	87.95
575.858	88.24
576.281	88.57
576.704	88.87
577.126	89.13
577.549	89.34
577.972	89.65
578.394	89.91
578.817	90.15
579.239	90.46
579.661	90.74
580.084	90.92
580.506	91.21
580.928	91.44
581.35	91.72
581.772	91.94
582.194	92.19
582.616	92.39
583.038	92.66
583.46	92.86
583.882	93
584.303	93.09
584.725	93.28
585.147	93.31
585.568	93.4
585.99	93.38
586.411	93.5
586.833	93.52
587.254	93.53
587.675	93.49
588.096	93.51
588.518	93.53
588.939	93.56
589.36	93.52
589.781	93.49
590.202	93.36
590.623	93.29
591.043	93.03
591.464	92.82
591.885	92.58
592.305	92.37
592.726	92.06
593.147	91.64
593.567	91.23
593.987	90.74
594.408	90.26
594.828	89.79
595.248	89.24
595.669	88.66
596.089	88.04
596.509	87.44
596.929	86.74
597.349	86.1
597.769	85.47
598.189	84.81
598.608	84.29
599.028	83.7
599.448	83.16
599.867	82.64
600.287	82.23
600.706	81.79
601.126	81.34
601.545	80.99
601.965	80.68
602.384	80.43
602.803	80.2
603.222	79.94
603.641	79.77
604.061	79.64
604.48	79.52
604.898	79.42
605.317	79.4
605.736	79.4
606.155	79.38
606.574	79.34
606.992	79.36
607.411	79.37
607.829	79.42
608.248	79.48
608.666	79.49
609.085	79.52
609.503	79.5
609.921	79.52
610.339	79.53
610.758	79.56
611.176	79.59
611.594	79.62
612.012	79.62
612.43	79.57
612.847	79.56
613.265	79.54
613.683	79.56
614.101	79.61
614.518	79.62
614.936	79.63
615.353	79.59
615.771	79.59
616.188	79.59
616.606	79.61
617.023	79.67
617.44	79.7
617.857	79.68
618.274	79.67
618.691	79.63
619.108	79.61
619.525	79.58
619.942	79.53
620.359	79.46
620.776	79.36
621.192	79.27
621.609	79.19
622.026	79.09
622.442	79.08
622.859	79
623.275	78.92
623.691	78.85
624.108	78.8
624.524	78.76
624.94	78.75
625.356	78.73
625.772	78.72
626.188	78.74
626.604	78.74
627.02	78.73
627.436	78.74
627.852	78.81
628.268	78.82
628.683	78.91
629.099	79.01
629.514	79.1
629.93	79.2
630.345	79.3
630.761	79.34
631.176	79.43
631.591	79.47
632.007	79.58
632.422	79.66
632.837	79.76
633.252	79.82
633.667	79.88
634.082	79.91
634.497	80.02
634.911	80.06
635.326	80.11
635.741	80.15
636.155	80.17
636.57	80.15
636.984	80.14
637.399	80.11
637.813	80.08
638.228	80
638.642	79.97
639.056	79.88
639.47	79.85
639.884	79.77
640.298	79.68
640.712	79.63
641.126	79.54
641.54	79.45
641.954	79.33
642.368	79.18
642.781	79.07
643.195	78.95
643.609	78.8
644.022	78.65
644.436	78.5
644.849	78.38
645.262	78.17
645.676	78.02
646.089	77.91
646.502	77.86
646.915	77.81
647.328	77.77
647.741	77.7
648.154	77.64
648.567	77.56
648.98	77.52
649.393	77.49
649.805	77.51
650.218	77.52
650.631	77.36
651.043	77.12
651.456	76.67
651.868	76.04
652.28	75.35
652.693	74.81
653.105	74.36
653.517	74.05
653.929	73.78
654.341	73.57
654.753	73.34
655.165	73.26
655.577	73.29
655.989	73.53
656.401	73.95
656.813	74.45
657.224	74.8
657.636	75.05
658.047	75.21
658.459	75.22
658.87	75.18
659.282	75.15
659.693	75.06
660.104	74.91
660.515	74.75
660.926	74.6
661.338	74.45
661.749	74.26
662.159	74.07
662.57	73.87
662.981	73.71
663.392	73.51
663.803	73.33
664.213	73.15
664.624	73
665.035	72.85
665.445	72.64
665.855	72.43
666.266	72.25
666.676	72.03
667.086	71.76
667.497	71.5
667.907	71.3
668.317	71.07
668.727	70.87
669.137	70.63
669.547	70.43
669.956	70.24
670.366	70.04
670.776	69.85
671.186	69.68
671.595	69.54
672.005	69.42
672.414	69.31
672.824	69.19
673.233	69.1
673.642	69.01
674.052	68.91
674.461	68.82
674.87	68.74
675.279	68.7
675.688	68.65
676.097	68.6
676.506	68.56
676.915	68.52
677.323	68.5
677.732	68.48
678.141	68.51
678.549	68.49
678.958	68.53
679.366	68.55
679.775	68.52
680.183	68.51
680.592	68.53
681	68.57
681.408	68.58
681.816	68.49
682.224	68.13
682.632	67.4
683.04	66.44
683.448	65.47
683.856	64.6
684.264	63.87
684.671	63.19
685.079	62.55
685.487	61.97
685.894	61.5
686.302	61.24
686.709	61.35
687.116	61.91
687.524	62.81
687.931	63.82
688.338	64.8
688.745	65.72
689.152	66.66
689.559	67.6
689.966	68.47
690.373	69.29
690.78	70.06
691.187	70.77
691.593	71.46
692	72.11
692.407	72.73
692.813	73.39
693.22	73.98
693.626	74.55
694.032	75.11
694.439	75.65
694.845	76.21
695.251	76.72
695.657	77.2
696.063	77.62
696.469	77.96
696.875	78.29
697.281	78.56
697.687	78.85
698.093	79.13
698.498	79.45
698.904	79.77
699.31	80.11
699.715	80.5
700.12	80.92
700.526	81.38
700.931	81.91
701.337	82.38
701.742	82.84
702.147	83.34
702.552	83.83
702.957	84.24
703.362	84.67
703.767	85.06
704.172	85.44
704.577	85.79
704.981	86.12
705.386	86.39
705.791	86.72
706.195	87.07
706.6	87.39
707.004	87.67
707.408	87.97
707.813	88.27
708.217	88.49
708.621	88.74
709.025	88.96
709.43	89.17
709.834	89.42
710.237	89.62
710.641	89.76
711.045	89.9
711.449	90.09
711.853	90.21
712.256	90.19
712.66	90.06
713.064	89.77
713.467	89.37
713.87	88.82
714.274	88.15
714.677	87.42
715.08	86.67
715.484	85.89
715.887	85.17
716.29	84.57
716.693	84.29
717.096	84.29
717.499	84.57
717.901	85.06
718.304	85.71
718.707	86.39
719.109	87.07
719.512	87.66
719.915	88.25
720.317	88.69
720.719	89.06
721.122	89.29
721.524	89.38
721.926	89.37
722.328	89.28
722.731	89.12
723.133	89.05
723.535	89.04
723.937	89.14
724.338	89.23
724.74	89.38
725.142	89.6
725.544	89.72
725.945	89.89
726.347	89.98
726.748	90.04
727.15	90.19
727.551	90.41
727.952	90.67
728.354	91.01
728.755	91.41
729.156	91.84
729.557	92.29
729.958	92.77
730.359	93.22
730.76	93.69
731.161	94.09
731.562	94.46
731.962	94.69
732.363	94.91
732.763	95.07
733.164	95.22
733.564	95.32
733.965	95.29
734.365	95.25
734.766	95.14
735.166	95.04
735.566	95.01
735.966	95
736.366	94.98
736.766	94.95
737.166	94.86
737.566	94.75
737.966	94.68
738.365	94.64
738.765	94.66
739.165	94.72
739.564	94.81
739.964	94.85
740.363	94.84
740.763	94.85
741.162	94.88
741.561	94.97
741.96	95.01
742.36	95.04
742.759	95.07
743.158	95.04
743.557	95.01
743.955	94.96
744.354	94.91
744.753	94.88
745.152	94.85
745.55	94.75
745.949	94.64
746.348	94.52
746.746	94.38
747.144	94.21
747.543	94
747.941	93.83
748.339	93.59
748.737	93.36
749.136	93.17
749.534	92.95
749.932	92.81
750.33	92.65
750.727	92.51
751.125	92.37
751.523	92.2
751.921	92.04
752.318	91.85
752.716	91.71
753.113	91.6
753.511	91.43
753.908	91.27
754.305	90.98
754.703	90.31
755.1	88.97
755.497	86.71
755.894	83.44
756.291	79.56
756.688	75.42
757.085	71.49
757.482	67.84
757.878	64.44
758.275	61.11
758.672	57.7
759.068	54.67
759.465	52.39
759.861	51.26
760.258	51.38
760.654	52.38
761.05	53.94
761.447	55.56
761.843	57.09
762.239	58.65
762.635	60.46
763.031	62.7
763.427	65.12
763.822	67.64
764.218	70.12
764.614	72.48
765.01	74.68
765.405	76.62
765.801	78.35
766.196	79.94
766.592	81.25
766.987	82.32
767.382	83.09
767.778	83.67
768.173	84.11
768.568	84.4
768.963	84.59
769.358	84.74
769.753	84.85
