Data from C_2_DEC_OH_4N_Splice17_13-05-25-710.txt Node
Date: Sat Mar 07 13:05:25 EST 2020
User: sa697716
Spectrometer: NQ5500242
Trigger mode: 0
Integration Time (sec): 1.450000E-1
Scans to average: 20
Nonlinearity correction enabled: false
Boxcar width: 5
Storing dark spectrum: false
XAxis mode: Wavelengths
Number of Pixels in Spectrum: 512
>>>>>Begin Spectral Data<<<<<
187.83	182.2
188.298	198.36
188.766	181.04
189.233	148.21
189.701	153.73
190.169	192.19
190.636	194.8
191.104	253.51
191.571	82.53
192.039	-59.46
192.506	-53.84
192.974	72.78
193.441	70.27
193.908	17.9
194.375	33.78
194.842	17.81
195.31	99.53
195.777	125.27
196.244	36.9
196.711	36.31
197.177	38.63
197.644	38.45
198.111	37.64
198.578	37.92
199.045	38.95
199.511	38.6
199.978	38.38
200.445	38.28
200.911	38.3
201.378	38.48
201.844	38.19
202.31	37.8
202.777	37.94
203.243	38.15
203.709	37.96
204.176	37.26
204.642	37.22
205.108	37.09
205.574	36.76
206.04	36.16
206.506	35.6
206.972	35.61
207.438	35.55
207.903	34.87
208.369	33.97
208.835	33.25
209.301	32.3
209.766	31.25
210.232	30.15
210.697	29.34
211.163	28.75
211.628	28.08
212.094	27.3
212.559	26.86
213.024	26.2
213.49	25.73
213.955	25.15
214.42	24.69
214.885	24.05
215.35	23.43
215.815	22.22
216.28	20.46
216.745	18.65
217.21	16.8
217.675	14.93
218.14	13.49
218.604	12.09
219.069	10.95
219.534	10.1
219.998	9.33
220.463	8.68
220.927	8.11
221.392	7.69
221.856	7.34
222.32	7.06
222.785	6.82
223.249	6.57
223.713	6.4
224.177	6.29
224.642	6.11
225.106	5.93
225.57	5.78
226.034	5.65
226.497	5.53
226.961	5.4
227.425	5.28
227.889	5.16
228.353	5.05
228.816	4.94
229.28	4.82
229.744	4.73
230.207	4.65
230.671	4.55
231.134	4.47
231.597	4.42
232.061	4.35
232.524	4.26
232.987	4.2
233.45	4.16
233.914	4.11
234.377	4.05
234.84	3.99
235.303	3.95
235.766	3.92
236.229	3.87
236.691	3.81
237.154	3.78
237.617	3.75
238.08	3.72
238.542	3.68
239.005	3.65
239.468	3.61
239.93	3.58
240.393	3.55
240.855	3.49
241.317	3.46
241.78	3.43
242.242	3.38
242.704	3.35
243.166	3.31
243.629	3.29
244.091	3.25
244.553	3.22
245.015	3.18
245.477	3.15
245.939	3.12
246.4	3.09
246.862	3.06
247.324	3.03
247.786	3
248.247	2.97
248.709	2.92
249.17	2.88
249.632	2.86
250.093	2.83
250.555	2.8
251.016	2.78
251.477	2.75
251.939	2.73
252.4	2.7
252.861	2.67
253.322	2.65
253.783	2.62
254.244	2.61
254.705	2.59
255.166	2.57
255.627	2.54
256.088	2.52
256.549	2.5
257.009	2.47
257.47	2.45
257.931	2.42
258.391	2.39
258.852	2.36
259.312	2.33
259.773	2.31
260.233	2.29
260.694	2.27
261.154	2.24
261.614	2.22
262.074	2.19
262.534	2.17
262.994	2.16
263.455	2.14
263.915	2.12
264.374	2.11
264.834	2.09
265.294	2.06
265.754	2.05
266.214	2.04
266.673	2.02
267.133	2.01
267.593	2
268.052	1.98
268.512	1.98
268.971	1.96
269.431	1.96
269.89	1.95
270.349	1.94
270.809	1.94
271.268	1.93
271.727	1.92
272.186	1.92
272.645	1.91
273.104	1.91
273.563	1.9
274.022	1.9
274.481	1.9
274.94	1.89
275.399	1.88
275.857	1.88
276.316	1.87
276.775	1.87
277.233	1.87
277.692	1.86
278.15	1.86
278.609	1.87
279.067	1.87
279.525	1.86
279.984	1.86
280.442	1.86
280.9	1.87
281.358	1.86
281.816	1.87
282.274	1.87
282.732	1.87
283.19	1.87
283.648	1.86
284.106	1.85
284.564	1.85
285.021	1.85
285.479	1.85
285.937	1.84
286.394	1.85
286.852	1.84
287.309	1.83
287.767	1.83
288.224	1.82
288.682	1.82
289.139	1.81
289.596	1.8
290.053	1.79
290.511	1.77
290.968	1.77
291.425	1.75
291.882	1.74
292.339	1.72
292.796	1.72
293.252	1.71
293.709	1.7
294.166	1.7
294.623	1.69
295.079	1.69
295.536	1.69
295.992	1.69
296.449	1.69
296.905	1.68
297.362	1.68
297.818	1.67
298.274	1.67
298.731	1.67
299.187	1.66
299.643	1.66
300.099	1.66
300.555	1.65
301.011	1.64
301.467	1.64
301.923	1.63
302.379	1.63
302.835	1.63
303.291	1.63
303.746	1.63
304.202	1.64
304.658	1.64
305.113	1.64
305.569	1.64
306.024	1.65
306.479	1.65
306.935	1.65
307.39	1.65
307.845	1.65
308.301	1.66
308.756	1.66
309.211	1.66
309.666	1.67
310.121	1.67
310.576	1.68
311.031	1.68
311.486	1.69
311.94	1.69
312.395	1.7
312.85	1.71
313.305	1.7
313.759	1.7
314.214	1.7
314.668	1.7
315.123	1.7
315.577	1.71
316.032	1.71
316.486	1.7
316.94	1.71
317.394	1.71
317.849	1.7
318.303	1.69
318.757	1.68
319.211	1.68
319.665	1.66
320.119	1.65
320.572	1.64
321.026	1.63
321.48	1.63
321.934	1.61
322.387	1.6
322.841	1.61
323.295	1.62
323.748	1.62
324.202	1.62
324.655	1.63
325.108	1.63
325.562	1.64
326.015	1.64
326.468	1.64
326.921	1.64
327.374	1.64
327.827	1.65
328.28	1.65
328.733	1.65
329.186	1.64
329.639	1.64
330.092	1.65
330.545	1.65
330.997	1.65
331.45	1.66
331.903	1.67
332.355	1.68
332.808	1.68
333.26	1.68
333.713	1.68
334.165	1.69
334.617	1.69
335.069	1.69
335.522	1.69
335.974	1.7
336.426	1.69
336.878	1.69
337.33	1.68
337.782	1.69
338.234	1.69
338.686	1.69
339.137	1.7
339.589	1.69
340.041	1.69
340.493	1.69
340.944	1.67
341.396	1.67
341.847	1.67
342.299	1.65
342.75	1.65
343.201	1.63
343.653	1.62
344.104	1.61
344.555	1.61
345.006	1.6
345.457	1.6
345.908	1.6
346.359	1.6
346.81	1.59
347.261	1.6
347.712	1.59
348.163	1.58
348.613	1.59
349.064	1.59
349.515	1.59
349.965	1.58
350.416	1.57
350.866	1.58
351.317	1.57
351.767	1.57
352.217	1.57
352.668	1.57
353.118	1.58
353.568	1.58
354.018	1.59
354.468	1.6
354.918	1.61
355.368	1.61
355.818	1.61
356.268	1.62
356.718	1.63
357.168	1.63
357.617	1.63
358.067	1.63
358.517	1.63
358.966	1.63
359.416	1.63
359.865	1.63
360.315	1.63
360.764	1.64
361.213	1.62
361.663	1.62
362.112	1.63
362.561	1.64
363.01	1.64
363.459	1.63
363.908	1.62
364.357	1.62
364.806	1.61
365.255	1.61
365.703	1.62
366.152	1.63
366.601	1.63
367.05	1.63
367.498	1.63
367.947	1.63
368.395	1.65
368.844	1.65
369.292	1.65
369.74	1.65
370.189	1.65
370.637	1.63
371.085	1.63
371.533	1.63
371.981	1.62
372.429	1.63
372.877	1.62
373.325	1.62
373.773	1.61
374.221	1.61
374.669	1.62
375.116	1.61
375.564	1.61
376.012	1.61
376.459	1.61
376.907	1.61
377.354	1.61
377.801	1.61
378.249	1.61
378.696	1.61
379.143	1.61
379.591	1.6
380.038	1.61
380.485	1.61
380.932	1.61
381.379	1.61
381.826	1.61
382.273	1.6
382.72	1.58
383.166	1.58
383.613	1.59
384.06	1.58
384.506	1.58
384.953	1.58
385.4	1.58
385.846	1.58
386.292	1.58
386.739	1.57
387.185	1.58
387.631	1.59
388.078	1.6
388.524	1.59
388.97	1.59
389.416	1.59
389.862	1.61
390.308	1.62
390.754	1.63
391.2	1.64
391.645	1.65
392.091	1.66
392.537	1.67
392.983	1.67
393.428	1.7
393.874	1.71
394.319	1.72
394.765	1.72
395.21	1.72
395.655	1.72
396.101	1.73
396.546	1.74
396.991	1.75
397.436	1.75
397.881	1.77
398.326	1.78
398.771	1.8
399.216	1.79
399.661	1.8
400.106	1.82
400.551	1.83
400.995	1.84
401.44	1.86
401.885	1.87
402.329	1.88
402.774	1.89
403.218	1.92
403.663	1.92
404.107	1.94
404.551	1.96
404.995	1.96
405.44	1.97
405.884	1.99
406.328	2
406.772	2
407.216	2.01
407.66	2.02
408.104	2.01
408.547	2.03
408.991	2.05
409.435	2.05
409.879	2.08
410.322	2.11
410.766	2.13
411.209	2.15
411.653	2.17
412.096	2.19
412.54	2.22
412.983	2.24
413.426	2.26
413.869	2.28
414.312	2.32
414.756	2.32
415.199	2.33
415.642	2.34
416.085	2.35
416.527	2.35
416.97	2.35
417.413	2.35
417.856	2.37
418.298	2.36
418.741	2.36
419.184	2.36
419.626	2.36
420.069	2.38
420.511	2.39
420.953	2.4
421.396	2.41
421.838	2.43
422.28	2.44
422.722	2.46
423.164	2.46
423.606	2.48
424.048	2.48
424.49	2.49
424.932	2.48
425.374	2.46
425.816	2.44
426.258	2.43
426.699	2.41
427.141	2.41
427.582	2.4
428.024	2.41
428.465	2.41
428.907	2.41
429.348	2.41
429.789	2.42
430.231	2.45
430.672	2.49
431.113	2.5
431.554	2.53
431.995	2.55
432.436	2.55
432.877	2.57
433.318	2.58
433.759	2.61
434.2	2.63
434.64	2.65
435.081	2.65
435.522	2.66
435.962	2.67
436.403	2.7
436.843	2.71
437.284	2.72
437.724	2.71
438.164	2.7
438.604	2.71
439.045	2.71
439.485	2.71
439.925	2.73
440.365	2.72
440.805	2.73
441.245	2.73
441.685	2.75
442.125	2.75
442.564	2.77
443.004	2.78
443.444	2.78
443.883	2.79
444.323	2.78
444.762	2.79
445.202	2.79
445.641	2.81
446.081	2.81
446.52	2.81
446.959	2.82
447.398	2.82
447.837	2.84
448.276	2.83
448.716	2.83
449.154	2.86
449.593	2.85
450.032	2.86
450.471	2.85
450.91	2.85
451.349	2.84
451.787	2.83
452.226	2.82
452.664	2.81
453.103	2.8
453.541	2.8
453.98	2.8
454.418	2.78
454.856	2.77
455.295	2.75
455.733	2.73
456.171	2.72
456.609	2.72
457.047	2.71
457.485	2.7
457.923	2.71
458.361	2.7
458.798	2.7
459.236	2.7
459.674	2.69
460.111	2.69
460.549	2.72
460.987	2.72
461.424	2.73
461.862	2.74
462.299	2.75
462.736	2.76
463.173	2.76
463.611	2.77
464.048	2.79
464.485	2.8
464.922	2.81
465.359	2.8
465.796	2.83
466.233	2.83
466.67	2.83
467.106	2.85
467.543	2.84
467.98	2.83
468.416	2.82
468.853	2.82
469.29	2.83
469.726	2.83
470.162	2.83
470.599	2.82
471.035	2.81
471.471	2.8
471.907	2.79
472.344	2.79
472.78	2.79
473.216	2.79
473.652	2.8
474.088	2.78
474.523	2.78
474.959	2.78
475.395	2.76
475.831	2.76
476.266	2.76
476.702	2.75
477.138	2.74
477.573	2.74
478.008	2.74
478.444	2.72
478.879	2.73
479.314	2.72
479.75	2.72
480.185	2.71
480.62	2.71
481.055	2.69
481.49	2.68
481.925	2.68
482.36	2.68
482.795	2.67
483.229	2.67
483.664	2.66
484.099	2.66
484.534	2.65
484.968	2.66
485.403	2.66
485.837	2.67
486.271	2.68
486.706	2.69
487.14	2.69
487.574	2.69
488.009	2.69
488.443	2.7
488.877	2.71
489.311	2.72
489.745	2.73
490.179	2.77
490.613	2.79
491.046	2.8
491.48	2.82
491.914	2.84
492.348	2.86
492.781	2.89
493.215	2.92
493.648	2.94
494.082	2.97
494.515	2.99
494.948	3
495.382	3.02
495.815	3.05
496.248	3.08
496.681	3.12
497.114	3.15
497.547	3.19
497.98	3.23
498.413	3.27
498.846	3.31
499.279	3.35
499.711	3.39
500.144	3.44
500.577	3.48
501.009	3.52
501.442	3.56
501.874	3.61
502.306	3.65
502.739	3.71
503.171	3.75
503.603	3.81
504.036	3.86
504.468	3.9
504.9	3.95
505.332	4
505.764	4.07
506.196	4.12
506.627	4.19
507.059	4.25
507.491	4.3
507.923	4.37
508.354	4.44
508.786	4.51
509.217	4.59
509.649	4.66
510.08	4.73
510.512	4.8
510.943	4.86
511.374	4.93
511.805	5
512.237	5.07
512.668	5.13
513.099	5.2
513.53	5.27
513.961	5.33
514.391	5.4
514.822	5.48
515.253	5.54
515.684	5.61
516.114	5.67
516.545	5.73
516.975	5.79
517.406	5.85
517.836	5.91
518.267	5.97
518.697	6.02
519.127	6.05
519.558	6.1
519.988	6.15
520.418	6.2
520.848	6.24
521.278	6.29
521.708	6.5
522.138	6.55
522.567	6.58
522.997	6.61
523.427	6.65
523.857	6.69
524.286	6.71
524.716	6.74
525.145	6.78
525.575	6.81
526.004	6.84
526.433	6.68
526.863	6.7
527.292	6.73
527.721	6.77
528.15	6.78
528.579	6.8
529.008	6.82
529.437	6.84
529.866	6.84
530.295	6.86
530.724	6.87
531.152	6.88
531.581	6.89
532.01	6.9
532.438	6.91
532.867	6.92
533.295	6.94
533.723	6.95
534.152	6.96
534.58	6.97
535.008	6.97
535.436	6.98
535.865	6.99
536.293	7
536.721	7
537.149	6.99
537.576	7.01
538.004	7.02
538.432	7.02
538.86	7.02
539.287	7.02
539.715	7.04
540.143	7.04
540.57	7.05
540.998	7.05
541.425	7.06
541.852	7.07
542.28	7.07
542.707	7.07
543.134	7.07
543.561	7.09
543.988	7.1
544.415	7.1
544.842	7.11
545.269	7.12
545.696	7.14
546.123	7.15
546.549	7.17
546.976	7.19
547.403	7.21
547.829	7.21
548.256	7.21
548.682	7.22
549.108	7.24
549.535	7.26
549.961	7.27
550.387	7.28
550.813	7.29
551.24	7.3
551.666	7.31
552.092	7.33
552.518	7.34
552.943	7.35
553.369	7.36
553.795	7.37
554.221	7.38
554.646	7.37
555.072	7.38
555.498	7.39
555.923	7.39
556.349	7.4
556.774	7.41
557.199	7.42
557.625	7.44
558.05	7.45
558.475	7.45
558.9	7.46
559.325	7.48
559.75	7.5
560.175	7.5
560.6	7.52
561.025	7.52
561.449	7.54
561.874	7.54
562.299	7.54
562.723	7.54
563.148	7.54
563.572	7.54
563.997	7.53
564.421	7.52
564.846	7.52
565.27	7.53
565.694	7.53
566.118	7.52
566.542	7.53
566.966	7.52
567.39	7.52
567.814	7.53
568.238	7.53
568.662	7.54
569.086	7.54
569.509	7.55
569.933	7.55
570.357	7.54
570.78	7.53
571.204	7.53
571.627	7.54
572.05	7.55
572.474	7.56
572.897	7.57
573.32	7.58
573.743	7.58
574.166	7.59
574.589	7.59
575.012	7.61
575.435	7.62
575.858	7.64
576.281	7.65
576.704	7.66
577.126	7.68
577.549	7.69
577.972	7.7
578.394	7.72
578.817	7.74
579.239	7.76
579.661	7.77
580.084	7.8
580.506	7.82
580.928	7.84
581.35	7.85
581.772	7.85
582.194	7.87
582.616	7.89
583.038	7.91
583.46	7.91
583.882	7.93
584.303	7.95
584.725	7.96
585.147	7.98
585.568	8
585.99	8.03
586.411	8.06
586.833	8.08
587.254	8.1
587.675	8.12
588.096	8.15
588.518	8.18
588.939	8.21
589.36	8.22
589.781	8.24
590.202	8.28
590.623	8.31
591.043	8.33
591.464	8.36
591.885	8.39
592.305	8.42
592.726	8.46
593.147	8.49
593.567	8.52
593.987	8.57
594.408	8.6
594.828	8.62
595.248	8.66
595.669	8.7
596.089	8.73
596.509	8.76
596.929	8.8
597.349	8.83
597.769	8.86
598.189	8.9
598.608	8.94
599.028	8.99
599.448	9.02
599.867	9.06
600.287	9.1
600.706	9.15
601.126	9.21
601.545	9.26
601.965	9.31
602.384	9.37
602.803	9.44
603.222	9.48
603.641	9.52
604.061	9.58
604.48	9.64
604.898	9.67
605.317	9.72
605.736	9.78
606.155	9.82
606.574	9.86
606.992	9.89
607.411	9.93
607.829	9.94
608.248	9.98
608.666	10.01
609.085	10.06
609.503	10.1
609.921	10.14
610.339	10.17
610.758	10.21
611.176	10.23
611.594	10.27
612.012	10.29
612.43	10.35
612.847	10.38
613.265	10.42
613.683	10.44
614.101	10.48
614.518	10.51
614.936	10.54
615.353	10.56
615.771	10.6
616.188	10.63
616.606	10.67
617.023	10.71
617.44	10.75
617.857	10.78
618.274	10.81
618.691	10.83
619.108	10.86
619.525	10.9
619.942	10.94
620.359	10.98
620.776	11.02
621.192	11.05
621.609	11.11
622.026	11.15
622.442	11.2
622.859	11.26
623.275	11.33
623.691	11.38
624.108	11.43
624.524	11.49
624.94	11.55
625.356	11.61
625.772	11.67
626.188	11.71
626.604	11.76
627.02	11.81
627.436	11.86
627.852	11.92
628.268	11.97
628.683	12.02
629.099	12.07
629.514	12.12
629.93	12.15
630.345	12.18
630.761	12.21
631.176	12.23
631.591	12.24
632.007	12.24
632.422	12.23
632.837	12.21
633.252	12.19
633.667	12.16
634.082	12.12
634.497	12.07
634.911	12.01
635.326	11.95
635.741	11.89
636.155	11.81
636.57	11.74
636.984	11.66
637.399	11.56
637.813	11.47
638.228	11.35
638.642	11.23
639.056	11.1
639.47	10.99
639.884	10.87
640.298	10.73
640.712	10.59
641.126	10.45
641.54	10.29
641.954	10.14
642.368	9.99
642.781	9.87
643.195	9.74
643.609	9.61
644.022	9.47
644.436	9.34
644.849	9.22
645.262	9.1
645.676	8.99
646.089	8.9
646.502	8.81
646.915	8.73
647.328	8.65
647.741	8.59
648.154	8.53
648.567	8.48
648.98	8.42
649.393	8.38
649.805	8.33
650.218	8.3
650.631	8.27
651.043	8.23
651.456	8.2
651.868	8.16
652.28	8.13
652.693	8.11
653.105	8.08
653.517	8.05
653.929	8.02
654.341	7.99
654.753	7.94
655.165	7.88
655.577	7.83
655.989	7.77
656.401	7.7
656.813	7.64
657.224	7.55
657.636	7.45
658.047	7.38
658.459	7.27
658.87	7.17
659.282	7.06
659.693	6.97
660.104	6.86
660.515	6.75
660.926	6.64
661.338	6.51
661.749	6.39
662.159	6.29
662.57	6.18
662.981	6.07
663.392	5.98
663.803	5.88
664.213	5.76
664.624	5.66
665.035	5.57
665.445	5.49
665.855	5.42
666.266	5.34
666.676	5.27
667.086	5.19
667.497	5.12
667.907	5.06
668.317	5
668.727	4.94
669.137	4.9
669.547	4.86
669.956	4.81
670.366	4.77
670.776	4.73
671.186	4.7
671.595	4.68
672.005	4.66
672.414	4.64
672.824	4.63
673.233	4.61
673.642	4.61
674.052	4.61
674.461	4.6
674.87	4.61
675.279	4.63
675.688	4.65
676.097	4.67
676.506	4.7
676.915	4.73
677.323	4.77
677.732	4.81
678.141	4.88
678.549	4.94
678.958	5.03
679.366	5.13
679.775	5.23
680.183	5.36
680.592	5.51
681	5.67
681.408	5.87
681.816	6.08
682.224	6.32
682.632	6.58
683.04	6.87
683.448	7.19
683.856	7.54
684.264	7.93
684.671	8.35
685.079	8.8
685.487	9.29
685.894	9.81
686.302	10.36
686.709	10.94
687.116	11.57
687.524	12.2
687.931	12.88
688.338	13.55
688.745	14.24
689.152	14.96
689.559	15.7
689.966	16.43
690.373	17.17
690.78	17.92
691.187	18.66
691.593	19.39
692	20.13
692.407	20.84
692.813	21.57
693.22	22.28
693.626	22.97
694.032	23.65
694.439	24.32
694.845	24.98
695.251	25.61
695.657	26.21
696.063	26.81
696.469	27.4
696.875	27.98
697.281	28.57
697.687	29.1
698.093	29.63
698.498	30.14
698.904	30.63
699.31	31.09
699.715	31.57
700.12	32.02
700.526	32.47
700.931	32.9
701.337	33.3
701.742	33.67
702.147	34.07
702.552	34.43
702.957	34.78
703.362	35.1
703.767	35.42
704.172	35.74
704.577	36.05
704.981	36.34
705.386	36.64
705.791	36.92
706.195	37.18
706.6	37.44
707.004	37.69
707.408	37.95
707.813	38.23
708.217	38.46
708.621	38.68
709.025	38.9
709.43	39.09
709.834	39.29
710.237	39.48
710.641	39.67
711.045	39.88
711.449	40.08
711.853	40.28
712.256	40.42
712.66	40.58
713.064	40.77
713.467	40.94
713.87	41.12
714.274	41.27
714.677	41.43
715.08	41.59
715.484	41.73
715.887	41.88
716.29	41.99
716.693	42.16
717.096	42.32
717.499	42.45
717.901	42.57
718.304	42.7
718.707	42.84
719.109	42.97
719.512	43.09
719.915	43.19
720.317	43.25
720.719	43.35
721.122	43.44
721.524	43.52
721.926	43.64
722.328	43.75
722.731	43.84
723.133	43.93
723.535	44.03
723.937	44.12
724.338	44.21
724.74	44.33
725.142	44.55
725.544	44.63
725.945	44.75
726.347	44.78
726.748	44.86
727.15	44.92
727.551	45
727.952	45.04
728.354	45.09
728.755	45.14
729.156	45.18
729.557	45.1
729.958	45.13
730.359	45.16
730.76	45.24
731.161	45.28
731.562	45.33
731.962	45.35
732.363	45.42
732.763	45.48
733.164	45.54
733.564	45.6
733.965	45.66
734.365	45.71
734.766	45.75
735.166	45.77
735.566	45.78
735.966	45.83
736.366	45.85
736.766	45.85
737.166	45.87
737.566	45.91
737.966	45.92
738.365	45.93
738.765	45.97
739.165	45.98
739.564	46
739.964	46.03
740.363	46.03
740.763	46.04
741.162	46.06
741.561	46.05
741.96	46.03
742.36	46.05
742.759	46.06
743.158	46.07
743.557	46.08
743.955	46.12
744.354	46.14
744.753	46.18
745.152	46.22
745.55	46.26
745.949	46.31
746.348	46.36
746.746	46.37
747.144	46.4
747.543	46.39
747.941	46.39
748.339	46.38
748.737	46.39
749.136	46.39
749.534	46.35
749.932	46.34
750.33	46.31
750.727	46.3
751.125	46.32
751.523	46.3
751.921	46.35
752.318	46.36
752.716	46.37
753.113	46.38
753.511	46.37
753.908	46.42
754.305	46.44
754.703	46.46
755.1	46.47
755.497	46.48
755.894	46.48
756.291	46.46
756.688	46.47
757.085	46.48
757.482	46.48
757.878	46.5
758.275	46.52
758.672	46.51
759.068	46.54
759.465	46.52
759.861	46.56
760.258	46.59
760.654	46.59
761.05	46.6
761.447	46.6
761.843	46.6
762.239	46.59
762.635	46.57
763.031	46.59
763.427	46.56
763.822	46.58
764.218	46.56
764.614	46.56
765.01	46.55
765.405	46.54
765.801	46.52
766.196	46.53
766.592	46.56
766.987	46.56
767.382	46.54
767.778	46.55
768.173	46.52
768.568	46.52
768.963	46.51
769.358	46.53
769.753	46.53
770.148	46.56
770.542	46.55
770.937	46.54
771.332	46.57
771.726	46.59
772.121	46.6
772.515	46.62
772.91	46.6
773.304	46.61
773.699	46.6
774.093	46.61
774.487	46.61
774.881	46.61
775.275	46.59
775.669	46.55
776.063	46.53
776.457	46.52
776.851	46.51
777.245	46.49
777.638	46.51
778.032	46.5
778.425	46.51
778.819	46.52
779.212	46.51
779.606	46.54
779.999	46.53
780.392	46.56
780.786	46.56
781.179	46.58
781.572	46.6
781.965	46.6
782.358	46.62
782.751	46.62
783.143	46.6
783.536	46.6
783.929	46.59
784.322	46.62
784.714	46.61
785.107	46.65
785.499	46.62
785.891	46.61
786.284	46.61
786.676	46.6
787.068	46.6
787.46	46.61
787.852	46.61
788.245	46.61
788.636	46.61
789.028	46.59
