Data from C_2_DIV_PA_2N_Splice17_13-42-37-674.txt Node
Date: Sat Mar 07 13:42:37 EST 2020
User: sa697716
Spectrometer: NQ5500242
Trigger mode: 0
Integration Time (sec): 1.450000E-1
Scans to average: 20
Nonlinearity correction enabled: false
Boxcar width: 5
Storing dark spectrum: false
XAxis mode: Wavelengths
Number of Pixels in Spectrum: 512
>>>>>Begin Spectral Data<<<<<
187.83	170.3
188.298	191.16
188.766	195.72
189.233	167.25
189.701	188.88
190.169	211.48
190.636	261.91
191.104	421.91
191.571	437.51
192.039	-133.19
192.506	-408.75
192.974	102.8
193.441	155.13
193.908	107.51
194.375	135.76
194.842	126.05
195.31	229.74
195.777	693.3
196.244	108.49
196.711	77.8
197.177	75.12
197.644	73.26
198.111	72.76
198.578	72.97
199.045	73.55
199.511	72.89
199.978	73.02
200.445	72.79
200.911	72.65
201.378	72.29
201.844	72
202.31	71.65
202.777	71.48
203.243	71.36
203.709	70.72
204.176	69.85
204.642	69.12
205.108	68.6
205.574	67.65
206.04	66.6
206.506	65.95
206.972	65.66
207.438	64.74
207.903	63.79
208.369	62.37
208.835	61.09
209.301	59.78
209.766	58.17
210.232	56.48
210.697	55.07
211.163	53.84
211.628	52.6
212.094	51.24
212.559	50.25
213.024	49.01
213.49	48.2
213.955	47.16
214.42	46.07
214.885	44.7
215.35	43.07
215.815	40.99
216.28	38.21
216.745	35.09
217.21	32.05
217.675	29.19
218.14	26.89
218.604	24.79
219.069	23.09
219.534	21.72
219.998	20.62
220.463	19.66
220.927	18.78
221.392	18.15
221.856	17.64
222.32	17.18
222.785	16.81
223.249	16.43
223.713	16.11
224.177	15.81
224.642	15.54
225.106	15.26
225.57	14.99
226.034	14.79
226.497	14.57
226.961	14.38
227.425	14.19
227.889	13.99
228.353	13.79
228.816	13.59
229.28	13.43
229.744	13.26
230.207	13.09
230.671	12.94
231.134	12.78
231.597	12.66
232.061	12.5
232.524	12.36
232.987	12.23
233.45	12.13
233.914	12.01
234.377	11.87
234.84	11.74
235.303	11.66
235.766	11.57
236.229	11.46
236.691	11.33
237.154	11.23
237.617	11.14
238.08	11.06
238.542	10.96
239.005	10.89
239.468	10.8
239.93	10.72
240.393	10.62
240.855	10.51
241.317	10.43
241.78	10.35
242.242	10.26
242.704	10.18
243.166	10.07
243.629	10
244.091	9.91
244.553	9.83
245.015	9.75
245.477	9.66
245.939	9.58
246.4	9.49
246.862	9.41
247.324	9.35
247.786	9.27
248.247	9.2
248.709	9.11
249.17	9.03
249.632	8.98
250.093	8.93
250.555	8.87
251.016	8.82
251.477	8.76
251.939	8.72
252.4	8.66
252.861	8.61
253.322	8.57
253.783	8.52
254.244	8.48
254.705	8.41
255.166	8.35
255.627	8.3
256.088	8.26
256.549	8.21
257.009	8.16
257.47	8.11
257.931	8.05
258.391	7.98
258.852	7.93
259.312	7.88
259.773	7.83
260.233	7.79
260.694	7.75
261.154	7.71
261.614	7.67
262.074	7.62
262.534	7.59
262.994	7.56
263.455	7.53
263.915	7.5
264.374	7.48
264.834	7.46
265.294	7.44
265.754	7.42
266.214	7.4
266.673	7.38
267.133	7.38
267.593	7.36
268.052	7.34
268.512	7.34
268.971	7.34
269.431	7.33
269.89	7.32
270.349	7.31
270.809	7.3
271.268	7.29
271.727	7.29
272.186	7.27
272.645	7.27
273.104	7.26
273.563	7.25
274.022	7.23
274.481	7.23
274.94	7.23
275.399	7.22
275.857	7.21
276.316	7.21
276.775	7.21
277.233	7.21
277.692	7.21
278.15	7.21
278.609	7.21
279.067	7.2
279.525	7.2
279.984	7.18
280.442	7.18
280.9	7.18
281.358	7.18
281.816	7.16
282.274	7.16
282.732	7.15
283.19	7.14
283.648	7.12
284.106	7.1
284.564	7.09
285.021	7.09
285.479	7.08
285.937	7.07
286.394	7.05
286.852	7.03
287.309	7.01
287.767	6.99
288.224	6.97
288.682	6.95
289.139	6.94
289.596	6.92
290.053	6.89
290.511	6.87
290.968	6.85
291.425	6.83
291.882	6.82
292.339	6.8
292.796	6.79
293.252	6.78
293.709	6.77
294.166	6.76
294.623	6.75
295.079	6.74
295.536	6.72
295.992	6.71
296.449	6.7
296.905	6.7
297.362	6.68
297.818	6.67
298.274	6.67
298.731	6.65
299.187	6.63
299.643	6.62
300.099	6.62
300.555	6.62
301.011	6.61
301.467	6.6
301.923	6.58
302.379	6.58
302.835	6.58
303.291	6.57
303.746	6.57
304.202	6.58
304.658	6.58
305.113	6.57
305.569	6.56
306.024	6.56
306.479	6.55
306.935	6.55
307.39	6.54
307.845	6.53
308.301	6.53
308.756	6.53
309.211	6.51
309.666	6.51
310.121	6.51
310.576	6.51
311.031	6.5
311.486	6.5
311.94	6.5
312.395	6.49
312.85	6.49
313.305	6.48
313.759	6.48
314.214	6.48
314.668	6.47
315.123	6.46
315.577	6.45
316.032	6.43
316.486	6.42
316.94	6.42
317.394	6.4
317.849	6.38
318.303	6.37
318.757	6.35
319.211	6.33
319.665	6.32
320.119	6.32
320.572	6.3
321.026	6.29
321.48	6.29
321.934	6.27
322.387	6.27
322.841	6.27
323.295	6.27
323.748	6.26
324.202	6.26
324.655	6.25
325.108	6.25
325.562	6.25
326.015	6.26
326.468	6.25
326.921	6.26
327.374	6.25
327.827	6.25
328.28	6.25
328.733	6.26
329.186	6.26
329.639	6.26
330.092	6.26
330.545	6.26
330.997	6.25
331.45	6.27
331.903	6.28
332.355	6.28
332.808	6.27
333.26	6.26
333.713	6.26
334.165	6.26
334.617	6.26
335.069	6.25
335.522	6.25
335.974	6.25
336.426	6.24
336.878	6.22
337.33	6.22
337.782	6.22
338.234	6.22
338.686	6.21
339.137	6.21
339.589	6.19
340.041	6.19
340.493	6.18
340.944	6.15
341.396	6.14
341.847	6.14
342.299	6.12
342.75	6.11
343.201	6.08
343.653	6.08
344.104	6.05
344.555	6.05
345.006	6.03
345.457	6.03
345.908	6.02
346.359	6.02
346.81	6
347.261	6
347.712	5.99
348.163	5.98
348.613	5.99
349.064	5.99
349.515	5.98
349.965	5.98
350.416	5.98
350.866	5.98
351.317	5.97
351.767	5.97
352.217	5.97
352.668	5.98
353.118	5.99
353.568	5.98
354.018	5.97
354.468	5.99
354.918	6
355.368	6
355.818	6
356.268	6.01
356.718	6.01
357.168	6.01
357.617	6.01
358.067	6.01
358.517	6.02
358.966	6.02
359.416	6.01
359.865	6.01
360.315	6.01
360.764	6.01
361.213	6.01
361.663	6.01
362.112	6.02
362.561	6.03
363.01	6.03
363.459	6.01
363.908	6.01
364.357	6.03
364.806	6.03
365.255	6.03
365.703	6.04
366.152	6.05
366.601	6.06
367.05	6.06
367.498	6.05
367.947	6.06
368.395	6.07
368.844	6.08
369.292	6.07
369.74	6.08
370.189	6.09
370.637	6.08
371.085	6.08
371.533	6.08
371.981	6.08
372.429	6.09
372.877	6.1
373.325	6.1
373.773	6.1
374.221	6.1
374.669	6.09
375.116	6.09
375.564	6.09
376.012	6.1
376.459	6.11
376.907	6.12
377.354	6.13
377.801	6.14
378.249	6.15
378.696	6.15
379.143	6.17
379.591	6.18
380.038	6.19
380.485	6.21
380.932	6.22
381.379	6.23
381.826	6.25
382.273	6.26
382.72	6.26
383.166	6.27
383.613	6.29
384.06	6.29
384.506	6.31
384.953	6.34
385.4	6.35
385.846	6.37
386.292	6.38
386.739	6.39
387.185	6.4
387.631	6.41
388.078	6.42
388.524	6.43
388.97	6.45
389.416	6.47
389.862	6.49
390.308	6.52
390.754	6.55
391.2	6.57
391.645	6.59
392.091	6.63
392.537	6.67
392.983	6.69
393.428	6.72
393.874	6.73
394.319	6.76
394.765	6.77
395.21	6.77
395.655	6.78
396.101	6.81
396.546	6.82
396.991	6.85
397.436	6.86
397.881	6.9
398.326	6.9
398.771	6.94
399.216	6.94
399.661	6.97
400.106	7
400.551	7.01
400.995	7.01
401.44	7.04
401.885	7.05
402.329	7.07
402.774	7.09
403.218	7.12
403.663	7.13
404.107	7.16
404.551	7.16
404.995	7.17
405.44	7.17
405.884	7.19
406.328	7.21
406.772	7.21
407.216	7.23
407.66	7.23
408.104	7.22
408.547	7.23
408.991	7.25
409.435	7.26
409.879	7.28
410.322	7.29
410.766	7.31
411.209	7.33
411.653	7.36
412.096	7.37
412.54	7.39
412.983	7.41
413.426	7.46
413.869	7.47
414.312	7.5
414.756	7.51
415.199	7.53
415.642	7.54
416.085	7.55
416.527	7.52
416.97	7.49
417.413	7.48
417.856	7.48
418.298	7.46
418.741	7.45
419.184	7.44
419.626	7.44
420.069	7.45
420.511	7.45
420.953	7.46
421.396	7.49
421.838	7.52
422.28	7.54
422.722	7.57
423.164	7.57
423.606	7.58
424.048	7.59
424.49	7.59
424.932	7.57
425.374	7.53
425.816	7.49
426.258	7.48
426.699	7.47
427.141	7.46
427.582	7.46
428.024	7.47
428.465	7.47
428.907	7.44
429.348	7.43
429.789	7.45
430.231	7.5
430.672	7.54
431.113	7.57
431.554	7.58
431.995	7.59
432.436	7.6
432.877	7.61
433.318	7.63
433.759	7.68
434.2	7.71
434.64	7.73
435.081	7.74
435.522	7.75
435.962	7.75
436.403	7.77
436.843	7.77
437.284	7.76
437.724	7.75
438.164	7.74
438.604	7.74
439.045	7.73
439.485	7.72
439.925	7.72
440.365	7.72
440.805	7.7
441.245	7.72
441.685	7.72
442.125	7.73
442.564	7.73
443.004	7.72
443.444	7.73
443.883	7.73
444.323	7.72
444.762	7.7
445.202	7.68
445.641	7.71
446.081	7.7
446.52	7.69
446.959	7.72
447.398	7.72
447.837	7.73
448.276	7.71
448.716	7.7
449.154	7.71
449.593	7.72
450.032	7.71
450.471	7.67
450.91	7.65
451.349	7.64
451.787	7.6
452.226	7.58
452.664	7.55
453.103	7.53
453.541	7.52
453.98	7.51
454.418	7.47
454.856	7.46
455.295	7.44
455.733	7.41
456.171	7.39
456.609	7.38
457.047	7.36
457.485	7.35
457.923	7.34
458.361	7.31
458.798	7.3
459.236	7.29
459.674	7.29
460.111	7.29
460.549	7.31
460.987	7.31
461.424	7.31
461.862	7.31
462.299	7.32
462.736	7.32
463.173	7.33
463.611	7.35
464.048	7.36
464.485	7.36
464.922	7.37
465.359	7.35
465.796	7.41
466.233	7.43
466.67	7.44
467.106	7.45
467.543	7.45
467.98	7.44
468.416	7.42
468.853	7.41
469.29	7.39
469.726	7.38
470.162	7.37
470.599	7.32
471.035	7.29
471.471	7.25
471.907	7.23
472.344	7.2
472.78	7.19
473.216	7.17
473.652	7.16
474.088	7.14
474.523	7.14
474.959	7.11
475.395	7.08
475.831	7.08
476.266	7.07
476.702	7.05
477.138	7.05
477.573	7.04
478.008	7.03
478.444	7.01
478.879	7.01
479.314	6.99
479.75	6.98
480.185	6.96
480.62	6.94
481.055	6.92
481.49	6.9
481.925	6.89
482.36	6.89
482.795	6.86
483.229	6.84
483.664	6.83
484.099	6.81
484.534	6.8
484.968	6.8
485.403	6.79
485.837	6.78
486.271	6.78
486.706	6.78
487.14	6.76
487.574	6.76
488.009	6.77
488.443	6.77
488.877	6.78
489.311	6.78
489.745	6.78
490.179	6.79
490.613	6.81
491.046	6.81
491.48	6.82
491.914	6.83
492.348	6.83
492.781	6.85
493.215	6.85
493.648	6.86
494.082	6.87
494.515	6.87
494.948	6.87
495.382	6.87
495.815	6.88
496.248	6.89
496.681	6.9
497.114	6.9
497.547	6.9
497.98	6.93
498.413	6.94
498.846	6.95
499.279	6.97
499.711	6.98
500.144	7.01
500.577	7.03
501.009	7.05
501.442	7.07
501.874	7.1
502.306	7.12
502.739	7.15
503.171	7.17
503.603	7.21
504.036	7.23
504.468	7.27
504.9	7.29
505.332	7.33
505.764	7.37
506.196	7.39
506.627	7.44
507.059	7.48
507.491	7.51
507.923	7.56
508.354	7.62
508.786	7.69
509.217	7.74
509.649	7.81
510.08	7.87
510.512	7.94
510.943	8.02
511.374	8.09
511.805	8.18
512.237	8.25
512.668	8.33
513.099	8.41
513.53	8.51
513.961	8.6
514.391	8.71
514.822	8.82
515.253	8.93
515.684	9.03
516.114	9.16
516.545	9.27
516.975	9.4
517.406	9.52
517.836	9.63
518.267	9.76
518.697	9.89
519.127	10
519.558	10.13
519.988	10.26
520.418	10.38
520.848	10.5
521.278	10.62
521.708	11
522.138	11.14
522.567	11.27
522.997	11.38
523.427	11.51
523.857	11.64
524.286	11.75
524.716	11.88
525.145	12
525.575	12.13
526.004	12.25
526.433	12.12
526.863	12.22
527.292	12.34
527.721	12.46
528.15	12.56
528.579	12.66
529.008	12.77
529.437	12.85
529.866	12.94
530.295	13.04
530.724	13.13
531.152	13.21
531.581	13.29
532.01	13.35
532.438	13.41
532.867	13.48
533.295	13.54
533.723	13.58
534.152	13.64
534.58	13.7
535.008	13.73
535.436	13.78
535.865	13.81
536.293	13.85
536.721	13.88
537.149	13.92
537.576	13.95
538.004	13.99
538.432	14.02
538.86	14.04
539.287	14.08
539.715	14.11
540.143	14.14
540.57	14.17
540.998	14.19
541.425	14.22
541.852	14.24
542.28	14.27
542.707	14.29
543.134	14.33
543.561	14.37
543.988	14.38
544.415	14.4
544.842	14.41
545.269	14.43
545.696	14.46
546.123	14.47
546.549	14.48
546.976	14.5
547.403	14.51
547.829	14.53
548.256	14.53
548.682	14.55
549.108	14.57
549.535	14.59
549.961	14.6
550.387	14.61
550.813	14.63
551.24	14.63
551.666	14.62
552.092	14.62
552.518	14.62
552.943	14.61
553.369	14.6
553.795	14.57
554.221	14.55
554.646	14.51
555.072	14.49
555.498	14.44
555.923	14.4
556.349	14.35
556.774	14.3
557.199	14.26
557.625	14.21
558.05	14.17
558.475	14.1
558.9	14.04
559.325	13.99
559.75	13.94
560.175	13.87
560.6	13.81
561.025	13.75
561.449	13.68
561.874	13.6
562.299	13.5
562.723	13.41
563.148	13.32
563.572	13.23
563.997	13.13
564.421	13.02
564.846	12.93
565.27	12.84
565.694	12.75
566.118	12.65
566.542	12.56
566.966	12.45
567.39	12.36
567.814	12.27
568.238	12.17
568.662	12.08
569.086	12
569.509	11.91
569.933	11.83
570.357	11.74
570.78	11.65
571.204	11.57
571.627	11.5
572.05	11.42
572.474	11.36
572.897	11.3
573.32	11.23
573.743	11.15
574.166	11.09
574.589	11.02
575.012	10.96
575.435	10.91
575.858	10.84
576.281	10.79
576.704	10.74
577.126	10.68
577.549	10.62
577.972	10.56
578.394	10.51
578.817	10.47
579.239	10.43
579.661	10.38
580.084	10.34
580.506	10.31
580.928	10.27
581.35	10.22
581.772	10.18
582.194	10.15
582.616	10.12
583.038	10.08
583.46	10.03
583.882	9.99
584.303	9.94
584.725	9.9
585.147	9.88
585.568	9.85
585.99	9.82
586.411	9.79
586.833	9.76
587.254	9.72
587.675	9.7
588.096	9.67
588.518	9.64
588.939	9.64
589.36	9.61
589.781	9.57
590.202	9.57
590.623	9.54
591.043	9.51
591.464	9.49
591.885	9.46
592.305	9.44
592.726	9.45
593.147	9.42
593.567	9.39
593.987	9.37
594.408	9.35
594.828	9.31
595.248	9.3
595.669	9.29
596.089	9.27
596.509	9.26
596.929	9.24
597.349	9.21
597.769	9.18
598.189	9.16
598.608	9.14
599.028	9.13
599.448	9.11
599.867	9.07
600.287	9.05
600.706	9.03
601.126	9.01
601.545	8.99
601.965	8.98
602.384	8.96
602.803	8.93
603.222	8.91
603.641	8.89
604.061	8.86
604.48	8.84
604.898	8.81
605.317	8.78
605.736	8.76
606.155	8.74
606.574	8.7
606.992	8.67
607.411	8.66
607.829	8.6
608.248	8.56
608.666	8.52
609.085	8.49
609.503	8.47
609.921	8.44
610.339	8.4
610.758	8.37
611.176	8.33
611.594	8.31
612.012	8.26
612.43	8.26
612.847	8.22
613.265	8.19
613.683	8.16
614.101	8.13
614.518	8.09
614.936	8.06
615.353	8.03
615.771	8.01
616.188	7.97
616.606	7.96
617.023	7.94
617.44	7.94
617.857	7.92
618.274	7.89
618.691	7.88
619.108	7.85
619.525	7.83
619.942	7.82
620.359	7.81
620.776	7.8
621.192	7.79
621.609	7.78
622.026	7.76
622.442	7.76
622.859	7.76
623.275	7.74
623.691	7.75
624.108	7.74
624.524	7.72
624.94	7.72
625.356	7.72
625.772	7.7
626.188	7.69
626.604	7.69
627.02	7.68
627.436	7.67
627.852	7.67
628.268	7.67
628.683	7.66
629.099	7.66
629.514	7.65
629.93	7.66
630.345	7.66
630.761	7.64
631.176	7.63
631.591	7.63
632.007	7.61
632.422	7.6
632.837	7.58
633.252	7.57
633.667	7.54
634.082	7.53
634.497	7.52
634.911	7.5
635.326	7.49
635.741	7.47
636.155	7.45
636.57	7.44
636.984	7.42
637.399	7.41
637.813	7.38
638.228	7.36
638.642	7.32
639.056	7.29
639.47	7.27
639.884	7.25
640.298	7.23
640.712	7.2
641.126	7.17
641.54	7.14
641.954	7.09
642.368	7.07
642.781	7.06
643.195	7.04
643.609	7.02
644.022	6.98
644.436	6.96
644.849	6.93
645.262	6.91
645.676	6.89
646.089	6.87
646.502	6.87
646.915	6.85
647.328	6.83
647.741	6.81
648.154	6.78
648.567	6.79
648.98	6.77
649.393	6.76
649.805	6.76
650.218	6.75
650.631	6.75
651.043	6.73
651.456	6.73
651.868	6.71
652.28	6.7
652.693	6.7
653.105	6.69
653.517	6.68
653.929	6.67
654.341	6.66
654.753	6.64
655.165	6.62
655.577	6.62
655.989	6.6
656.401	6.59
656.813	6.59
657.224	6.56
657.636	6.53
658.047	6.52
658.459	6.49
658.87	6.47
659.282	6.45
659.693	6.45
660.104	6.43
660.515	6.4
660.926	6.38
661.338	6.37
661.749	6.36
662.159	6.35
662.57	6.35
662.981	6.34
663.392	6.34
663.803	6.34
664.213	6.33
664.624	6.32
665.035	6.32
665.445	6.31
665.855	6.3
666.266	6.3
666.676	6.3
667.086	6.28
667.497	6.28
667.907	6.27
668.317	6.27
668.727	6.27
669.137	6.27
669.547	6.27
669.956	6.27
670.366	6.28
670.776	6.29
671.186	6.29
671.595	6.3
672.005	6.3
672.414	6.31
672.824	6.31
673.233	6.32
673.642	6.34
674.052	6.36
674.461	6.36
674.87	6.37
675.279	6.39
675.688	6.41
676.097	6.43
676.506	6.45
676.915	6.46
677.323	6.48
677.732	6.49
678.141	6.5
678.549	6.5
678.958	6.52
679.366	6.55
679.775	6.54
680.183	6.56
680.592	6.59
681	6.61
681.408	6.62
681.816	6.65
682.224	6.69
682.632	6.73
683.04	6.76
683.448	6.79
683.856	6.81
684.264	6.85
684.671	6.88
685.079	6.91
685.487	6.95
685.894	7
686.302	7.05
686.709	7.1
687.116	7.16
687.524	7.24
687.931	7.33
688.338	7.44
688.745	7.55
689.152	7.65
689.559	7.79
689.966	7.94
690.373	8.1
690.78	8.28
691.187	8.46
691.593	8.65
692	8.85
692.407	9.04
692.813	9.28
693.22	9.53
693.626	9.8
694.032	10.08
694.439	10.37
694.845	10.67
695.251	10.98
695.657	11.31
696.063	11.65
696.469	12.02
696.875	12.41
697.281	12.79
697.687	13.2
698.093	13.58
698.498	13.98
698.904	14.38
699.31	14.78
699.715	15.22
700.12	15.65
700.526	16.08
700.931	16.52
701.337	16.95
701.742	17.38
702.147	17.8
702.552	18.26
702.957	18.7
703.362	19.13
703.767	19.57
704.172	20
704.577	20.44
704.981	20.89
705.386	21.33
705.791	21.76
706.195	22.22
706.6	22.66
707.004	23.1
707.408	23.53
707.813	24
708.217	24.44
708.621	24.88
709.025	25.31
709.43	25.74
709.834	26.19
710.237	26.63
710.641	27.05
711.045	27.48
711.449	27.91
711.853	28.37
712.256	28.79
712.66	29.22
713.064	29.64
713.467	30.09
713.87	30.52
714.274	30.94
714.677	31.37
715.08	31.81
715.484	32.24
715.887	32.67
716.29	33.06
716.693	33.47
717.096	33.87
717.499	34.28
717.901	34.66
718.304	35.03
718.707	35.43
719.109	35.79
719.512	36.15
719.915	36.52
720.317	36.84
720.719	37.17
721.122	37.53
721.524	37.86
721.926	38.21
722.328	38.55
722.731	38.87
723.133	39.16
723.535	39.49
723.937	39.79
724.338	40.09
724.74	40.4
725.142	40.87
725.544	41.14
725.945	41.46
726.347	41.68
726.748	41.92
727.15	42.15
727.551	42.44
727.952	42.66
728.354	42.88
728.755	43.1
729.156	43.29
729.557	43.32
729.958	43.49
730.359	43.65
730.76	43.88
731.161	44.08
731.562	44.28
731.962	44.41
732.363	44.61
732.763	44.79
733.164	44.94
733.564	45.15
733.965	45.32
734.365	45.51
734.766	45.65
735.166	45.78
735.566	45.94
735.966	46.09
736.366	46.22
736.766	46.32
737.166	46.44
737.566	46.57
737.966	46.66
738.365	46.75
738.765	46.86
739.165	46.96
739.564	47.06
739.964	47.14
740.363	47.21
740.763	47.29
741.162	47.38
741.561	47.44
741.96	47.51
742.36	47.58
742.759	47.66
743.158	47.72
743.557	47.76
743.955	47.84
744.354	47.88
744.753	47.96
745.152	48.05
745.55	48.1
745.949	48.15
746.348	48.2
746.746	48.24
747.144	48.28
747.543	48.3
747.941	48.34
748.339	48.36
748.737	48.39
749.136	48.38
749.534	48.36
749.932	48.39
750.33	48.44
750.727	48.48
751.125	48.5
751.523	48.51
751.921	48.55
752.318	48.59
752.716	48.64
753.113	48.68
753.511	48.74
753.908	48.81
754.305	48.87
754.703	48.9
755.1	48.91
755.497	48.96
755.894	48.98
756.291	49.02
756.688	49.04
757.085	49.07
757.482	49.08
757.878	49.11
758.275	49.12
758.672	49.11
759.068	49.15
759.465	49.17
759.861	49.19
760.258	49.24
760.654	49.24
761.05	49.26
761.447	49.29
761.843	49.31
762.239	49.31
762.635	49.32
763.031	49.35
763.427	49.33
763.822	49.36
764.218	49.36
764.614	49.36
765.01	49.38
765.405	49.39
765.801	49.38
766.196	49.42
766.592	49.41
766.987	49.41
767.382	49.39
767.778	49.42
768.173	49.41
768.568	49.41
768.963	49.41
769.358	49.41
769.753	49.42
770.148	49.41
770.542	49.39
770.937	49.42
771.332	49.44
771.726	49.46
772.121	49.45
772.515	49.46
772.91	49.48
773.304	49.46
773.699	49.47
774.093	49.48
774.487	49.5
774.881	49.51
775.275	49.52
775.669	49.49
776.063	49.48
776.457	49.49
776.851	49.46
777.245	49.44
777.638	49.46
778.032	49.48
778.425	49.52
778.819	49.52
779.212	49.52
779.606	49.55
779.999	49.55
780.392	49.59
780.786	49.58
781.179	49.64
781.572	49.67
781.965	49.72
782.358	49.72
782.751	49.69
783.143	49.68
783.536	49.68
783.929	49.67
784.322	49.7
784.714	49.69
785.107	49.74
785.499	49.74
