Data from C_2_DEC_ON_6N_Splice17_13-17-06-163.txt Node
Date: Sat Mar 07 13:17:06 EST 2020
User: sa697716
Spectrometer: NQ5500242
Trigger mode: 0
Integration Time (sec): 1.450000E-1
Scans to average: 20
Nonlinearity correction enabled: false
Boxcar width: 5
Storing dark spectrum: false
XAxis mode: Wavelengths
Number of Pixels in Spectrum: 512
>>>>>Begin Spectral Data<<<<<
187.83	196.24
188.298	218.01
188.766	176.62
189.233	146.68
189.701	154.09
190.169	186.14
190.636	192.53
191.104	240.51
191.571	-220.41
192.039	-130.75
192.506	-192.2
192.974	128.66
193.441	178.83
193.908	30.36
194.375	27.17
194.842	7.68
195.31	94.01
195.777	178.17
196.244	54.83
196.711	42.44
197.177	45.43
197.644	44.81
198.111	43.87
198.578	44.6
199.045	44.39
199.511	44.69
199.978	44.67
200.445	44.75
200.911	44.88
201.378	44.7
201.844	44.65
202.31	44.28
202.777	44.18
203.243	44.34
203.709	43.98
204.176	43.81
204.642	43.32
205.108	43.12
205.574	42.7
206.04	41.82
206.506	41.68
206.972	41.59
207.438	41.32
207.903	40.83
208.369	40.16
208.835	39.38
209.301	38.37
209.766	37.23
210.232	36.16
210.697	34.96
211.163	34.27
211.628	33.29
212.094	32.24
212.559	31.39
213.024	30.56
213.49	29.88
213.955	29.02
214.42	28.45
214.885	27.61
215.35	26.43
215.815	25.18
216.28	23.35
216.745	21.4
217.21	19.4
217.675	17.58
218.14	16.14
218.604	14.72
219.069	13.63
219.534	12.67
219.998	11.88
220.463	11.28
220.927	10.68
221.392	10.24
221.856	9.86
222.32	9.54
222.785	9.28
223.249	9
223.713	8.78
224.177	8.59
224.642	8.39
225.106	8.2
225.57	8
226.034	7.84
226.497	7.69
226.961	7.54
227.425	7.41
227.889	7.28
228.353	7.15
228.816	7.02
229.28	6.89
229.744	6.77
230.207	6.67
230.671	6.57
231.134	6.47
231.597	6.39
232.061	6.3
232.524	6.21
232.987	6.13
233.45	6.07
233.914	5.98
234.377	5.89
234.84	5.81
235.303	5.74
235.766	5.68
236.229	5.62
236.691	5.54
237.154	5.49
237.617	5.43
238.08	5.37
238.542	5.3
239.005	5.26
239.468	5.22
239.93	5.16
240.393	5.13
240.855	5.07
241.317	5.02
241.78	4.96
242.242	4.9
242.704	4.86
243.166	4.81
243.629	4.77
244.091	4.71
244.553	4.66
245.015	4.62
245.477	4.56
245.939	4.52
246.4	4.47
246.862	4.43
247.324	4.39
247.786	4.34
248.247	4.29
248.709	4.24
249.17	4.18
249.632	4.15
250.093	4.13
250.555	4.09
251.016	4.06
251.477	4.03
251.939	4
252.4	3.98
252.861	3.95
253.322	3.93
253.783	3.91
254.244	3.89
254.705	3.85
255.166	3.82
255.627	3.79
256.088	3.76
256.549	3.74
257.009	3.71
257.47	3.67
257.931	3.64
258.391	3.61
258.852	3.58
259.312	3.55
259.773	3.52
260.233	3.51
260.694	3.48
261.154	3.45
261.614	3.42
262.074	3.39
262.534	3.38
262.994	3.35
263.455	3.33
263.915	3.31
264.374	3.28
264.834	3.27
265.294	3.24
265.754	3.22
266.214	3.21
266.673	3.19
267.133	3.18
267.593	3.16
268.052	3.15
268.512	3.14
268.971	3.13
269.431	3.13
269.89	3.11
270.349	3.11
270.809	3.1
271.268	3.09
271.727	3.08
272.186	3.07
272.645	3.06
273.104	3.05
273.563	3.04
274.022	3.03
274.481	3.02
274.94	3.01
275.399	2.99
275.857	2.99
276.316	2.98
276.775	2.97
277.233	2.97
277.692	2.96
278.15	2.95
278.609	2.95
279.067	2.95
279.525	2.95
279.984	2.95
280.442	2.94
280.9	2.94
281.358	2.94
281.816	2.94
282.274	2.93
282.732	2.93
283.19	2.92
283.648	2.91
284.106	2.9
284.564	2.89
285.021	2.89
285.479	2.89
285.937	2.88
286.394	2.89
286.852	2.88
287.309	2.87
287.767	2.86
288.224	2.84
288.682	2.83
289.139	2.83
289.596	2.82
290.053	2.8
290.511	2.79
290.968	2.78
291.425	2.76
291.882	2.75
292.339	2.75
292.796	2.74
293.252	2.73
293.709	2.72
294.166	2.71
294.623	2.71
295.079	2.7
295.536	2.7
295.992	2.69
296.449	2.69
296.905	2.68
297.362	2.67
297.818	2.66
298.274	2.66
298.731	2.66
299.187	2.65
299.643	2.64
300.099	2.64
300.555	2.63
301.011	2.62
301.467	2.62
301.923	2.61
302.379	2.62
302.835	2.62
303.291	2.61
303.746	2.61
304.202	2.61
304.658	2.61
305.113	2.61
305.569	2.61
306.024	2.61
306.479	2.6
306.935	2.61
307.39	2.6
307.845	2.6
308.301	2.6
308.756	2.61
309.211	2.6
309.666	2.61
310.121	2.61
310.576	2.62
311.031	2.62
311.486	2.62
311.94	2.62
312.395	2.62
312.85	2.62
313.305	2.63
313.759	2.63
314.214	2.63
314.668	2.62
315.123	2.62
315.577	2.61
316.032	2.61
316.486	2.6
316.94	2.59
317.394	2.58
317.849	2.57
318.303	2.57
318.757	2.56
319.211	2.56
319.665	2.55
320.119	2.53
320.572	2.53
321.026	2.52
321.48	2.51
321.934	2.51
322.387	2.5
322.841	2.51
323.295	2.5
323.748	2.49
324.202	2.48
324.655	2.48
325.108	2.48
325.562	2.48
326.015	2.48
326.468	2.48
326.921	2.48
327.374	2.47
327.827	2.47
328.28	2.46
328.733	2.46
329.186	2.46
329.639	2.46
330.092	2.46
330.545	2.46
330.997	2.45
331.45	2.46
331.903	2.46
332.355	2.47
332.808	2.47
333.26	2.47
333.713	2.46
334.165	2.45
334.617	2.46
335.069	2.45
335.522	2.45
335.974	2.46
336.426	2.46
336.878	2.45
337.33	2.46
337.782	2.45
338.234	2.46
338.686	2.46
339.137	2.47
339.589	2.46
340.041	2.47
340.493	2.46
340.944	2.44
341.396	2.43
341.847	2.43
342.299	2.41
342.75	2.4
343.201	2.4
343.653	2.39
344.104	2.37
344.555	2.36
345.006	2.35
345.457	2.34
345.908	2.34
346.359	2.34
346.81	2.34
347.261	2.34
347.712	2.34
348.163	2.33
348.613	2.33
349.064	2.34
349.515	2.33
349.965	2.34
350.416	2.33
350.866	2.34
351.317	2.33
351.767	2.33
352.217	2.33
352.668	2.33
353.118	2.34
353.568	2.33
354.018	2.34
354.468	2.35
354.918	2.36
355.368	2.37
355.818	2.37
356.268	2.37
356.718	2.37
357.168	2.37
357.617	2.37
358.067	2.37
358.517	2.39
358.966	2.39
359.416	2.39
359.865	2.39
360.315	2.39
360.764	2.4
361.213	2.4
361.663	2.41
362.112	2.42
362.561	2.43
363.01	2.44
363.459	2.43
363.908	2.43
364.357	2.43
364.806	2.44
365.255	2.45
365.703	2.46
366.152	2.48
366.601	2.49
367.05	2.5
367.498	2.51
367.947	2.52
368.395	2.54
368.844	2.55
369.292	2.56
369.74	2.58
370.189	2.6
370.637	2.61
371.085	2.61
371.533	2.62
371.981	2.64
372.429	2.66
372.877	2.68
373.325	2.69
373.773	2.69
374.221	2.7
374.669	2.72
375.116	2.73
375.564	2.75
376.012	2.77
376.459	2.8
376.907	2.82
377.354	2.84
377.801	2.86
378.249	2.88
378.696	2.91
379.143	2.94
379.591	2.96
380.038	2.98
380.485	3.01
380.932	3.03
381.379	3.05
381.826	3.07
382.273	3.09
382.72	3.11
383.166	3.13
383.613	3.16
384.06	3.17
384.506	3.19
384.953	3.21
385.4	3.23
385.846	3.26
386.292	3.29
386.739	3.31
387.185	3.34
387.631	3.37
388.078	3.39
388.524	3.42
388.97	3.45
389.416	3.49
389.862	3.51
390.308	3.55
390.754	3.58
391.2	3.6
391.645	3.62
392.091	3.65
392.537	3.68
392.983	3.7
393.428	3.73
393.874	3.75
394.319	3.78
394.765	3.79
395.21	3.8
395.655	3.81
396.101	3.83
396.546	3.84
396.991	3.86
397.436	3.87
397.881	3.89
398.326	3.9
398.771	3.91
399.216	3.92
399.661	3.93
400.106	3.95
400.551	3.96
400.995	3.95
401.44	3.97
401.885	3.97
402.329	3.98
402.774	3.99
403.218	4.01
403.663	4.02
404.107	4.02
404.551	4.03
404.995	4.03
405.44	4.02
405.884	4.04
406.328	4.04
406.772	4.04
407.216	4.04
407.66	4.02
408.104	4
408.547	4.01
408.991	4.02
409.435	4.01
409.879	4.02
410.322	4.03
410.766	4.04
411.209	4.05
411.653	4.06
412.096	4.07
412.54	4.08
412.983	4.1
413.426	4.12
413.869	4.12
414.312	4.13
414.756	4.15
415.199	4.14
415.642	4.13
416.085	4.13
416.527	4.13
416.97	4.12
417.413	4.11
417.856	4.11
418.298	4.09
418.741	4.08
419.184	4.08
419.626	4.06
420.069	4.08
420.511	4.08
420.953	4.07
421.396	4.08
421.838	4.07
422.28	4.07
422.722	4.08
423.164	4.09
423.606	4.1
424.048	4.09
424.49	4.09
424.932	4.08
425.374	4.06
425.816	4.04
426.258	4.02
426.699	4.02
427.141	4.01
427.582	4.01
428.024	4.02
428.465	4.01
428.907	4
429.348	4
429.789	4
430.231	4.02
430.672	4.04
431.113	4.05
431.554	4.06
431.995	4.08
432.436	4.09
432.877	4.09
433.318	4.12
433.759	4.14
434.2	4.16
434.64	4.19
435.081	4.19
435.522	4.23
435.962	4.26
436.403	4.29
436.843	4.3
437.284	4.29
437.724	4.3
438.164	4.3
438.604	4.31
439.045	4.32
439.485	4.31
439.925	4.32
440.365	4.3
440.805	4.3
441.245	4.32
441.685	4.35
442.125	4.37
442.564	4.38
443.004	4.39
443.444	4.4
443.883	4.42
444.323	4.44
444.762	4.46
445.202	4.48
445.641	4.5
446.081	4.51
446.52	4.51
446.959	4.55
447.398	4.58
447.837	4.61
448.276	4.63
448.716	4.65
449.154	4.67
449.593	4.71
450.032	4.72
450.471	4.73
450.91	4.73
451.349	4.75
451.787	4.74
452.226	4.73
452.664	4.72
453.103	4.72
453.541	4.73
453.98	4.73
454.418	4.7
454.856	4.7
455.295	4.68
455.733	4.66
456.171	4.65
456.609	4.66
457.047	4.65
457.485	4.65
457.923	4.65
458.361	4.65
458.798	4.64
459.236	4.65
459.674	4.64
460.111	4.65
460.549	4.67
460.987	4.67
461.424	4.66
461.862	4.67
462.299	4.68
462.736	4.68
463.173	4.67
463.611	4.67
464.048	4.67
464.485	4.67
464.922	4.67
465.359	4.67
465.796	4.68
466.233	4.68
466.67	4.68
467.106	4.68
467.543	4.68
467.98	4.68
468.416	4.68
468.853	4.68
469.29	4.68
469.726	4.69
470.162	4.68
470.599	4.67
471.035	4.66
471.471	4.66
471.907	4.64
472.344	4.64
472.78	4.65
473.216	4.65
473.652	4.64
474.088	4.63
474.523	4.63
474.959	4.62
475.395	4.6
475.831	4.6
476.266	4.59
476.702	4.58
477.138	4.57
477.573	4.57
478.008	4.56
478.444	4.55
478.879	4.57
479.314	4.55
479.75	4.55
480.185	4.54
480.62	4.54
481.055	4.53
481.49	4.53
481.925	4.54
482.36	4.53
482.795	4.53
483.229	4.53
483.664	4.54
484.099	4.54
484.534	4.54
484.968	4.56
485.403	4.58
485.837	4.59
486.271	4.62
486.706	4.63
487.14	4.65
487.574	4.67
488.009	4.69
488.443	4.71
488.877	4.73
489.311	4.77
489.745	4.8
490.179	4.84
490.613	4.88
491.046	4.91
491.48	4.95
491.914	5
492.348	5.04
492.781	5.1
493.215	5.15
493.648	5.21
494.082	5.26
494.515	5.31
494.948	5.37
495.382	5.43
495.815	5.5
496.248	5.58
496.681	5.66
497.114	5.74
497.547	5.82
497.98	5.91
498.413	6
498.846	6.09
499.279	6.19
499.711	6.29
500.144	6.39
500.577	6.51
501.009	6.62
501.442	6.73
501.874	6.86
502.306	6.99
502.739	7.13
503.171	7.27
503.603	7.42
504.036	7.58
504.468	7.73
504.9	7.89
505.332	8.05
505.764	8.24
506.196	8.41
506.627	8.6
507.059	8.8
507.491	8.99
507.923	9.19
508.354	9.39
508.786	9.62
509.217	9.84
509.649	10.07
510.08	10.31
510.512	10.54
510.943	10.77
511.374	11
511.805	11.23
512.237	11.48
512.668	11.74
513.099	12
513.53	12.25
513.961	12.51
514.391	12.79
514.822	13.07
515.253	13.35
515.684	13.63
516.114	13.92
516.545	14.21
516.975	14.5
517.406	14.79
517.836	15.07
518.267	15.37
518.697	15.64
519.127	15.9
519.558	16.17
519.988	16.44
520.418	16.7
520.848	16.96
521.278	17.22
521.708	17.52
522.138	17.76
522.567	18
522.997	18.25
523.427	18.49
523.857	18.73
524.286	18.95
524.716	19.16
525.145	19.38
525.575	19.6
526.004	19.8
526.433	19.94
526.863	20.14
527.292	20.34
527.721	20.51
528.15	20.67
528.579	20.84
529.008	21.01
529.437	21.15
529.866	21.3
530.295	21.44
530.724	21.57
531.152	21.7
531.581	21.81
532.01	21.9
532.438	22.02
532.867	22.13
533.295	22.21
533.723	22.3
534.152	22.38
534.58	22.47
535.008	22.53
535.436	22.61
535.865	22.68
536.293	22.73
536.721	22.79
537.149	22.85
537.576	22.9
538.004	22.96
538.432	23.01
538.86	23.06
539.287	23.1
539.715	23.14
540.143	23.17
540.57	23.21
540.998	23.24
541.425	23.29
541.852	23.33
542.28	23.36
542.707	23.38
543.134	23.4
543.561	23.43
543.988	23.46
544.415	23.47
544.842	23.49
545.269	23.52
545.696	23.54
546.123	23.56
546.549	23.58
546.976	23.61
547.403	23.63
547.829	23.64
548.256	23.66
548.682	23.67
549.108	23.71
549.535	23.71
549.961	23.72
550.387	23.71
550.813	23.71
551.24	23.69
551.666	23.67
552.092	23.66
552.518	23.66
552.943	23.64
553.369	23.63
553.795	23.6
554.221	23.57
554.646	23.53
555.072	23.51
555.498	23.47
555.923	23.42
556.349	23.36
556.774	23.3
557.199	23.24
557.625	23.17
558.05	23.1
558.475	23.03
558.9	22.97
559.325	22.88
559.75	22.79
560.175	22.7
560.6	22.6
561.025	22.5
561.449	22.39
561.874	22.25
562.299	22.14
562.723	22
563.148	21.88
563.572	21.72
563.997	21.6
564.421	21.45
564.846	21.32
565.27	21.17
565.694	21.03
566.118	20.89
566.542	20.75
566.966	20.6
567.39	20.47
567.814	20.32
568.238	20.18
568.662	20.03
569.086	19.89
569.509	19.75
569.933	19.61
570.357	19.48
570.78	19.34
571.204	19.22
571.627	19.09
572.05	18.95
572.474	18.85
572.897	18.73
573.32	18.61
573.743	18.48
574.166	18.36
574.589	18.24
575.012	18.11
575.435	18
575.858	17.89
576.281	17.78
576.704	17.68
577.126	17.56
577.549	17.47
577.972	17.37
578.394	17.28
578.817	17.2
579.239	17.12
579.661	17.04
580.084	16.96
580.506	16.88
580.928	16.8
581.35	16.73
581.772	16.65
582.194	16.57
582.616	16.5
583.038	16.42
583.46	16.34
583.882	16.27
584.303	16.2
584.725	16.13
585.147	16.05
585.568	15.98
585.99	15.92
586.411	15.85
586.833	15.79
587.254	15.73
587.675	15.66
588.096	15.61
588.518	15.56
588.939	15.5
589.36	15.45
589.781	15.39
590.202	15.35
590.623	15.31
591.043	15.26
591.464	15.21
591.885	15.16
592.305	15.13
592.726	15.08
593.147	15.03
593.567	14.98
593.987	14.93
594.408	14.89
594.828	14.84
595.248	14.8
595.669	14.76
596.089	14.71
596.509	14.67
596.929	14.62
597.349	14.58
597.769	14.54
598.189	14.5
598.608	14.47
599.028	14.43
599.448	14.39
599.867	14.35
600.287	14.3
600.706	14.26
601.126	14.23
601.545	14.19
601.965	14.16
602.384	14.12
602.803	14.09
603.222	14.03
603.641	13.99
604.061	13.96
604.48	13.9
604.898	13.86
605.317	13.8
605.736	13.74
606.155	13.7
606.574	13.63
606.992	13.56
607.411	13.51
607.829	13.43
608.248	13.36
608.666	13.3
609.085	13.25
609.503	13.19
609.921	13.13
610.339	13.07
610.758	13
611.176	12.94
611.594	12.88
612.012	12.81
612.43	12.77
612.847	12.7
613.265	12.64
613.683	12.57
614.101	12.5
614.518	12.44
614.936	12.37
615.353	12.31
615.771	12.26
616.188	12.2
616.606	12.15
617.023	12.1
617.44	12.06
617.857	12.02
618.274	11.98
618.691	11.93
619.108	11.89
619.525	11.86
619.942	11.82
620.359	11.79
620.776	11.77
621.192	11.74
621.609	11.71
622.026	11.69
622.442	11.67
622.859	11.65
623.275	11.63
623.691	11.62
624.108	11.6
624.524	11.59
624.94	11.59
625.356	11.57
625.772	11.56
626.188	11.55
626.604	11.54
627.02	11.53
627.436	11.53
627.852	11.52
628.268	11.52
628.683	11.51
629.099	11.5
629.514	11.48
629.93	11.46
630.345	11.45
630.761	11.41
631.176	11.38
631.591	11.32
632.007	11.27
632.422	11.21
632.837	11.15
633.252	11.07
633.667	10.99
634.082	10.91
634.497	10.82
634.911	10.71
635.326	10.62
635.741	10.51
636.155	10.4
636.57	10.29
636.984	10.18
637.399	10.05
637.813	9.94
638.228	9.8
638.642	9.66
639.056	9.51
639.47	9.38
639.884	9.25
640.298	9.11
640.712	8.98
641.126	8.84
641.54	8.69
641.954	8.55
642.368	8.42
642.781	8.3
643.195	8.18
643.609	8.07
644.022	7.96
644.436	7.86
644.849	7.75
645.262	7.65
645.676	7.56
646.089	7.49
646.502	7.42
646.915	7.35
647.328	7.28
647.741	7.22
648.154	7.16
648.567	7.1
648.98	7.05
649.393	7.02
649.805	7
650.218	6.97
650.631	6.94
651.043	6.91
651.456	6.88
651.868	6.86
652.28	6.85
652.693	6.82
653.105	6.81
653.517	6.77
653.929	6.75
654.341	6.71
654.753	6.67
655.165	6.63
655.577	6.6
655.989	6.56
656.401	6.5
656.813	6.46
657.224	6.41
657.636	6.34
658.047	6.3
658.459	6.23
658.87	6.17
659.282	6.11
659.693	6.04
660.104	5.97
660.515	5.9
660.926	5.84
661.338	5.77
661.749	5.71
662.159	5.66
662.57	5.6
662.981	5.55
663.392	5.5
663.803	5.45
664.213	5.39
664.624	5.35
665.035	5.3
665.445	5.27
665.855	5.23
666.266	5.2
666.676	5.17
667.086	5.13
667.497	5.1
667.907	5.07
668.317	5.06
668.727	5.04
669.137	5.03
669.547	5.02
669.956	5.01
670.366	5.02
670.776	5.01
671.186	5.02
671.595	5.03
672.005	5.03
672.414	5.06
672.824	5.06
673.233	5.09
673.642	5.11
674.052	5.13
674.461	5.16
674.87	5.18
675.279	5.22
675.688	5.25
676.097	5.3
676.506	5.35
676.915	5.39
677.323	5.44
677.732	5.48
678.141	5.53
678.549	5.59
678.958	5.66
679.366	5.73
679.775	5.8
680.183	5.88
680.592	5.97
681	6.06
681.408	6.18
681.816	6.31
682.224	6.45
682.632	6.61
683.04	6.78
683.448	6.95
683.856	7.15
684.264	7.36
684.671	7.6
685.079	7.84
685.487	8.12
685.894	8.43
686.302	8.76
686.709	9.11
687.116	9.48
687.524	9.89
687.931	10.33
688.338	10.79
688.745	11.25
689.152	11.75
689.559	12.3
689.966	12.84
690.373	13.38
690.78	13.96
691.187	14.55
691.593	15.16
692	15.76
692.407	16.36
692.813	16.99
693.22	17.61
693.626	18.24
694.032	18.87
694.439	19.51
694.845	20.15
695.251	20.79
695.657	21.41
696.063	22.03
696.469	22.67
696.875	23.29
697.281	23.91
697.687	24.54
698.093	25.15
698.498	25.75
698.904	26.32
699.31	26.9
699.715	27.44
700.12	28.01
700.526	28.57
700.931	29.13
701.337	29.65
701.742	30.14
702.147	30.63
702.552	31.13
702.957	31.58
703.362	32.05
703.767	32.48
704.172	32.92
704.577	33.35
704.981	33.76
705.386	34.14
705.791	34.56
706.195	34.96
706.6	35.37
707.004	35.73
707.408	36.12
707.813	36.51
708.217	36.88
708.621	37.25
709.025	37.57
709.43	37.91
709.834	38.26
710.237	38.57
710.641	38.9
711.045	39.2
711.449	39.52
711.853	39.84
712.256	40.13
712.66	40.43
713.064	40.71
713.467	41.02
713.87	41.31
714.274	41.57
714.677	41.85
715.08	42.09
715.484	42.35
715.887	42.62
716.29	42.84
716.693	43.09
717.096	43.32
717.499	43.56
717.901	43.78
718.304	43.98
718.707	44.21
719.109	44.43
719.512	44.66
719.915	44.86
720.317	45.02
720.719	45.19
721.122	45.35
721.524	45.53
721.926	45.68
722.328	45.85
722.731	46
723.133	46.15
723.535	46.32
723.937	46.47
724.338	46.6
724.74	46.74
725.142	46.99
725.544	47.14
725.945	47.27
726.347	47.39
726.748	47.5
727.15	47.62
727.551	47.74
727.952	47.81
728.354	47.91
728.755	47.99
729.156	48.11
729.557	48.1
729.958	48.17
730.359	48.26
730.76	48.35
731.161	48.45
731.562	48.54
731.962	48.58
732.363	48.67
732.763	48.76
733.164	48.83
733.564	48.88
733.965	48.94
734.365	49.02
734.766	49.07
735.166	49.12
735.566	49.16
735.966	49.2
736.366	49.26
736.766	49.29
737.166	49.32
737.566	49.35
737.966	49.38
738.365	49.43
738.765	49.48
739.165	49.52
739.564	49.56
739.964	49.6
740.363	49.62
740.763	49.66
741.162	49.71
741.561	49.74
741.96	49.78
742.36	49.82
742.759	49.84
743.158	49.84
743.557	49.85
743.955	49.87
744.354	49.9
744.753	49.93
745.152	49.97
745.55	50.01
745.949	50.03
746.348	50.04
746.746	50.06
747.144	50.08
747.543	50.09
747.941	50.1
748.339	50.08
748.737	50.09
749.136	50.08
749.534	50.03
749.932	50.01
750.33	50
750.727	50.01
751.125	50
751.523	49.97
751.921	49.97
752.318	50
752.716	50.04
753.113	50.06
753.511	50.1
753.908	50.14
754.305	50.15
754.703	50.17
755.1	50.17
755.497	50.17
755.894	50.2
756.291	50.22
756.688	50.17
757.085	50.17
757.482	50.16
757.878	50.13
758.275	50.11
758.672	50.1
759.068	50.13
759.465	50.14
759.861	50.16
760.258	50.16
760.654	50.14
761.05	50.18
761.447	50.2
761.843	50.19
762.239	50.16
762.635	50.17
763.031	50.16
763.427	50.12
763.822	50.11
764.218	50.1
764.614	50.1
765.01	50.09
765.405	50.07
765.801	50.04
766.196	50.04
766.592	50.04
766.987	50.04
767.382	50.02
767.778	50.01
768.173	50.01
768.568	49.98
768.963	49.96
769.358	49.97
769.753	49.97
770.148	49.97
770.542	49.97
770.937	49.98
771.332	49.95
771.726	49.98
772.121	49.99
772.515	49.99
772.91	49.99
773.304	50.02
773.699	50.02
774.093	49.99
774.487	49.98
774.881	50.01
775.275	49.99
775.669	49.98
776.063	49.96
776.457	49.94
776.851	49.9
777.245	49.88
777.638	49.87
778.032	49.89
778.425	49.92
778.819	49.93
779.212	49.93
779.606	49.96
779.999	49.97
780.392	50
780.786	50.01
781.179	50.05
781.572	50.12
781.965	50.12
782.358	50.11
782.751	50.09
783.143	50.08
783.536	50.05
