Data from C_2_DEC_CT_2N_Splice17_13-30-36-448.txt Node
Date: Sat Mar 07 13:30:36 EST 2020
User: sa697716
Spectrometer: NQ5500242
Trigger mode: 0
Integration Time (sec): 1.450000E-1
Scans to average: 20
Nonlinearity correction enabled: false
Boxcar width: 5
Storing dark spectrum: false
XAxis mode: Wavelengths
Number of Pixels in Spectrum: 512
>>>>>Begin Spectral Data<<<<<
187.83	192.11
188.298	200.01
188.766	173.24
189.233	137.32
189.701	144.24
190.169	171.6
190.636	200.19
191.104	288.83
191.571	130.64
192.039	-153.11
192.506	-621.22
192.974	244.52
193.441	283.6
193.908	66.38
194.375	28.18
194.842	-26.62
195.31	-21.17
195.777	-224.32
196.244	29.72
196.711	47.62
197.177	51.55
197.644	53.18
198.111	52.7
198.578	53.41
199.045	54.9
199.511	54.86
199.978	54.82
200.445	55.05
200.911	55.32
201.378	55.35
201.844	55.35
202.31	54.77
202.777	54.4
203.243	54.45
203.709	54.07
204.176	53.16
204.642	52.78
205.108	52.46
205.574	52.29
206.04	51.64
206.506	51.28
206.972	51.11
207.438	50.65
207.903	49.99
208.369	48.8
208.835	48.06
209.301	46.97
209.766	45.62
210.232	44.6
210.697	43.26
211.163	42.37
211.628	41.5
212.094	40.14
212.559	39.34
213.024	38.48
213.49	37.75
213.955	36.59
214.42	35.88
214.885	34.97
215.35	33.85
215.815	32.18
216.28	30.1
216.745	27.72
217.21	25.68
217.675	23.68
218.14	21.94
218.604	20.42
219.069	19.2
219.534	18.16
219.998	17.24
220.463	16.46
220.927	15.82
221.392	15.31
221.856	14.9
222.32	14.48
222.785	14.19
223.249	13.9
223.713	13.64
224.177	13.41
224.642	13.15
225.106	12.95
225.57	12.69
226.034	12.47
226.497	12.26
226.961	12.07
227.425	11.88
227.889	11.68
228.353	11.5
228.816	11.3
229.28	11.13
229.744	10.97
230.207	10.8
230.671	10.66
231.134	10.51
231.597	10.39
232.061	10.26
232.524	10.16
232.987	10.02
233.45	9.91
233.914	9.8
234.377	9.7
234.84	9.59
235.303	9.5
235.766	9.41
236.229	9.32
236.691	9.21
237.154	9.11
237.617	9.02
238.08	8.94
238.542	8.84
239.005	8.76
239.468	8.67
239.93	8.58
240.393	8.5
240.855	8.4
241.317	8.32
241.78	8.25
242.242	8.17
242.704	8.08
243.166	8.01
243.629	7.95
244.091	7.87
244.553	7.8
245.015	7.73
245.477	7.65
245.939	7.59
246.4	7.51
246.862	7.45
247.324	7.39
247.786	7.33
248.247	7.26
248.709	7.19
249.17	7.14
249.632	7.09
250.093	7.04
250.555	6.99
251.016	6.95
251.477	6.9
251.939	6.87
252.4	6.84
252.861	6.79
253.322	6.75
253.783	6.71
254.244	6.67
254.705	6.62
255.166	6.58
255.627	6.53
256.088	6.48
256.549	6.44
257.009	6.39
257.47	6.34
257.931	6.29
258.391	6.24
258.852	6.19
259.312	6.15
259.773	6.12
260.233	6.09
260.694	6.06
261.154	6.02
261.614	5.99
262.074	5.95
262.534	5.91
262.994	5.89
263.455	5.87
263.915	5.85
264.374	5.82
264.834	5.8
265.294	5.77
265.754	5.75
266.214	5.73
266.673	5.71
267.133	5.71
267.593	5.69
268.052	5.67
268.512	5.66
268.971	5.64
269.431	5.62
269.89	5.61
270.349	5.6
270.809	5.59
271.268	5.58
271.727	5.57
272.186	5.55
272.645	5.55
273.104	5.54
273.563	5.52
274.022	5.5
274.481	5.5
274.94	5.49
275.399	5.47
275.857	5.46
276.316	5.45
276.775	5.43
277.233	5.42
277.692	5.41
278.15	5.4
278.609	5.39
279.067	5.38
279.525	5.37
279.984	5.35
280.442	5.34
280.9	5.33
281.358	5.32
281.816	5.31
282.274	5.3
282.732	5.28
283.19	5.26
283.648	5.25
284.106	5.24
284.564	5.22
285.021	5.21
285.479	5.2
285.937	5.19
286.394	5.18
286.852	5.16
287.309	5.15
287.767	5.14
288.224	5.12
288.682	5.1
289.139	5.09
289.596	5.07
290.053	5.04
290.511	5.02
290.968	5.01
291.425	4.99
291.882	4.98
292.339	4.96
292.796	4.95
293.252	4.93
293.709	4.92
294.166	4.9
294.623	4.88
295.079	4.87
295.536	4.86
295.992	4.85
296.449	4.84
296.905	4.83
297.362	4.82
297.818	4.8
298.274	4.8
298.731	4.79
299.187	4.77
299.643	4.76
300.099	4.76
300.555	4.75
301.011	4.74
301.467	4.73
301.923	4.71
302.379	4.7
302.835	4.7
303.291	4.7
303.746	4.7
304.202	4.7
304.658	4.69
305.113	4.69
305.569	4.69
306.024	4.69
306.479	4.69
306.935	4.68
307.39	4.68
307.845	4.67
308.301	4.67
308.756	4.66
309.211	4.66
309.666	4.66
310.121	4.65
310.576	4.65
311.031	4.65
311.486	4.64
311.94	4.65
312.395	4.64
312.85	4.65
313.305	4.64
313.759	4.63
314.214	4.64
314.668	4.62
315.123	4.62
315.577	4.61
316.032	4.6
316.486	4.59
316.94	4.57
317.394	4.56
317.849	4.54
318.303	4.52
318.757	4.51
319.211	4.49
319.665	4.48
320.119	4.47
320.572	4.45
321.026	4.44
321.48	4.43
321.934	4.42
322.387	4.41
322.841	4.4
323.295	4.4
323.748	4.4
324.202	4.39
324.655	4.38
325.108	4.38
325.562	4.37
326.015	4.37
326.468	4.36
326.921	4.36
327.374	4.36
327.827	4.36
328.28	4.35
328.733	4.35
329.186	4.35
329.639	4.34
330.092	4.34
330.545	4.33
330.997	4.33
331.45	4.32
331.903	4.33
332.355	4.32
332.808	4.31
333.26	4.31
333.713	4.29
334.165	4.28
334.617	4.28
335.069	4.27
335.522	4.27
335.974	4.27
336.426	4.27
336.878	4.25
337.33	4.25
337.782	4.25
338.234	4.25
338.686	4.25
339.137	4.26
339.589	4.24
340.041	4.25
340.493	4.23
340.944	4.22
341.396	4.21
341.847	4.2
342.299	4.19
342.75	4.18
343.201	4.16
343.653	4.15
344.104	4.12
344.555	4.11
345.006	4.09
345.457	4.08
345.908	4.08
346.359	4.07
346.81	4.06
347.261	4.05
347.712	4.04
348.163	4.03
348.613	4.03
349.064	4.04
349.515	4.04
349.965	4.04
350.416	4.04
350.866	4.03
351.317	4.03
351.767	4.02
352.217	4.02
352.668	4.03
353.118	4.03
353.568	4.03
354.018	4.03
354.468	4.03
354.918	4.02
355.368	4.03
355.818	4.02
356.268	4.02
356.718	4.03
357.168	4.02
357.617	4.01
358.067	4
358.517	4.02
358.966	4.02
359.416	4.02
359.865	4.02
360.315	4.02
360.764	4.03
361.213	4.03
361.663	4.03
362.112	4.03
362.561	4.04
363.01	4.03
363.459	4.02
363.908	4.01
364.357	4
364.806	3.99
365.255	3.98
365.703	3.98
366.152	3.99
366.601	3.99
367.05	3.99
367.498	3.99
367.947	3.99
368.395	3.99
368.844	3.98
369.292	3.98
369.74	3.98
370.189	3.98
370.637	3.98
371.085	3.97
371.533	3.95
371.981	3.95
372.429	3.94
372.877	3.94
373.325	3.94
373.773	3.94
374.221	3.94
374.669	3.95
375.116	3.94
375.564	3.93
376.012	3.93
376.459	3.93
376.907	3.93
377.354	3.93
377.801	3.93
378.249	3.93
378.696	3.92
379.143	3.91
379.591	3.91
380.038	3.92
380.485	3.92
380.932	3.92
381.379	3.93
381.826	3.92
382.273	3.92
382.72	3.91
383.166	3.92
383.613	3.93
384.06	3.93
384.506	3.93
384.953	3.93
385.4	3.93
385.846	3.95
386.292	3.95
386.739	3.94
387.185	3.95
387.631	3.97
388.078	3.97
388.524	3.97
388.97	3.98
389.416	3.99
389.862	3.99
390.308	4.02
390.754	4.03
391.2	4.05
391.645	4.08
392.091	4.1
392.537	4.13
392.983	4.14
393.428	4.17
393.874	4.18
394.319	4.21
394.765	4.24
395.21	4.25
395.655	4.27
396.101	4.3
396.546	4.32
396.991	4.35
397.436	4.36
397.881	4.42
398.326	4.45
398.771	4.49
399.216	4.51
399.661	4.54
400.106	4.58
400.551	4.61
400.995	4.63
401.44	4.65
401.885	4.67
402.329	4.7
402.774	4.71
403.218	4.76
403.663	4.79
404.107	4.82
404.551	4.85
404.995	4.87
405.44	4.88
405.884	4.92
406.328	4.94
406.772	4.97
407.216	5
407.66	5.03
408.104	5.03
408.547	5.05
408.991	5.08
409.435	5.1
409.879	5.12
410.322	5.17
410.766	5.2
411.209	5.24
411.653	5.28
412.096	5.31
412.54	5.34
412.983	5.37
413.426	5.41
413.869	5.45
414.312	5.5
414.756	5.53
415.199	5.55
415.642	5.56
416.085	5.58
416.527	5.59
416.97	5.6
417.413	5.62
417.856	5.63
418.298	5.63
418.741	5.63
419.184	5.64
419.626	5.64
420.069	5.66
420.511	5.68
420.953	5.69
421.396	5.71
421.838	5.72
422.28	5.73
422.722	5.75
423.164	5.77
423.606	5.78
424.048	5.77
424.49	5.78
424.932	5.79
425.374	5.77
425.816	5.74
426.258	5.74
426.699	5.73
427.141	5.72
427.582	5.72
428.024	5.71
428.465	5.73
428.907	5.73
429.348	5.72
429.789	5.72
430.231	5.75
430.672	5.77
431.113	5.79
431.554	5.8
431.995	5.81
432.436	5.82
432.877	5.84
433.318	5.85
433.759	5.88
434.2	5.9
434.64	5.91
435.081	5.92
435.522	5.94
435.962	5.95
436.403	5.99
436.843	6.01
437.284	6.03
437.724	6.01
438.164	6.01
438.604	6.02
439.045	6.02
439.485	6.04
439.925	6.04
440.365	6.05
440.805	6.06
441.245	6.07
441.685	6.11
442.125	6.13
442.564	6.17
443.004	6.19
443.444	6.22
443.883	6.26
444.323	6.27
444.762	6.31
445.202	6.34
445.641	6.39
446.081	6.42
446.52	6.44
446.959	6.48
447.398	6.51
447.837	6.57
448.276	6.59
448.716	6.63
449.154	6.66
449.593	6.7
450.032	6.72
450.471	6.73
450.91	6.73
451.349	6.76
451.787	6.76
452.226	6.76
452.664	6.75
453.103	6.76
453.541	6.76
453.98	6.78
454.418	6.76
454.856	6.76
455.295	6.76
455.733	6.75
456.171	6.73
456.609	6.74
457.047	6.73
457.485	6.72
457.923	6.71
458.361	6.71
458.798	6.69
459.236	6.71
459.674	6.7
460.111	6.69
460.549	6.72
460.987	6.73
461.424	6.73
461.862	6.75
462.299	6.76
462.736	6.76
463.173	6.76
463.611	6.77
464.048	6.77
464.485	6.78
464.922	6.79
465.359	6.78
465.796	6.8
466.233	6.81
466.67	6.82
467.106	6.82
467.543	6.83
467.98	6.83
468.416	6.83
468.853	6.84
469.29	6.83
469.726	6.83
470.162	6.84
470.599	6.83
471.035	6.81
471.471	6.81
471.907	6.8
472.344	6.81
472.78	6.82
473.216	6.81
473.652	6.82
474.088	6.81
474.523	6.82
474.959	6.81
475.395	6.8
475.831	6.82
476.266	6.82
476.702	6.81
477.138	6.81
477.573	6.81
478.008	6.82
478.444	6.81
478.879	6.83
479.314	6.83
479.75	6.82
480.185	6.81
480.62	6.8
481.055	6.8
481.49	6.8
481.925	6.8
482.36	6.81
482.795	6.8
483.229	6.81
483.664	6.82
484.099	6.82
484.534	6.83
484.968	6.86
485.403	6.88
485.837	6.9
486.271	6.93
486.706	6.96
487.14	6.98
487.574	7.03
488.009	7.07
488.443	7.1
488.877	7.15
489.311	7.2
489.745	7.26
490.179	7.32
490.613	7.39
491.046	7.45
491.48	7.52
491.914	7.6
492.348	7.66
492.781	7.75
493.215	7.83
493.648	7.92
494.082	8.01
494.515	8.1
494.948	8.2
495.382	8.29
495.815	8.41
496.248	8.52
496.681	8.64
497.114	8.76
497.547	8.88
497.98	9.02
498.413	9.15
498.846	9.29
499.279	9.43
499.711	9.57
500.144	9.73
500.577	9.89
501.009	10.05
501.442	10.22
501.874	10.41
502.306	10.6
502.739	10.79
503.171	10.99
503.603	11.19
504.036	11.4
504.468	11.62
504.9	11.83
505.332	12.05
505.764	12.29
506.196	12.53
506.627	12.77
507.059	13.02
507.491	13.27
507.923	13.53
508.354	13.8
508.786	14.07
509.217	14.36
509.649	14.65
510.08	14.93
510.512	15.22
510.943	15.5
511.374	15.79
511.805	16.1
512.237	16.39
512.668	16.69
513.099	16.98
513.53	17.28
513.961	17.57
514.391	17.86
514.822	18.17
515.253	18.46
515.684	18.75
516.114	19.07
516.545	19.35
516.975	19.65
517.406	19.96
517.836	20.25
518.267	20.55
518.697	20.84
519.127	21.11
519.558	21.38
519.988	21.66
520.418	21.93
520.848	22.18
521.278	22.44
521.708	22.74
522.138	22.97
522.567	23.22
522.997	23.44
523.427	23.66
523.857	23.88
524.286	24.09
524.716	24.3
525.145	24.48
525.575	24.66
526.004	24.84
526.433	24.93
526.863	25.1
527.292	25.27
527.721	25.4
528.15	25.53
528.579	25.67
529.008	25.8
529.437	25.92
529.866	26.02
530.295	26.13
530.724	26.22
531.152	26.35
531.581	26.45
532.01	26.53
532.438	26.63
532.867	26.72
533.295	26.81
533.723	26.89
534.152	26.97
534.58	27.06
535.008	27.12
535.436	27.2
535.865	27.25
536.293	27.3
536.721	27.34
537.149	27.4
537.576	27.44
538.004	27.48
538.432	27.52
538.86	27.56
539.287	27.57
539.715	27.62
540.143	27.65
540.57	27.68
540.998	27.7
541.425	27.74
541.852	27.76
542.28	27.78
542.707	27.8
543.134	27.82
543.561	27.84
543.988	27.87
544.415	27.88
544.842	27.89
545.269	27.91
545.696	27.95
546.123	27.96
546.549	27.99
546.976	28.02
547.403	28.04
547.829	28.04
548.256	28.05
548.682	28.07
549.108	28.1
549.535	28.13
549.961	28.15
550.387	28.15
550.813	28.16
551.24	28.15
551.666	28.14
552.092	28.14
552.518	28.13
552.943	28.14
553.369	28.12
553.795	28.09
554.221	28.05
554.646	28.02
555.072	28
555.498	27.97
555.923	27.93
556.349	27.89
556.774	27.84
557.199	27.79
557.625	27.73
558.05	27.67
558.475	27.63
558.9	27.58
559.325	27.54
559.75	27.47
560.175	27.41
560.6	27.32
561.025	27.25
561.449	27.15
561.874	27.08
562.299	27.01
562.723	26.93
563.148	26.81
563.572	26.69
563.997	26.56
564.421	26.45
564.846	26.35
565.27	26.26
565.694	26.16
566.118	26.05
566.542	25.93
566.966	25.79
567.39	25.68
567.814	25.56
568.238	25.45
568.662	25.34
569.086	25.21
569.509	25.07
569.933	24.93
570.357	24.79
570.78	24.66
571.204	24.55
571.627	24.42
572.05	24.3
572.474	24.19
572.897	24.09
573.32	23.97
573.743	23.86
574.166	23.77
574.589	23.66
575.012	23.57
575.435	23.48
575.858	23.37
576.281	23.29
576.704	23.2
577.126	23.11
577.549	23.01
577.972	22.92
578.394	22.82
578.817	22.74
579.239	22.67
579.661	22.58
580.084	22.5
580.506	22.42
580.928	22.33
581.35	22.24
581.772	22.16
582.194	22.08
582.616	22
583.038	21.92
583.46	21.84
583.882	21.77
584.303	21.68
584.725	21.62
585.147	21.56
585.568	21.51
585.99	21.46
586.411	21.39
586.833	21.34
587.254	21.29
587.675	21.26
588.096	21.2
588.518	21.14
588.939	21.11
589.36	21.06
589.781	20.99
590.202	20.95
590.623	20.91
591.043	20.86
591.464	20.83
591.885	20.79
592.305	20.75
592.726	20.74
593.147	20.7
593.567	20.66
593.987	20.63
594.408	20.61
594.828	20.58
595.248	20.56
595.669	20.53
596.089	20.48
596.509	20.46
596.929	20.42
597.349	20.38
597.769	20.35
598.189	20.32
598.608	20.3
599.028	20.26
599.448	20.23
599.867	20.18
600.287	20.15
600.706	20.13
601.126	20.08
601.545	20.04
601.965	19.99
602.384	19.94
602.803	19.88
603.222	19.81
603.641	19.75
604.061	19.68
604.48	19.61
604.898	19.54
605.317	19.46
605.736	19.38
606.155	19.31
606.574	19.22
606.992	19.14
607.411	19.06
607.829	18.95
608.248	18.86
608.666	18.76
609.085	18.68
609.503	18.6
609.921	18.52
610.339	18.44
610.758	18.36
611.176	18.27
611.594	18.2
612.012	18.12
612.43	18.05
612.847	17.97
613.265	17.91
613.683	17.85
614.101	17.76
614.518	17.68
614.936	17.6
615.353	17.51
615.771	17.43
616.188	17.36
616.606	17.29
617.023	17.22
617.44	17.17
617.857	17.1
618.274	17.02
618.691	16.95
619.108	16.89
619.525	16.84
619.942	16.8
620.359	16.77
620.776	16.72
621.192	16.69
621.609	16.66
622.026	16.63
622.442	16.6
622.859	16.57
623.275	16.55
623.691	16.53
624.108	16.5
624.524	16.49
624.94	16.46
625.356	16.45
625.772	16.43
626.188	16.42
626.604	16.4
627.02	16.38
627.436	16.38
627.852	16.38
628.268	16.37
628.683	16.37
629.099	16.35
629.514	16.34
629.93	16.32
630.345	16.3
630.761	16.26
631.176	16.23
631.591	16.21
632.007	16.17
632.422	16.11
632.837	16.06
633.252	15.99
633.667	15.93
634.082	15.85
634.497	15.79
634.911	15.69
635.326	15.62
635.741	15.53
636.155	15.43
636.57	15.32
636.984	15.2
637.399	15.09
637.813	14.99
638.228	14.86
638.642	14.74
639.056	14.59
639.47	14.47
639.884	14.33
640.298	14.19
640.712	14.06
641.126	13.93
641.54	13.8
641.954	13.65
642.368	13.5
642.781	13.36
643.195	13.22
643.609	13.09
644.022	12.95
644.436	12.81
644.849	12.68
645.262	12.55
645.676	12.42
646.089	12.3
646.502	12.2
646.915	12.11
647.328	12.02
647.741	11.92
648.154	11.84
648.567	11.76
648.98	11.69
649.393	11.63
649.805	11.56
650.218	11.51
650.631	11.45
651.043	11.38
651.456	11.32
651.868	11.25
652.28	11.18
652.693	11.12
653.105	11.05
653.517	10.97
653.929	10.89
654.341	10.79
654.753	10.69
655.165	10.59
655.577	10.48
655.989	10.37
656.401	10.26
656.813	10.14
657.224	10.01
657.636	9.87
658.047	9.75
658.459	9.61
658.87	9.48
659.282	9.35
659.693	9.22
660.104	9.07
660.515	8.93
660.926	8.78
661.338	8.64
661.749	8.51
662.159	8.38
662.57	8.26
662.981	8.13
663.392	8.01
663.803	7.9
664.213	7.79
664.624	7.68
665.035	7.59
665.445	7.5
665.855	7.41
666.266	7.34
666.676	7.27
667.086	7.19
667.497	7.13
667.907	7.08
668.317	7.03
668.727	6.98
669.137	6.95
669.547	6.92
669.956	6.88
670.366	6.86
670.776	6.83
671.186	6.8
671.595	6.77
672.005	6.76
672.414	6.75
672.824	6.74
673.233	6.73
673.642	6.72
674.052	6.72
674.461	6.73
674.87	6.75
675.279	6.76
675.688	6.78
676.097	6.82
676.506	6.84
676.915	6.87
677.323	6.91
677.732	6.95
678.141	7
678.549	7.06
678.958	7.13
679.366	7.2
679.775	7.29
680.183	7.39
680.592	7.5
681	7.65
681.408	7.79
681.816	7.95
682.224	8.15
682.632	8.35
683.04	8.57
683.448	8.81
683.856	9.07
684.264	9.36
684.671	9.67
685.079	10
685.487	10.36
685.894	10.76
686.302	11.17
686.709	11.61
687.116	12.08
687.524	12.56
687.931	13.07
688.338	13.61
688.745	14.15
689.152	14.7
689.559	15.27
689.966	15.86
690.373	16.45
690.78	17.04
691.187	17.62
691.593	18.22
692	18.82
692.407	19.39
692.813	19.98
693.22	20.54
693.626	21.12
694.032	21.69
694.439	22.23
694.845	22.78
695.251	23.32
695.657	23.85
696.063	24.37
696.469	24.88
696.875	25.38
697.281	25.84
697.687	26.34
698.093	26.81
698.498	27.26
698.904	27.69
699.31	28.1
699.715	28.51
700.12	28.9
700.526	29.28
700.931	29.66
701.337	30.02
701.742	30.36
702.147	30.71
702.552	31.04
702.957	31.33
703.362	31.64
703.767	31.92
704.172	32.21
704.577	32.5
704.981	32.76
705.386	33.02
705.791	33.27
706.195	33.53
706.6	33.77
707.004	33.99
707.408	34.24
707.813	34.47
708.217	34.71
708.621	34.94
709.025	35.16
709.43	35.37
709.834	35.59
710.237	35.8
710.641	35.96
711.045	36.13
711.449	36.34
711.853	36.54
712.256	36.72
712.66	36.89
713.064	37.04
713.467	37.21
713.87	37.38
714.274	37.52
714.677	37.68
715.08	37.86
715.484	38.02
715.887	38.17
716.29	38.28
716.693	38.41
717.096	38.54
717.499	38.68
717.901	38.81
718.304	38.94
718.707	39.06
719.109	39.18
719.512	39.3
719.915	39.42
720.317	39.54
720.719	39.63
721.122	39.72
721.524	39.82
721.926	39.92
722.328	40.02
722.731	40.09
723.133	40.18
723.535	40.26
723.937	40.32
724.338	40.4
724.74	40.47
725.142	40.62
725.544	40.7
725.945	40.81
726.347	40.84
726.748	40.9
727.15	40.96
727.551	41.02
727.952	41.07
728.354	41.14
728.755	41.17
729.156	41.21
729.557	41.18
729.958	41.22
730.359	41.22
730.76	41.3
731.161	41.34
731.562	41.4
731.962	41.41
732.363	41.46
732.763	41.49
733.164	41.54
733.564	41.56
733.965	41.59
734.365	41.65
734.766	41.69
735.166	41.7
735.566	41.72
735.966	41.76
736.366	41.8
736.766	41.8
737.166	41.85
737.566	41.88
737.966	41.9
738.365	41.95
738.765	41.98
739.165	42.01
739.564	42.04
739.964	42.07
740.363	42.06
740.763	42.09
741.162	42.12
741.561	42.11
741.96	42.1
742.36	42.12
742.759	42.13
743.158	42.1
743.557	42.08
743.955	42.09
744.354	42.1
744.753	42.11
745.152	42.14
745.55	42.16
745.949	42.18
746.348	42.21
746.746	42.21
747.144	42.22
747.543	42.24
747.941	42.25
748.339	42.26
748.737	42.27
749.136	42.26
749.534	42.23
749.932	42.21
750.33	42.2
750.727	42.19
751.125	42.2
751.523	42.19
751.921	42.2
752.318	42.22
752.716	42.21
753.113	42.2
753.511	42.22
753.908	42.25
754.305	42.25
754.703	42.27
755.1	42.29
755.497	42.28
755.894	42.28
756.291	42.28
756.688	42.27
757.085	42.29
757.482	42.26
757.878	42.26
758.275	42.26
758.672	42.25
759.068	42.26
759.465	42.28
759.861	42.28
760.258	42.28
760.654	42.28
761.05	42.28
761.447	42.29
761.843	42.32
762.239	42.32
762.635	42.28
763.031	42.29
763.427	42.26
763.822	42.23
764.218	42.27
764.614	42.29
765.01	42.29
765.405	42.29
765.801	42.26
766.196	42.26
766.592	42.27
766.987	42.3
767.382	42.3
767.778	42.3
768.173	42.31
768.568	42.3
768.963	42.29
769.358	42.29
769.753	42.31
770.148	42.31
770.542	42.31
770.937	42.31
771.332	42.3
771.726	42.31
772.121	42.31
772.515	42.32
772.91	42.3
773.304	42.32
773.699	42.32
774.093	42.32
774.487	42.33
774.881	42.36
775.275	42.34
775.669	42.33
776.063	42.36
776.457	42.37
776.851	42.37
777.245	42.34
777.638	42.33
778.032	42.35
778.425	42.37
778.819	42.36
779.212	42.36
779.606	42.38
779.999	42.39
