Data from C_2_DIV_WI_4N_Splice17_13-21-37-369.txt Node
Date: Sat Mar 07 13:21:37 EST 2020
User: sa697716
Spectrometer: NQ5500242
Trigger mode: 0
Integration Time (sec): 1.450000E-1
Scans to average: 20
Nonlinearity correction enabled: false
Boxcar width: 5
Storing dark spectrum: false
XAxis mode: Wavelengths
Number of Pixels in Spectrum: 512
>>>>>Begin Spectral Data<<<<<
187.83	92.98
188.298	122.62
188.766	96.4
189.233	74.62
189.701	85.18
190.169	107.51
190.636	118.94
191.104	173.81
191.571	-18.17
192.039	-5.46
192.506	-587.2
192.974	192.73
193.441	384.39
193.908	112.57
194.375	28.63
194.842	-3.51
195.31	68.79
195.777	200.55
196.244	58.87
196.711	45.99
197.177	49.09
197.644	47.93
198.111	46.86
198.578	47.22
199.045	47.7
199.511	47.94
199.978	48.26
200.445	48.34
200.911	48.51
201.378	48.51
201.844	48.81
202.31	48.32
202.777	48.4
203.243	48.43
203.709	48.16
204.176	47.73
204.642	47.22
205.108	46.85
205.574	46.37
206.04	45.48
206.506	44.87
206.972	44.34
207.438	43.7
207.903	42.91
208.369	41.84
208.835	40.97
209.301	40.24
209.766	39.15
210.232	37.91
210.697	36.92
211.163	36.1
211.628	35.23
212.094	34.26
212.559	33.73
213.024	33.06
213.49	32.59
213.955	31.72
214.42	30.87
214.885	30.12
215.35	29.09
215.815	27.63
216.28	25.8
216.745	23.68
217.21	21.73
217.675	19.8
218.14	18.18
218.604	16.68
219.069	15.53
219.534	14.55
219.998	13.69
220.463	13.03
220.927	12.39
221.392	11.93
221.856	11.57
222.32	11.21
222.785	10.94
223.249	10.65
223.713	10.44
224.177	10.22
224.642	10.01
225.106	9.79
225.57	9.59
226.034	9.41
226.497	9.23
226.961	9.05
227.425	8.88
227.889	8.73
228.353	8.57
228.816	8.42
229.28	8.28
229.744	8.15
230.207	8.03
230.671	7.9
231.134	7.79
231.597	7.68
232.061	7.57
232.524	7.47
232.987	7.35
233.45	7.27
233.914	7.18
234.377	7.08
234.84	7
235.303	6.93
235.766	6.86
236.229	6.79
236.691	6.7
237.154	6.64
237.617	6.57
238.08	6.51
238.542	6.44
239.005	6.37
239.468	6.31
239.93	6.26
240.393	6.2
240.855	6.13
241.317	6.06
241.78	6.01
242.242	5.93
242.704	5.88
243.166	5.82
243.629	5.78
244.091	5.71
244.553	5.65
245.015	5.58
245.477	5.52
245.939	5.46
246.4	5.41
246.862	5.36
247.324	5.31
247.786	5.25
248.247	5.21
248.709	5.15
249.17	5.09
249.632	5.06
250.093	5.02
250.555	4.98
251.016	4.95
251.477	4.9
251.939	4.86
252.4	4.82
252.861	4.79
253.322	4.76
253.783	4.73
254.244	4.7
254.705	4.66
255.166	4.63
255.627	4.58
256.088	4.56
256.549	4.52
257.009	4.48
257.47	4.44
257.931	4.4
258.391	4.35
258.852	4.31
259.312	4.28
259.773	4.24
260.233	4.22
260.694	4.18
261.154	4.15
261.614	4.13
262.074	4.09
262.534	4.06
262.994	4.04
263.455	4.01
263.915	3.99
264.374	3.96
264.834	3.95
265.294	3.92
265.754	3.91
266.214	3.89
266.673	3.86
267.133	3.85
267.593	3.84
268.052	3.83
268.512	3.82
268.971	3.81
269.431	3.8
269.89	3.78
270.349	3.77
270.809	3.76
271.268	3.75
271.727	3.74
272.186	3.72
272.645	3.71
273.104	3.7
273.563	3.68
274.022	3.67
274.481	3.66
274.94	3.65
275.399	3.64
275.857	3.63
276.316	3.62
276.775	3.62
277.233	3.61
277.692	3.61
278.15	3.6
278.609	3.6
279.067	3.59
279.525	3.58
279.984	3.57
280.442	3.57
280.9	3.57
281.358	3.56
281.816	3.56
282.274	3.56
282.732	3.55
283.19	3.54
283.648	3.53
284.106	3.52
284.564	3.51
285.021	3.51
285.479	3.5
285.937	3.48
286.394	3.47
286.852	3.46
287.309	3.45
287.767	3.43
288.224	3.42
288.682	3.41
289.139	3.39
289.596	3.38
290.053	3.36
290.511	3.34
290.968	3.32
291.425	3.3
291.882	3.29
292.339	3.27
292.796	3.26
293.252	3.24
293.709	3.23
294.166	3.23
294.623	3.21
295.079	3.21
295.536	3.2
295.992	3.2
296.449	3.19
296.905	3.19
297.362	3.18
297.818	3.17
298.274	3.17
298.731	3.16
299.187	3.14
299.643	3.13
300.099	3.13
300.555	3.12
301.011	3.11
301.467	3.11
301.923	3.09
302.379	3.09
302.835	3.1
303.291	3.09
303.746	3.09
304.202	3.09
304.658	3.09
305.113	3.09
305.569	3.08
306.024	3.09
306.479	3.08
306.935	3.08
307.39	3.08
307.845	3.07
308.301	3.08
308.756	3.08
309.211	3.07
309.666	3.07
310.121	3.08
310.576	3.08
311.031	3.08
311.486	3.08
311.94	3.09
312.395	3.08
312.85	3.08
313.305	3.08
313.759	3.08
314.214	3.08
314.668	3.07
315.123	3.06
315.577	3.06
316.032	3.05
316.486	3.04
316.94	3.05
317.394	3.04
317.849	3.03
318.303	3.02
318.757	3.01
319.211	3
319.665	2.99
320.119	2.98
320.572	2.97
321.026	2.95
321.48	2.94
321.934	2.92
322.387	2.91
322.841	2.91
323.295	2.91
323.748	2.91
324.202	2.91
324.655	2.91
325.108	2.91
325.562	2.92
326.015	2.92
326.468	2.93
326.921	2.93
327.374	2.94
327.827	2.94
328.28	2.94
328.733	2.94
329.186	2.92
329.639	2.93
330.092	2.92
330.545	2.92
330.997	2.92
331.45	2.92
331.903	2.93
332.355	2.94
332.808	2.93
333.26	2.93
333.713	2.93
334.165	2.93
334.617	2.93
335.069	2.94
335.522	2.94
335.974	2.94
336.426	2.93
336.878	2.93
337.33	2.93
337.782	2.93
338.234	2.94
338.686	2.94
339.137	2.95
339.589	2.94
340.041	2.94
340.493	2.93
340.944	2.92
341.396	2.91
341.847	2.9
342.299	2.88
342.75	2.87
343.201	2.85
343.653	2.83
344.104	2.82
344.555	2.81
345.006	2.8
345.457	2.79
345.908	2.78
346.359	2.79
346.81	2.79
347.261	2.78
347.712	2.77
348.163	2.77
348.613	2.79
349.064	2.79
349.515	2.79
349.965	2.79
350.416	2.79
350.866	2.79
351.317	2.78
351.767	2.78
352.217	2.78
352.668	2.79
353.118	2.79
353.568	2.78
354.018	2.78
354.468	2.79
354.918	2.79
355.368	2.79
355.818	2.8
356.268	2.8
356.718	2.81
357.168	2.81
357.617	2.8
358.067	2.8
358.517	2.81
358.966	2.82
359.416	2.82
359.865	2.81
360.315	2.82
360.764	2.82
361.213	2.82
361.663	2.82
362.112	2.82
362.561	2.83
363.01	2.83
363.459	2.81
363.908	2.81
364.357	2.82
364.806	2.82
365.255	2.81
365.703	2.82
366.152	2.82
366.601	2.84
367.05	2.85
367.498	2.85
367.947	2.86
368.395	2.87
368.844	2.88
369.292	2.87
369.74	2.89
370.189	2.9
370.637	2.9
371.085	2.9
371.533	2.91
371.981	2.91
372.429	2.93
372.877	2.94
373.325	2.95
373.773	2.94
374.221	2.95
374.669	2.95
375.116	2.96
375.564	2.97
376.012	2.99
376.459	2.99
376.907	3.01
377.354	3.03
377.801	3.05
378.249	3.07
378.696	3.1
379.143	3.13
379.591	3.14
380.038	3.17
380.485	3.19
380.932	3.21
381.379	3.23
381.826	3.24
382.273	3.25
382.72	3.25
383.166	3.27
383.613	3.28
384.06	3.29
384.506	3.31
384.953	3.33
385.4	3.35
385.846	3.38
386.292	3.4
386.739	3.42
387.185	3.45
387.631	3.49
388.078	3.51
388.524	3.54
388.97	3.57
389.416	3.6
389.862	3.64
390.308	3.66
390.754	3.7
391.2	3.72
391.645	3.75
392.091	3.79
392.537	3.83
392.983	3.86
393.428	3.9
393.874	3.92
394.319	3.96
394.765	3.98
395.21	4
395.655	4.02
396.101	4.06
396.546	4.09
396.991	4.12
397.436	4.15
397.881	4.19
398.326	4.22
398.771	4.26
399.216	4.28
399.661	4.31
400.106	4.34
400.551	4.36
400.995	4.37
401.44	4.39
401.885	4.4
402.329	4.41
402.774	4.43
403.218	4.47
403.663	4.48
404.107	4.5
404.551	4.52
404.995	4.53
405.44	4.54
405.884	4.57
406.328	4.59
406.772	4.59
407.216	4.61
407.66	4.61
408.104	4.6
408.547	4.61
408.991	4.63
409.435	4.64
409.879	4.66
410.322	4.69
410.766	4.72
411.209	4.74
411.653	4.76
412.096	4.78
412.54	4.8
412.983	4.82
413.426	4.87
413.869	4.88
414.312	4.91
414.756	4.93
415.199	4.94
415.642	4.94
416.085	4.96
416.527	4.95
416.97	4.95
417.413	4.96
417.856	4.96
418.298	4.95
418.741	4.95
419.184	4.95
419.626	4.94
420.069	4.96
420.511	4.96
420.953	4.96
421.396	4.98
421.838	5
422.28	5
422.722	5.02
423.164	5.01
423.606	5.01
424.048	5.02
424.49	5.02
424.932	4.99
425.374	4.97
425.816	4.94
426.258	4.92
426.699	4.9
427.141	4.89
427.582	4.88
428.024	4.9
428.465	4.91
428.907	4.9
429.348	4.89
429.789	4.89
430.231	4.93
430.672	4.94
431.113	4.97
431.554	4.98
431.995	4.99
432.436	4.99
432.877	5
433.318	5.02
433.759	5.05
434.2	5.08
434.64	5.1
435.081	5.1
435.522	5.13
435.962	5.16
436.403	5.19
436.843	5.2
437.284	5.21
437.724	5.21
438.164	5.2
438.604	5.22
439.045	5.22
439.485	5.23
439.925	5.24
440.365	5.25
440.805	5.26
441.245	5.27
441.685	5.3
442.125	5.35
442.564	5.37
443.004	5.39
443.444	5.4
443.883	5.42
444.323	5.44
444.762	5.47
445.202	5.49
445.641	5.54
446.081	5.56
446.52	5.56
446.959	5.6
447.398	5.65
447.837	5.68
448.276	5.71
448.716	5.75
449.154	5.8
449.593	5.82
450.032	5.84
450.471	5.84
450.91	5.85
451.349	5.88
451.787	5.87
452.226	5.86
452.664	5.86
453.103	5.86
453.541	5.86
453.98	5.86
454.418	5.86
454.856	5.84
455.295	5.84
455.733	5.82
456.171	5.82
456.609	5.83
457.047	5.81
457.485	5.82
457.923	5.82
458.361	5.82
458.798	5.82
459.236	5.81
459.674	5.81
460.111	5.81
460.549	5.83
460.987	5.84
461.424	5.83
461.862	5.85
462.299	5.86
462.736	5.86
463.173	5.86
463.611	5.86
464.048	5.86
464.485	5.87
464.922	5.87
465.359	5.87
465.796	5.88
466.233	5.88
466.67	5.89
467.106	5.9
467.543	5.9
467.98	5.89
468.416	5.89
468.853	5.9
469.29	5.89
469.726	5.9
470.162	5.89
470.599	5.87
471.035	5.85
471.471	5.85
471.907	5.84
472.344	5.84
472.78	5.86
473.216	5.85
473.652	5.85
474.088	5.83
474.523	5.82
474.959	5.83
475.395	5.81
475.831	5.82
476.266	5.83
476.702	5.82
477.138	5.83
477.573	5.82
478.008	5.82
478.444	5.81
478.879	5.82
479.314	5.82
479.75	5.82
480.185	5.82
480.62	5.8
481.055	5.79
481.49	5.78
481.925	5.78
482.36	5.78
482.795	5.77
483.229	5.77
483.664	5.78
484.099	5.79
484.534	5.78
484.968	5.8
485.403	5.82
485.837	5.84
486.271	5.86
486.706	5.88
487.14	5.9
487.574	5.93
488.009	5.96
488.443	5.99
488.877	6.03
489.311	6.07
489.745	6.11
490.179	6.16
490.613	6.2
491.046	6.24
491.48	6.29
491.914	6.35
492.348	6.42
492.781	6.48
493.215	6.55
493.648	6.61
494.082	6.68
494.515	6.75
494.948	6.83
495.382	6.91
495.815	7
496.248	7.09
496.681	7.18
497.114	7.26
497.547	7.36
497.98	7.46
498.413	7.57
498.846	7.68
499.279	7.79
499.711	7.91
500.144	8.04
500.577	8.17
501.009	8.29
501.442	8.43
501.874	8.58
502.306	8.73
502.739	8.9
503.171	9.06
503.603	9.23
504.036	9.41
504.468	9.58
504.9	9.76
505.332	9.96
505.764	10.16
506.196	10.37
506.627	10.58
507.059	10.78
507.491	10.99
507.923	11.21
508.354	11.44
508.786	11.68
509.217	11.93
509.649	12.16
510.08	12.4
510.512	12.65
510.943	12.9
511.374	13.16
511.805	13.44
512.237	13.7
512.668	13.98
513.099	14.24
513.53	14.52
513.961	14.8
514.391	15.08
514.822	15.38
515.253	15.67
515.684	15.96
516.114	16.24
516.545	16.52
516.975	16.81
517.406	17.11
517.836	17.39
518.267	17.69
518.697	17.96
519.127	18.24
519.558	18.53
519.988	18.8
520.418	19.06
520.848	19.33
521.278	19.6
521.708	19.94
522.138	20.19
522.567	20.45
522.997	20.71
523.427	20.94
523.857	21.18
524.286	21.39
524.716	21.61
525.145	21.83
525.575	22.04
526.004	22.25
526.433	22.37
526.863	22.56
527.292	22.73
527.721	22.89
528.15	23.06
528.579	23.22
529.008	23.38
529.437	23.52
529.866	23.64
530.295	23.76
530.724	23.9
531.152	24.01
531.581	24.13
532.01	24.24
532.438	24.35
532.867	24.45
533.295	24.54
533.723	24.61
534.152	24.69
534.58	24.78
535.008	24.85
535.436	24.92
535.865	24.99
536.293	25.03
536.721	25.08
537.149	25.14
537.576	25.19
538.004	25.24
538.432	25.3
538.86	25.33
539.287	25.36
539.715	25.4
540.143	25.41
540.57	25.44
540.998	25.49
541.425	25.52
541.852	25.54
542.28	25.56
542.707	25.56
543.134	25.58
543.561	25.62
543.988	25.65
544.415	25.67
544.842	25.7
545.269	25.72
545.696	25.75
546.123	25.76
546.549	25.8
546.976	25.83
547.403	25.86
547.829	25.87
548.256	25.88
548.682	25.89
549.108	25.93
549.535	25.95
549.961	25.95
550.387	25.95
550.813	25.96
551.24	25.95
551.666	25.94
552.092	25.96
552.518	25.95
552.943	25.95
553.369	25.94
553.795	25.91
554.221	25.85
554.646	25.81
555.072	25.78
555.498	25.72
555.923	25.65
556.349	25.61
556.774	25.55
557.199	25.48
557.625	25.41
558.05	25.34
558.475	25.29
558.9	25.22
559.325	25.16
559.75	25.09
560.175	25.04
560.6	24.96
561.025	24.86
561.449	24.77
561.874	24.68
562.299	24.59
562.723	24.48
563.148	24.35
563.572	24.22
563.997	24.1
564.421	23.97
564.846	23.83
565.27	23.71
565.694	23.59
566.118	23.45
566.542	23.31
566.966	23.17
567.39	23.03
567.814	22.9
568.238	22.76
568.662	22.62
569.086	22.49
569.509	22.35
569.933	22.23
570.357	22.08
570.78	21.95
571.204	21.82
571.627	21.7
572.05	21.56
572.474	21.46
572.897	21.36
573.32	21.23
573.743	21.1
574.166	20.99
574.589	20.87
575.012	20.75
575.435	20.64
575.858	20.52
576.281	20.41
576.704	20.32
577.126	20.2
577.549	20.1
577.972	20
578.394	19.91
578.817	19.83
579.239	19.76
579.661	19.68
580.084	19.61
580.506	19.54
580.928	19.46
581.35	19.38
581.772	19.31
582.194	19.24
582.616	19.18
583.038	19.11
583.46	19.02
583.882	18.94
584.303	18.87
584.725	18.79
585.147	18.74
585.568	18.67
585.99	18.61
586.411	18.55
586.833	18.48
587.254	18.42
587.675	18.36
588.096	18.3
588.518	18.25
588.939	18.23
589.36	18.16
589.781	18.09
590.202	18.05
590.623	18
591.043	17.95
591.464	17.92
591.885	17.86
592.305	17.82
592.726	17.79
593.147	17.75
593.567	17.7
593.987	17.68
594.408	17.64
594.828	17.59
595.248	17.55
595.669	17.52
596.089	17.48
596.509	17.45
596.929	17.41
597.349	17.37
597.769	17.33
598.189	17.29
598.608	17.26
599.028	17.23
599.448	17.19
599.867	17.15
600.287	17.11
600.706	17.08
601.126	17.04
601.545	17.01
601.965	16.98
602.384	16.92
602.803	16.87
603.222	16.81
603.641	16.76
604.061	16.71
604.48	16.64
604.898	16.58
605.317	16.51
605.736	16.45
606.155	16.38
606.574	16.31
606.992	16.25
607.411	16.18
607.829	16.09
608.248	16.02
608.666	15.94
609.085	15.88
609.503	15.82
609.921	15.75
610.339	15.67
610.758	15.6
611.176	15.51
611.594	15.44
612.012	15.36
612.43	15.31
612.847	15.23
613.265	15.16
613.683	15.08
614.101	15
614.518	14.92
614.936	14.85
615.353	14.77
615.771	14.71
616.188	14.63
616.606	14.58
617.023	14.52
617.44	14.47
617.857	14.41
618.274	14.35
618.691	14.31
619.108	14.26
619.525	14.21
619.942	14.17
620.359	14.12
620.776	14.09
621.192	14.05
621.609	14.01
622.026	13.98
622.442	13.96
622.859	13.94
623.275	13.91
623.691	13.89
624.108	13.87
624.524	13.85
624.94	13.84
625.356	13.82
625.772	13.8
626.188	13.8
626.604	13.79
627.02	13.78
627.436	13.76
627.852	13.75
628.268	13.74
628.683	13.72
629.099	13.71
629.514	13.69
629.93	13.68
630.345	13.66
630.761	13.61
631.176	13.58
631.591	13.54
632.007	13.5
632.422	13.45
632.837	13.4
633.252	13.34
633.667	13.26
634.082	13.2
634.497	13.13
634.911	13.04
635.326	12.97
635.741	12.87
636.155	12.76
636.57	12.67
636.984	12.56
637.399	12.44
637.813	12.33
638.228	12.21
638.642	12.08
639.056	11.94
639.47	11.82
639.884	11.69
640.298	11.56
640.712	11.43
641.126	11.29
641.54	11.15
641.954	11.02
642.368	10.89
642.781	10.77
643.195	10.65
643.609	10.53
644.022	10.4
644.436	10.28
644.849	10.16
645.262	10.05
645.676	9.95
646.089	9.85
646.502	9.76
646.915	9.68
647.328	9.6
647.741	9.52
648.154	9.45
648.567	9.4
648.98	9.34
649.393	9.29
649.805	9.24
650.218	9.2
650.631	9.16
651.043	9.12
651.456	9.07
651.868	9.03
652.28	8.98
652.693	8.94
653.105	8.88
653.517	8.83
653.929	8.76
654.341	8.71
654.753	8.63
655.165	8.55
655.577	8.48
655.989	8.41
656.401	8.32
656.813	8.24
657.224	8.14
657.636	8.05
658.047	7.96
658.459	7.86
658.87	7.76
659.282	7.66
659.693	7.56
660.104	7.45
660.515	7.35
660.926	7.26
661.338	7.16
661.749	7.07
662.159	6.97
662.57	6.89
662.981	6.81
663.392	6.72
663.803	6.65
664.213	6.56
664.624	6.5
665.035	6.43
665.445	6.37
665.855	6.3
666.266	6.25
666.676	6.21
667.086	6.15
667.497	6.1
667.907	6.07
668.317	6.03
668.727	6
669.137	5.98
669.547	5.95
669.956	5.93
670.366	5.91
670.776	5.89
671.186	5.87
671.595	5.86
672.005	5.86
672.414	5.87
672.824	5.87
673.233	5.87
673.642	5.88
674.052	5.89
674.461	5.89
674.87	5.92
675.279	5.94
675.688	5.97
676.097	6
676.506	6.04
676.915	6.07
677.323	6.11
677.732	6.15
678.141	6.2
678.549	6.25
678.958	6.31
679.366	6.39
679.775	6.45
680.183	6.54
680.592	6.64
681	6.75
681.408	6.87
681.816	7
682.224	7.16
682.632	7.32
683.04	7.5
683.448	7.69
683.856	7.88
684.264	8.11
684.671	8.35
685.079	8.61
685.487	8.91
685.894	9.22
686.302	9.56
686.709	9.91
687.116	10.3
687.524	10.71
687.931	11.13
688.338	11.6
688.745	12.07
689.152	12.56
689.559	13.06
689.966	13.58
690.373	14.11
690.78	14.66
691.187	15.2
691.593	15.76
692	16.33
692.407	16.89
692.813	17.46
693.22	18.03
693.626	18.59
694.032	19.17
694.439	19.73
694.845	20.3
695.251	20.84
695.657	21.39
696.063	21.93
696.469	22.47
696.875	23.01
697.281	23.53
697.687	24.05
698.093	24.58
698.498	25.09
698.904	25.6
699.31	26.07
699.715	26.56
700.12	27.03
700.526	27.5
700.931	27.95
701.337	28.38
701.742	28.79
702.147	29.21
702.552	29.61
702.957	29.98
703.362	30.35
703.767	30.71
704.172	31.06
704.577	31.41
704.981	31.75
705.386	32.08
705.791	32.41
706.195	32.76
706.6	33.1
707.004	33.39
707.408	33.71
707.813	34.02
708.217	34.33
708.621	34.63
709.025	34.91
709.43	35.18
709.834	35.48
710.237	35.75
710.641	36.01
711.045	36.26
711.449	36.52
711.853	36.77
712.256	37.02
712.66	37.26
713.064	37.47
713.467	37.7
713.87	37.93
714.274	38.14
714.677	38.35
715.08	38.53
715.484	38.75
715.887	38.97
716.29	39.16
716.693	39.35
717.096	39.54
717.499	39.73
717.901	39.92
718.304	40.11
718.707	40.28
719.109	40.47
719.512	40.64
719.915	40.79
720.317	40.92
720.719	41.04
721.122	41.19
721.524	41.35
721.926	41.49
722.328	41.65
722.731	41.75
723.133	41.89
723.535	41.99
723.937	42.13
724.338	42.24
724.74	42.37
725.142	42.59
725.544	42.69
725.945	42.8
726.347	42.88
726.748	42.96
727.15	43.05
727.551	43.14
727.952	43.23
728.354	43.31
728.755	43.38
729.156	43.44
729.557	43.43
729.958	43.47
730.359	43.51
730.76	43.59
731.161	43.63
731.562	43.71
731.962	43.75
732.363	43.82
732.763	43.86
733.164	43.91
733.564	43.99
733.965	44.03
734.365	44.12
734.766	44.17
735.166	44.23
735.566	44.28
735.966	44.34
736.366	44.38
736.766	44.41
737.166	44.47
737.566	44.49
737.966	44.5
738.365	44.55
738.765	44.56
739.165	44.58
739.564	44.61
739.964	44.66
740.363	44.64
740.763	44.66
741.162	44.68
741.561	44.69
741.96	44.68
742.36	44.71
742.759	44.74
743.158	44.77
743.557	44.78
743.955	44.79
744.354	44.81
744.753	44.86
745.152	44.9
745.55	44.91
745.949	44.92
746.348	44.97
746.746	44.99
747.144	45
747.543	44.99
747.941	45
748.339	45.01
748.737	44.99
749.136	44.99
749.534	44.98
749.932	44.99
750.33	44.99
750.727	45
751.125	44.99
751.523	44.96
751.921	44.96
752.318	44.95
752.716	44.95
753.113	44.97
753.511	44.98
753.908	45
754.305	45
754.703	45.02
755.1	45.03
755.497	45.04
755.894	45.06
756.291	45.08
756.688	45.07
757.085	45.07
757.482	45.06
757.878	45.08
758.275	45.07
758.672	45.07
759.068	45.08
759.465	45.07
759.861	45.08
760.258	45.09
760.654	45.09
761.05	45.12
761.447	45.13
761.843	45.13
762.239	45.13
762.635	45.12
763.031	45.12
763.427	45.1
763.822	45.1
764.218	45.11
764.614	45.13
765.01	45.11
765.405	45.1
765.801	45.08
766.196	45.09
766.592	45.07
766.987	45.07
767.382	45.07
767.778	45.07
768.173	45.08
768.568	45.04
768.963	45.02
769.358	45.04
769.753	45.06
770.148	45.09
770.542	45.08
770.937	45.1
771.332	45.1
771.726	45.1
772.121	45.11
772.515	45.1
772.91	45.14
773.304	45.16
773.699	45.14
774.093	45.11
774.487	45.09
774.881	45.1
775.275	45.09
775.669	45.1
776.063	45.08
776.457	45.09
776.851	45.08
777.245	45.05
777.638	45.04
778.032	45.07
778.425	45.11
778.819	45.1
779.212	45.08
779.606	45.07
779.999	45.04
780.392	45.09
780.786	45.07
781.179	45.08
781.572	45.12
781.965	45.13
782.358	45.12
