Data from C_2_HIR_WI_4N_Splice17_13-35-59-966.txt Node
Date: Sat Mar 07 13:35:59 EST 2020
User: sa697716
Spectrometer: NQ5500242
Trigger mode: 0
Integration Time (sec): 1.450000E-1
Scans to average: 20
Nonlinearity correction enabled: false
Boxcar width: 5
Storing dark spectrum: false
XAxis mode: Wavelengths
Number of Pixels in Spectrum: 512
>>>>>Begin Spectral Data<<<<<
187.83	167.16
188.298	170.05
188.766	161.85
189.233	137.64
189.701	151.57
190.169	177.91
190.636	211.23
191.104	290.04
191.571	143.15
192.039	-63.08
192.506	-431.76
192.974	83.48
193.441	141.67
193.908	72.43
194.375	26.62
194.842	41.16
195.31	106.52
195.777	216.51
196.244	98.35
196.711	101.59
197.177	104.27
197.644	105.76
198.111	106.09
198.578	105.9
199.045	106.74
199.511	106.71
199.978	106.43
200.445	106.33
200.911	106.37
201.378	106.68
201.844	106.33
202.31	105.81
202.777	105.41
203.243	105.07
203.709	104.47
204.176	103.33
204.642	102.62
205.108	101.92
205.574	100.87
206.04	99.9
206.506	98.77
206.972	98.16
207.438	96.78
207.903	95.02
208.369	92.99
208.835	90.94
209.301	88.82
209.766	86.11
210.232	83.75
210.697	81.48
211.163	79.09
211.628	76.82
212.094	74.45
212.559	73.02
213.024	71.41
213.49	69.69
213.955	67.9
214.42	66.1
214.885	64.01
215.35	61.19
215.815	57.67
216.28	53.35
216.745	48.54
217.21	43.71
217.675	38.96
218.14	34.85
218.604	31.43
219.069	28.5
219.534	26.2
219.998	24.26
220.463	22.64
220.927	21.24
221.392	20.12
221.856	19.2
222.32	18.44
222.785	17.76
223.249	17.21
223.713	16.66
224.177	16.2
224.642	15.7
225.106	15.26
225.57	14.86
226.034	14.51
226.497	14.16
226.961	13.84
227.425	13.52
227.889	13.21
228.353	12.91
228.816	12.63
229.28	12.37
229.744	12.14
230.207	11.9
230.671	11.67
231.134	11.44
231.597	11.27
232.061	11.06
232.524	10.87
232.987	10.72
233.45	10.57
233.914	10.41
234.377	10.27
234.84	10.13
235.303	10.03
235.766	9.92
236.229	9.8
236.691	9.67
237.154	9.57
237.617	9.47
238.08	9.38
238.542	9.28
239.005	9.2
239.468	9.1
239.93	9
240.393	8.9
240.855	8.79
241.317	8.69
241.78	8.59
242.242	8.48
242.704	8.39
243.166	8.29
243.629	8.2
244.091	8.1
244.553	8
245.015	7.91
245.477	7.81
245.939	7.73
246.4	7.66
246.862	7.59
247.324	7.51
247.786	7.43
248.247	7.36
248.709	7.27
249.17	7.18
249.632	7.13
250.093	7.06
250.555	6.99
251.016	6.92
251.477	6.85
251.939	6.79
252.4	6.74
252.861	6.69
253.322	6.64
253.783	6.6
254.244	6.56
254.705	6.51
255.166	6.46
255.627	6.42
256.088	6.39
256.549	6.34
257.009	6.28
257.47	6.22
257.931	6.15
258.391	6.09
258.852	6.03
259.312	5.97
259.773	5.91
260.233	5.87
260.694	5.81
261.154	5.75
261.614	5.7
262.074	5.65
262.534	5.61
262.994	5.57
263.455	5.53
263.915	5.49
264.374	5.46
264.834	5.43
265.294	5.38
265.754	5.36
266.214	5.32
266.673	5.3
267.133	5.27
267.593	5.25
268.052	5.23
268.512	5.21
268.971	5.19
269.431	5.16
269.89	5.15
270.349	5.13
270.809	5.12
271.268	5.1
271.727	5.09
272.186	5.07
272.645	5.06
273.104	5.04
273.563	5.02
274.022	5.01
274.481	5
274.94	5
275.399	4.98
275.857	4.97
276.316	4.95
276.775	4.94
277.233	4.93
277.692	4.93
278.15	4.93
278.609	4.93
279.067	4.92
279.525	4.91
279.984	4.9
280.442	4.9
280.9	4.9
281.358	4.9
281.816	4.91
282.274	4.91
282.732	4.91
283.19	4.9
283.648	4.9
284.106	4.89
284.564	4.89
285.021	4.89
285.479	4.88
285.937	4.88
286.394	4.87
286.852	4.86
287.309	4.84
287.767	4.82
288.224	4.79
288.682	4.77
289.139	4.75
289.596	4.73
290.053	4.7
290.511	4.67
290.968	4.64
291.425	4.6
291.882	4.58
292.339	4.55
292.796	4.54
293.252	4.52
293.709	4.51
294.166	4.5
294.623	4.48
295.079	4.47
295.536	4.46
295.992	4.45
296.449	4.44
296.905	4.44
297.362	4.44
297.818	4.42
298.274	4.41
298.731	4.39
299.187	4.38
299.643	4.37
300.099	4.36
300.555	4.35
301.011	4.34
301.467	4.34
301.923	4.33
302.379	4.32
302.835	4.32
303.291	4.32
303.746	4.32
304.202	4.32
304.658	4.33
305.113	4.32
305.569	4.33
306.024	4.34
306.479	4.34
306.935	4.34
307.39	4.34
307.845	4.35
308.301	4.36
308.756	4.36
309.211	4.37
309.666	4.38
310.121	4.39
310.576	4.39
311.031	4.4
311.486	4.41
311.94	4.41
312.395	4.42
312.85	4.42
313.305	4.42
313.759	4.43
314.214	4.44
314.668	4.43
315.123	4.43
315.577	4.42
316.032	4.41
316.486	4.39
316.94	4.38
317.394	4.36
317.849	4.34
318.303	4.32
318.757	4.3
319.211	4.28
319.665	4.26
320.119	4.24
320.572	4.22
321.026	4.21
321.48	4.2
321.934	4.19
322.387	4.18
322.841	4.17
323.295	4.18
323.748	4.17
324.202	4.17
324.655	4.17
325.108	4.17
325.562	4.17
326.015	4.17
326.468	4.18
326.921	4.18
327.374	4.18
327.827	4.18
328.28	4.18
328.733	4.19
329.186	4.2
329.639	4.2
330.092	4.2
330.545	4.22
330.997	4.21
331.45	4.22
331.903	4.23
332.355	4.24
332.808	4.25
333.26	4.25
333.713	4.25
334.165	4.26
334.617	4.27
335.069	4.27
335.522	4.28
335.974	4.29
336.426	4.3
336.878	4.29
337.33	4.3
337.782	4.3
338.234	4.3
338.686	4.3
339.137	4.29
339.589	4.27
340.041	4.27
340.493	4.24
340.944	4.23
341.396	4.21
341.847	4.2
342.299	4.17
342.75	4.15
343.201	4.12
343.653	4.09
344.104	4.08
344.555	4.06
345.006	4.04
345.457	4.02
345.908	4.01
346.359	4
346.81	3.99
347.261	3.99
347.712	3.98
348.163	3.97
348.613	3.98
349.064	3.98
349.515	3.99
349.965	3.99
350.416	3.98
350.866	3.98
351.317	3.98
351.767	3.99
352.217	3.99
352.668	3.99
353.118	4.01
353.568	4
354.018	4.01
354.468	4.02
354.918	4.03
355.368	4.04
355.818	4.05
356.268	4.05
356.718	4.06
357.168	4.06
357.617	4.06
358.067	4.05
358.517	4.07
358.966	4.07
359.416	4.07
359.865	4.06
360.315	4.06
360.764	4.07
361.213	4.06
361.663	4.05
362.112	4.05
362.561	4.06
363.01	4.07
363.459	4.04
363.908	4.03
364.357	4.04
364.806	4.04
365.255	4.04
365.703	4.04
366.152	4.05
366.601	4.06
367.05	4.07
367.498	4.06
367.947	4.07
368.395	4.08
368.844	4.09
369.292	4.1
369.74	4.11
370.189	4.11
370.637	4.12
371.085	4.11
371.533	4.12
371.981	4.12
372.429	4.14
372.877	4.15
373.325	4.17
373.773	4.18
374.221	4.18
374.669	4.19
375.116	4.19
375.564	4.22
376.012	4.24
376.459	4.26
376.907	4.3
377.354	4.31
377.801	4.34
378.249	4.37
378.696	4.4
379.143	4.43
379.591	4.48
380.038	4.53
380.485	4.56
380.932	4.61
381.379	4.65
381.826	4.69
382.273	4.74
382.72	4.78
383.166	4.82
383.613	4.87
384.06	4.92
384.506	4.97
384.953	5.02
385.4	5.09
385.846	5.15
386.292	5.21
386.739	5.28
387.185	5.36
387.631	5.44
388.078	5.53
388.524	5.62
388.97	5.72
389.416	5.82
389.862	5.91
390.308	6.01
390.754	6.12
391.2	6.22
391.645	6.34
392.091	6.46
392.537	6.58
392.983	6.7
393.428	6.81
393.874	6.93
394.319	7.03
394.765	7.14
395.21	7.25
395.655	7.37
396.101	7.5
396.546	7.6
396.991	7.71
397.436	7.83
397.881	7.97
398.326	8.1
398.771	8.23
399.216	8.38
399.661	8.51
400.106	8.63
400.551	8.74
400.995	8.84
401.44	8.97
401.885	9.07
402.329	9.19
402.774	9.3
403.218	9.43
403.663	9.54
404.107	9.64
404.551	9.75
404.995	9.85
405.44	9.97
405.884	10.08
406.328	10.19
406.772	10.29
407.216	10.38
407.66	10.45
408.104	10.53
408.547	10.63
408.991	10.73
409.435	10.82
409.879	10.91
410.322	11.02
410.766	11.12
411.209	11.21
411.653	11.31
412.096	11.39
412.54	11.5
412.983	11.6
413.426	11.69
413.869	11.79
414.312	11.9
414.756	11.99
415.199	12.05
415.642	12.13
416.085	12.2
416.527	12.25
416.97	12.29
417.413	12.33
417.856	12.37
418.298	12.4
418.741	12.44
419.184	12.47
419.626	12.51
420.069	12.56
420.511	12.59
420.953	12.64
421.396	12.71
421.838	12.76
422.28	12.82
422.722	12.86
423.164	12.9
423.606	12.93
424.048	12.95
424.49	12.97
424.932	12.96
425.374	12.94
425.816	12.92
426.258	12.9
426.699	12.89
427.141	12.89
427.582	12.92
428.024	12.94
428.465	12.96
428.907	12.96
429.348	12.95
429.789	12.99
430.231	13.06
430.672	13.11
431.113	13.16
431.554	13.22
431.995	13.26
432.436	13.3
432.877	13.35
433.318	13.39
433.759	13.46
434.2	13.54
434.64	13.6
435.081	13.63
435.522	13.68
435.962	13.74
436.403	13.82
436.843	13.88
437.284	13.93
437.724	13.97
438.164	14.03
438.604	14.07
439.045	14.13
439.485	14.19
439.925	14.27
440.365	14.36
440.805	14.43
441.245	14.52
441.685	14.63
442.125	14.75
442.564	14.88
443.004	14.98
443.444	15.12
443.883	15.27
444.323	15.4
444.762	15.56
445.202	15.68
445.641	15.84
446.081	15.98
446.52	16.1
446.959	16.25
447.398	16.39
447.837	16.53
448.276	16.62
448.716	16.74
449.154	16.86
449.593	16.95
450.032	17.05
450.471	17.1
450.91	17.15
451.349	17.23
451.787	17.26
452.226	17.3
452.664	17.33
453.103	17.37
453.541	17.4
453.98	17.44
454.418	17.44
454.856	17.45
455.295	17.47
455.733	17.47
456.171	17.47
456.609	17.48
457.047	17.47
457.485	17.49
457.923	17.51
458.361	17.5
458.798	17.5
459.236	17.52
459.674	17.53
460.111	17.55
460.549	17.58
460.987	17.6
461.424	17.62
461.862	17.66
462.299	17.67
462.736	17.67
463.173	17.68
463.611	17.69
464.048	17.71
464.485	17.72
464.922	17.72
465.359	17.72
465.796	17.76
466.233	17.78
466.67	17.8
467.106	17.81
467.543	17.83
467.98	17.85
468.416	17.86
468.853	17.88
469.29	17.89
469.726	17.9
470.162	17.92
470.599	17.91
471.035	17.9
471.471	17.89
471.907	17.91
472.344	17.93
472.78	17.94
473.216	17.94
473.652	17.96
474.088	17.95
474.523	17.99
474.959	17.99
475.395	17.99
475.831	18.02
476.266	18.04
476.702	18.04
477.138	18.04
477.573	18.06
478.008	18.08
478.444	18.08
478.879	18.11
479.314	18.11
479.75	18.12
480.185	18.13
480.62	18.13
481.055	18.14
481.49	18.14
481.925	18.15
482.36	18.17
482.795	18.18
483.229	18.19
483.664	18.22
484.099	18.24
484.534	18.28
484.968	18.32
485.403	18.37
485.837	18.42
486.271	18.5
486.706	18.56
487.14	18.63
487.574	18.71
488.009	18.8
488.443	18.89
488.877	18.99
489.311	19.09
489.745	19.2
490.179	19.31
490.613	19.44
491.046	19.56
491.48	19.69
491.914	19.81
492.348	19.95
492.781	20.11
493.215	20.26
493.648	20.4
494.082	20.56
494.515	20.72
494.948	20.89
495.382	21.05
495.815	21.23
496.248	21.42
496.681	21.63
497.114	21.82
497.547	22.01
497.98	22.21
498.413	22.42
498.846	22.65
499.279	22.86
499.711	23.09
500.144	23.33
500.577	23.55
501.009	23.77
501.442	24.02
501.874	24.28
502.306	24.55
502.739	24.82
503.171	25.09
503.603	25.36
504.036	25.66
504.468	25.93
504.9	26.22
505.332	26.54
505.764	26.85
506.196	27.15
506.627	27.45
507.059	27.77
507.491	28.09
507.923	28.4
508.354	28.75
508.786	29.09
509.217	29.43
509.649	29.76
510.08	30.07
510.512	30.42
510.943	30.77
511.374	31.11
511.805	31.45
512.237	31.77
512.668	32.13
513.099	32.45
513.53	32.78
513.961	33.14
514.391	33.49
514.822	33.86
515.253	34.19
515.684	34.52
516.114	34.84
516.545	35.16
516.975	35.5
517.406	35.8
517.836	36.1
518.267	36.41
518.697	36.68
519.127	36.93
519.558	37.2
519.988	37.46
520.418	37.74
520.848	37.99
521.278	38.23
521.708	38.66
522.138	38.91
522.567	39.16
522.997	39.37
523.427	39.6
523.857	39.83
524.286	40.04
524.716	40.25
525.145	40.43
525.575	40.62
526.004	40.82
526.433	40.8
526.863	40.97
527.292	41.13
527.721	41.28
528.15	41.42
528.579	41.55
529.008	41.7
529.437	41.82
529.866	41.96
530.295	42.07
530.724	42.2
531.152	42.33
531.581	42.43
532.01	42.55
532.438	42.66
532.867	42.77
533.295	42.87
533.723	42.95
534.152	43.04
534.58	43.11
535.008	43.18
535.436	43.24
535.865	43.29
536.293	43.37
536.721	43.44
537.149	43.5
537.576	43.56
538.004	43.64
538.432	43.68
538.86	43.72
539.287	43.78
539.715	43.84
540.143	43.88
540.57	43.93
540.998	43.96
541.425	43.99
541.852	44.03
542.28	44.06
542.707	44.07
543.134	44.13
543.561	44.17
543.988	44.21
544.415	44.22
544.842	44.25
545.269	44.27
545.696	44.3
546.123	44.35
546.549	44.37
546.976	44.39
547.403	44.42
547.829	44.42
548.256	44.45
548.682	44.45
549.108	44.51
549.535	44.56
549.961	44.58
550.387	44.6
550.813	44.6
551.24	44.61
551.666	44.63
552.092	44.65
552.518	44.67
552.943	44.68
553.369	44.69
553.795	44.68
554.221	44.67
554.646	44.65
555.072	44.63
555.498	44.63
555.923	44.58
556.349	44.56
556.774	44.51
557.199	44.48
557.625	44.44
558.05	44.42
558.475	44.39
558.9	44.35
559.325	44.34
559.75	44.29
560.175	44.24
560.6	44.19
561.025	44.15
561.449	44.1
561.874	44.03
562.299	43.96
562.723	43.89
563.148	43.79
563.572	43.69
563.997	43.59
564.421	43.5
564.846	43.4
565.27	43.31
565.694	43.2
566.118	43.1
566.542	43.02
566.966	42.91
567.39	42.8
567.814	42.7
568.238	42.61
568.662	42.52
569.086	42.42
569.509	42.32
569.933	42.22
570.357	42.13
570.78	42.02
571.204	41.91
571.627	41.84
572.05	41.74
572.474	41.67
572.897	41.58
573.32	41.47
573.743	41.37
574.166	41.29
574.589	41.21
575.012	41.11
575.435	41.02
575.858	40.93
576.281	40.85
576.704	40.79
577.126	40.7
577.549	40.63
577.972	40.56
578.394	40.48
578.817	40.42
579.239	40.35
579.661	40.3
580.084	40.25
580.506	40.19
580.928	40.12
581.35	40.05
581.772	39.97
582.194	39.91
582.616	39.88
583.038	39.82
583.46	39.76
583.882	39.72
584.303	39.65
584.725	39.59
585.147	39.56
585.568	39.51
585.99	39.48
586.411	39.44
586.833	39.38
587.254	39.32
587.675	39.27
588.096	39.22
588.518	39.17
588.939	39.13
589.36	39.07
589.781	39.01
590.202	38.98
590.623	38.93
591.043	38.86
591.464	38.84
591.885	38.79
592.305	38.76
592.726	38.74
593.147	38.7
593.567	38.67
593.987	38.64
594.408	38.62
594.828	38.56
595.248	38.54
595.669	38.52
596.089	38.46
596.509	38.44
596.929	38.41
597.349	38.39
597.769	38.33
598.189	38.28
598.608	38.23
599.028	38.19
599.448	38.17
599.867	38.11
600.287	38.08
600.706	38.05
601.126	38
601.545	37.96
601.965	37.91
602.384	37.89
602.803	37.85
603.222	37.8
603.641	37.75
604.061	37.69
604.48	37.62
604.898	37.56
605.317	37.51
605.736	37.44
606.155	37.38
606.574	37.29
606.992	37.2
607.411	37.13
607.829	37.04
608.248	36.95
608.666	36.86
609.085	36.79
609.503	36.7
609.921	36.61
610.339	36.53
610.758	36.44
611.176	36.36
611.594	36.28
612.012	36.2
612.43	36.13
612.847	36.04
613.265	35.96
613.683	35.88
614.101	35.81
614.518	35.72
614.936	35.62
615.353	35.53
615.771	35.45
616.188	35.38
616.606	35.32
617.023	35.25
617.44	35.2
617.857	35.14
618.274	35.1
618.691	35.04
619.108	34.99
619.525	34.95
619.942	34.9
620.359	34.86
620.776	34.8
621.192	34.77
621.609	34.73
622.026	34.69
622.442	34.66
622.859	34.62
623.275	34.58
623.691	34.56
624.108	34.55
624.524	34.54
624.94	34.53
625.356	34.53
625.772	34.49
626.188	34.49
626.604	34.48
627.02	34.46
627.436	34.43
627.852	34.44
628.268	34.43
628.683	34.41
629.099	34.41
629.514	34.38
629.93	34.36
630.345	34.34
630.761	34.29
631.176	34.26
631.591	34.21
632.007	34.17
632.422	34.11
632.837	34.05
633.252	33.98
633.667	33.9
634.082	33.82
634.497	33.74
634.911	33.65
635.326	33.56
635.741	33.46
636.155	33.36
636.57	33.24
636.984	33.11
637.399	32.98
637.813	32.84
638.228	32.67
638.642	32.53
639.056	32.35
639.47	32.19
639.884	32.02
640.298	31.84
640.712	31.66
641.126	31.5
641.54	31.31
641.954	31.1
642.368	30.9
642.781	30.74
643.195	30.56
643.609	30.38
644.022	30.19
644.436	30.03
644.849	29.85
645.262	29.67
645.676	29.5
646.089	29.35
646.502	29.21
646.915	29.09
647.328	28.95
647.741	28.81
648.154	28.69
648.567	28.56
648.98	28.43
649.393	28.33
649.805	28.25
650.218	28.15
650.631	28.06
651.043	27.96
651.456	27.84
651.868	27.73
652.28	27.63
652.693	27.54
653.105	27.45
653.517	27.33
653.929	27.21
654.341	27.06
654.753	26.9
655.165	26.76
655.577	26.61
655.989	26.45
656.401	26.29
656.813	26.11
657.224	25.9
657.636	25.68
658.047	25.46
658.459	25.25
658.87	25.04
659.282	24.8
659.693	24.57
660.104	24.32
660.515	24.06
660.926	23.8
661.338	23.53
661.749	23.27
662.159	23.02
662.57	22.78
662.981	22.52
663.392	22.26
663.803	22.03
664.213	21.77
664.624	21.55
665.035	21.33
665.445	21.12
665.855	20.92
666.266	20.74
666.676	20.55
667.086	20.35
667.497	20.2
667.907	20.05
668.317	19.91
668.727	19.78
669.137	19.64
669.547	19.52
669.956	19.42
670.366	19.32
670.776	19.23
671.186	19.14
671.595	19.07
672.005	18.98
672.414	18.92
672.824	18.85
673.233	18.8
673.642	18.77
674.052	18.75
674.461	18.74
674.87	18.72
675.279	18.72
675.688	18.74
676.097	18.77
676.506	18.81
676.915	18.86
677.323	18.93
677.732	19.01
678.141	19.11
678.549	19.2
678.958	19.35
679.366	19.52
679.775	19.7
680.183	19.93
680.592	20.2
681	20.49
681.408	20.81
681.816	21.17
682.224	21.57
682.632	22.02
683.04	22.51
683.448	23
683.856	23.54
684.264	24.13
684.671	24.71
685.079	25.32
685.487	25.96
685.894	26.65
686.302	27.34
686.709	28.05
687.116	28.77
687.524	29.49
687.931	30.23
688.338	30.99
688.745	31.73
689.152	32.45
689.559	33.22
689.966	33.97
690.373	34.71
690.78	35.43
691.187	36.12
691.593	36.8
692	37.48
692.407	38.12
692.813	38.75
693.22	39.33
693.626	39.96
694.032	40.52
694.439	41.07
694.845	41.6
695.251	42.11
695.657	42.61
696.063	43.11
696.469	43.57
696.875	44.06
697.281	44.49
697.687	44.94
698.093	45.35
698.498	45.73
698.904	46.11
699.31	46.46
699.715	46.81
700.12	47.17
700.526	47.49
700.931	47.79
701.337	48.05
701.742	48.35
702.147	48.62
702.552	48.88
702.957	49.14
703.362	49.38
703.767	49.61
704.172	49.83
704.577	50.02
704.981	50.24
705.386	50.45
705.791	50.65
706.195	50.86
706.6	51.06
707.004	51.24
707.408	51.42
707.813	51.59
708.217	51.76
708.621	51.95
709.025	52.1
709.43	52.24
709.834	52.41
710.237	52.56
710.641	52.66
711.045	52.79
711.449	52.92
711.853	53.08
712.256	53.22
712.66	53.34
713.064	53.44
713.467	53.56
713.87	53.67
714.274	53.76
714.677	53.89
715.08	54
715.484	54.1
715.887	54.22
716.29	54.3
716.693	54.41
717.096	54.53
717.499	54.64
717.901	54.74
718.304	54.85
718.707	54.96
719.109	55.05
719.512	55.14
719.915	55.22
720.317	55.28
720.719	55.31
721.122	55.37
721.524	55.43
721.926	55.5
722.328	55.54
722.731	55.6
723.133	55.65
723.535	55.72
723.937	55.76
724.338	55.8
724.74	55.86
725.142	56.06
725.544	56.09
725.945	56.17
726.347	56.19
726.748	56.25
727.15	56.29
727.551	56.34
727.952	56.33
728.354	56.39
728.755	56.43
729.156	56.46
729.557	56.37
729.958	56.39
730.359	56.39
730.76	56.42
731.161	56.45
731.562	56.48
731.962	56.46
732.363	56.49
732.763	56.51
733.164	56.51
733.564	56.52
733.965	56.52
734.365	56.59
734.766	56.6
735.166	56.63
735.566	56.64
735.966	56.67
736.366	56.7
736.766	56.71
737.166	56.75
737.566	56.78
737.966	56.79
738.365	56.83
738.765	56.81
739.165	56.82
739.564	56.84
739.964	56.86
740.363	56.85
740.763	56.86
741.162	56.88
741.561	56.85
741.96	56.84
742.36	56.85
742.759	56.84
743.158	56.87
743.557	56.86
743.955	56.86
744.354	56.85
744.753	56.88
745.152	56.91
745.55	56.93
745.949	56.96
746.348	56.99
746.746	56.99
747.144	57.02
747.543	57.02
747.941	57.01
748.339	56.99
748.737	56.99
749.136	56.95
749.534	56.91
749.932	56.89
750.33	56.85
750.727	56.85
751.125	56.85
751.523	56.81
751.921	56.8
752.318	56.82
752.716	56.83
753.113	56.82
753.511	56.84
753.908	56.87
754.305	56.9
754.703	56.91
755.1	56.91
755.497	56.91
755.894	56.92
756.291	56.92
756.688	56.92
757.085	56.93
757.482	56.95
757.878	56.97
758.275	56.95
758.672	56.96
759.068	56.99
759.465	56.99
759.861	57.01
760.258	57.01
760.654	57.02
761.05	57.03
761.447	57.04
761.843	57.04
762.239	57.02
762.635	57.02
763.031	56.99
763.427	56.97
763.822	56.98
764.218	56.98
764.614	57.02
765.01	57.01
765.405	57.01
765.801	57
766.196	57
766.592	57
766.987	57.02
767.382	57.03
767.778	57.03
768.173	57.04
768.568	57.03
768.963	56.99
769.358	57
769.753	57
770.148	57
770.542	57.01
770.937	57.02
771.332	57
771.726	57.02
772.121	57.01
772.515	57.01
