Data from C_2_DIV_OH_2N_Splice17_13-25-39-069.txt Node
Date: Sat Mar 07 13:25:39 EST 2020
User: sa697716
Spectrometer: NQ5500242
Trigger mode: 0
Integration Time (sec): 1.450000E-1
Scans to average: 20
Nonlinearity correction enabled: false
Boxcar width: 5
Storing dark spectrum: false
XAxis mode: Wavelengths
Number of Pixels in Spectrum: 512
>>>>>Begin Spectral Data<<<<<
187.83	102.16
188.298	123.97
188.766	92.74
189.233	84.21
189.701	88.04
190.169	89.39
190.636	50.32
191.104	-2.02
191.571	-314.43
192.039	-87.87
192.506	23.45
192.974	60.99
193.441	187.31
193.908	23.05
194.375	23.46
194.842	15.55
195.31	-11.26
195.777	-135.09
196.244	39.94
196.711	42.45
197.177	44.39
197.644	44.93
198.111	44.76
198.578	45.27
199.045	46.05
199.511	46.79
199.978	46.31
200.445	46.47
200.911	46.57
201.378	46.66
201.844	46.72
202.31	46.48
202.777	46.51
203.243	46.55
203.709	46.1
204.176	45.77
204.642	45.22
205.108	45.52
205.574	45.41
206.04	44.79
206.506	44.39
206.972	44.22
207.438	44.23
207.903	43.75
208.369	42.95
208.835	42.48
209.301	41.71
209.766	40.55
210.232	39.67
210.697	38.7
211.163	38.1
211.628	37.45
212.094	36.74
212.559	36.06
213.024	35.33
213.49	34.94
213.955	34.36
214.42	33.71
214.885	33.2
215.35	32.3
215.815	31.32
216.28	29.89
216.745	28.17
217.21	26.48
217.675	24.94
218.14	23.61
218.604	22.36
219.069	21.36
219.534	20.56
219.998	19.84
220.463	19.27
220.927	18.68
221.392	18.27
221.856	17.91
222.32	17.59
222.785	17.32
223.249	17.04
223.713	16.8
224.177	16.6
224.642	16.36
225.106	16.13
225.57	15.86
226.034	15.67
226.497	15.46
226.961	15.25
227.425	15.04
227.889	14.85
228.353	14.65
228.816	14.45
229.28	14.22
229.744	14.03
230.207	13.83
230.671	13.65
231.134	13.46
231.597	13.29
232.061	13.12
232.524	12.96
232.987	12.79
233.45	12.66
233.914	12.51
234.377	12.37
234.84	12.22
235.303	12.11
235.766	11.99
236.229	11.88
236.691	11.76
237.154	11.64
237.617	11.53
238.08	11.41
238.542	11.29
239.005	11.19
239.468	11.08
239.93	10.98
240.393	10.88
240.855	10.77
241.317	10.66
241.78	10.55
242.242	10.44
242.704	10.35
243.166	10.25
243.629	10.16
244.091	10.05
244.553	9.96
245.015	9.86
245.477	9.76
245.939	9.67
246.4	9.57
246.862	9.49
247.324	9.4
247.786	9.3
248.247	9.21
248.709	9.11
249.17	9.01
249.632	8.94
250.093	8.87
250.555	8.79
251.016	8.71
251.477	8.64
251.939	8.58
252.4	8.51
252.861	8.45
253.322	8.39
253.783	8.33
254.244	8.28
254.705	8.22
255.166	8.15
255.627	8.09
256.088	8.04
256.549	7.98
257.009	7.91
257.47	7.86
257.931	7.8
258.391	7.73
258.852	7.68
259.312	7.62
259.773	7.56
260.233	7.51
260.694	7.46
261.154	7.39
261.614	7.34
262.074	7.29
262.534	7.24
262.994	7.2
263.455	7.16
263.915	7.12
264.374	7.07
264.834	7.04
265.294	7
265.754	6.96
266.214	6.93
266.673	6.9
267.133	6.88
267.593	6.85
268.052	6.82
268.512	6.8
268.971	6.77
269.431	6.75
269.89	6.72
270.349	6.71
270.809	6.68
271.268	6.66
271.727	6.63
272.186	6.61
272.645	6.6
273.104	6.57
273.563	6.54
274.022	6.52
274.481	6.5
274.94	6.48
275.399	6.45
275.857	6.43
276.316	6.41
276.775	6.39
277.233	6.37
277.692	6.34
278.15	6.32
278.609	6.3
279.067	6.29
279.525	6.26
279.984	6.24
280.442	6.22
280.9	6.2
281.358	6.18
281.816	6.17
282.274	6.15
282.732	6.13
283.19	6.1
283.648	6.08
284.106	6.05
284.564	6.03
285.021	6.01
285.479	6
285.937	5.97
286.394	5.95
286.852	5.91
287.309	5.89
287.767	5.86
288.224	5.84
288.682	5.81
289.139	5.78
289.596	5.75
290.053	5.72
290.511	5.69
290.968	5.66
291.425	5.63
291.882	5.61
292.339	5.58
292.796	5.56
293.252	5.53
293.709	5.51
294.166	5.5
294.623	5.48
295.079	5.46
295.536	5.44
295.992	5.43
296.449	5.42
296.905	5.4
297.362	5.38
297.818	5.36
298.274	5.35
298.731	5.33
299.187	5.3
299.643	5.29
300.099	5.28
300.555	5.26
301.011	5.23
301.467	5.22
301.923	5.2
302.379	5.19
302.835	5.18
303.291	5.16
303.746	5.14
304.202	5.14
304.658	5.12
305.113	5.11
305.569	5.1
306.024	5.09
306.479	5.07
306.935	5.05
307.39	5.04
307.845	5.03
308.301	5.03
308.756	5.02
309.211	5.01
309.666	5
310.121	4.99
310.576	4.98
311.031	4.97
311.486	4.97
311.94	4.96
312.395	4.96
312.85	4.95
313.305	4.94
313.759	4.93
314.214	4.92
314.668	4.9
315.123	4.89
315.577	4.88
316.032	4.88
316.486	4.86
316.94	4.84
317.394	4.82
317.849	4.8
318.303	4.78
318.757	4.76
319.211	4.74
319.665	4.72
320.119	4.7
320.572	4.69
321.026	4.67
321.48	4.65
321.934	4.63
322.387	4.62
322.841	4.61
323.295	4.6
323.748	4.59
324.202	4.58
324.655	4.57
325.108	4.57
325.562	4.56
326.015	4.55
326.468	4.55
326.921	4.54
327.374	4.53
327.827	4.53
328.28	4.51
328.733	4.5
329.186	4.49
329.639	4.48
330.092	4.46
330.545	4.45
330.997	4.44
331.45	4.43
331.903	4.44
332.355	4.44
332.808	4.43
333.26	4.43
333.713	4.43
334.165	4.42
334.617	4.43
335.069	4.42
335.522	4.43
335.974	4.43
336.426	4.42
336.878	4.41
337.33	4.4
337.782	4.39
338.234	4.4
338.686	4.39
339.137	4.39
339.589	4.37
340.041	4.36
340.493	4.34
340.944	4.32
341.396	4.3
341.847	4.28
342.299	4.27
342.75	4.25
343.201	4.22
343.653	4.21
344.104	4.19
344.555	4.17
345.006	4.16
345.457	4.14
345.908	4.13
346.359	4.12
346.81	4.12
347.261	4.11
347.712	4.11
348.163	4.09
348.613	4.09
349.064	4.09
349.515	4.08
349.965	4.08
350.416	4.08
350.866	4.08
351.317	4.07
351.767	4.06
352.217	4.06
352.668	4.06
353.118	4.07
353.568	4.06
354.018	4.06
354.468	4.06
354.918	4.05
355.368	4.05
355.818	4.05
356.268	4.04
356.718	4.04
357.168	4.03
357.617	4.01
358.067	3.99
358.517	4
358.966	4.01
359.416	4.01
359.865	4.01
360.315	4
360.764	4
361.213	4
361.663	3.99
362.112	4
362.561	4
363.01	4
363.459	3.98
363.908	3.96
364.357	3.95
364.806	3.94
365.255	3.93
365.703	3.93
366.152	3.92
366.601	3.92
367.05	3.91
367.498	3.9
367.947	3.89
368.395	3.89
368.844	3.9
369.292	3.89
369.74	3.89
370.189	3.88
370.637	3.87
371.085	3.85
371.533	3.85
371.981	3.84
372.429	3.84
372.877	3.83
373.325	3.83
373.773	3.82
374.221	3.82
374.669	3.81
375.116	3.79
375.564	3.79
376.012	3.79
376.459	3.79
376.907	3.79
377.354	3.79
377.801	3.79
378.249	3.78
378.696	3.77
379.143	3.76
379.591	3.77
380.038	3.77
380.485	3.77
380.932	3.77
381.379	3.76
381.826	3.75
382.273	3.74
382.72	3.73
383.166	3.72
383.613	3.72
384.06	3.71
384.506	3.69
384.953	3.68
385.4	3.68
385.846	3.68
386.292	3.66
386.739	3.66
387.185	3.64
387.631	3.64
388.078	3.64
388.524	3.63
388.97	3.63
389.416	3.64
389.862	3.64
390.308	3.65
390.754	3.65
391.2	3.66
391.645	3.66
392.091	3.69
392.537	3.69
392.983	3.69
393.428	3.7
393.874	3.7
394.319	3.7
394.765	3.69
395.21	3.68
395.655	3.67
396.101	3.68
396.546	3.68
396.991	3.69
397.436	3.7
397.881	3.72
398.326	3.73
398.771	3.74
399.216	3.74
399.661	3.76
400.106	3.77
400.551	3.78
400.995	3.78
401.44	3.79
401.885	3.79
402.329	3.79
402.774	3.8
403.218	3.82
403.663	3.84
404.107	3.86
404.551	3.86
404.995	3.87
405.44	3.87
405.884	3.88
406.328	3.89
406.772	3.9
407.216	3.91
407.66	3.9
408.104	3.89
408.547	3.89
408.991	3.89
409.435	3.9
409.879	3.91
410.322	3.92
410.766	3.94
411.209	3.96
411.653	3.97
412.096	3.98
412.54	4
412.983	4.02
413.426	4.05
413.869	4.07
414.312	4.11
414.756	4.11
415.199	4.12
415.642	4.12
416.085	4.13
416.527	4.13
416.97	4.12
417.413	4.12
417.856	4.13
418.298	4.12
418.741	4.12
419.184	4.1
419.626	4.11
420.069	4.12
420.511	4.13
420.953	4.12
421.396	4.13
421.838	4.15
422.28	4.16
422.722	4.18
423.164	4.18
423.606	4.17
424.048	4.19
424.49	4.2
424.932	4.18
425.374	4.16
425.816	4.15
426.258	4.14
426.699	4.13
427.141	4.14
427.582	4.12
428.024	4.14
428.465	4.15
428.907	4.14
429.348	4.13
429.789	4.14
430.231	4.18
430.672	4.21
431.113	4.23
431.554	4.24
431.995	4.23
432.436	4.25
432.877	4.26
433.318	4.27
433.759	4.3
434.2	4.32
434.64	4.35
435.081	4.34
435.522	4.35
435.962	4.36
436.403	4.38
436.843	4.4
437.284	4.39
437.724	4.38
438.164	4.38
438.604	4.39
439.045	4.4
439.485	4.38
439.925	4.39
440.365	4.39
440.805	4.4
441.245	4.4
441.685	4.42
442.125	4.44
442.564	4.46
443.004	4.45
443.444	4.46
443.883	4.48
444.323	4.48
444.762	4.49
445.202	4.5
445.641	4.52
446.081	4.53
446.52	4.53
446.959	4.55
447.398	4.56
447.837	4.57
448.276	4.57
448.716	4.57
449.154	4.6
449.593	4.59
450.032	4.6
450.471	4.59
450.91	4.58
451.349	4.6
451.787	4.59
452.226	4.58
452.664	4.6
453.103	4.6
453.541	4.6
453.98	4.59
454.418	4.58
454.856	4.58
455.295	4.57
455.733	4.55
456.171	4.54
456.609	4.53
457.047	4.52
457.485	4.49
457.923	4.48
458.361	4.47
458.798	4.47
459.236	4.47
459.674	4.47
460.111	4.46
460.549	4.48
460.987	4.47
461.424	4.48
461.862	4.48
462.299	4.49
462.736	4.5
463.173	4.5
463.611	4.5
464.048	4.5
464.485	4.51
464.922	4.52
465.359	4.53
465.796	4.54
466.233	4.53
466.67	4.54
467.106	4.56
467.543	4.55
467.98	4.54
468.416	4.53
468.853	4.53
469.29	4.52
469.726	4.51
470.162	4.49
470.599	4.46
471.035	4.46
471.471	4.45
471.907	4.43
472.344	4.43
472.78	4.44
473.216	4.42
473.652	4.43
474.088	4.43
474.523	4.43
474.959	4.42
475.395	4.41
475.831	4.41
476.266	4.4
476.702	4.39
477.138	4.38
477.573	4.36
478.008	4.36
478.444	4.35
478.879	4.35
479.314	4.34
479.75	4.34
480.185	4.33
480.62	4.32
481.055	4.32
481.49	4.3
481.925	4.3
482.36	4.3
482.795	4.29
483.229	4.28
483.664	4.28
484.099	4.27
484.534	4.27
484.968	4.29
485.403	4.29
485.837	4.3
486.271	4.31
486.706	4.31
487.14	4.32
487.574	4.33
488.009	4.35
488.443	4.35
488.877	4.37
489.311	4.39
489.745	4.4
490.179	4.43
490.613	4.46
491.046	4.48
491.48	4.52
491.914	4.55
492.348	4.59
492.781	4.64
493.215	4.68
493.648	4.72
494.082	4.76
494.515	4.81
494.948	4.85
495.382	4.89
495.815	4.95
496.248	5
496.681	5.06
497.114	5.12
497.547	5.17
497.98	5.25
498.413	5.32
498.846	5.41
499.279	5.48
499.711	5.56
500.144	5.66
500.577	5.75
501.009	5.85
501.442	5.96
501.874	6.08
502.306	6.19
502.739	6.32
503.171	6.45
503.603	6.58
504.036	6.72
504.468	6.86
504.9	6.99
505.332	7.14
505.764	7.3
506.196	7.45
506.627	7.62
507.059	7.81
507.491	7.99
507.923	8.18
508.354	8.38
508.786	8.59
509.217	8.8
509.649	9.04
510.08	9.26
510.512	9.5
510.943	9.74
511.374	10
511.805	10.24
512.237	10.5
512.668	10.74
513.099	11
513.53	11.28
513.961	11.56
514.391	11.83
514.822	12.13
515.253	12.41
515.684	12.69
516.114	12.98
516.545	13.27
516.975	13.56
517.406	13.86
517.836	14.15
518.267	14.45
518.697	14.73
519.127	15.02
519.558	15.31
519.988	15.59
520.418	15.87
520.848	16.15
521.278	16.41
521.708	16.85
522.138	17.12
522.567	17.38
522.997	17.62
523.427	17.88
523.857	18.12
524.286	18.35
524.716	18.58
525.145	18.81
525.575	19.03
526.004	19.25
526.433	19.29
526.863	19.5
527.292	19.7
527.721	19.88
528.15	20.06
528.579	20.23
529.008	20.4
529.437	20.55
529.866	20.7
530.295	20.85
530.724	21
531.152	21.13
531.581	21.25
532.01	21.36
532.438	21.49
532.867	21.6
533.295	21.72
533.723	21.81
534.152	21.91
534.58	22
535.008	22.06
535.436	22.14
535.865	22.21
536.293	22.27
536.721	22.32
537.149	22.38
537.576	22.43
538.004	22.48
538.432	22.53
538.86	22.56
539.287	22.61
539.715	22.65
540.143	22.67
540.57	22.72
540.998	22.75
541.425	22.8
541.852	22.83
542.28	22.87
542.707	22.88
543.134	22.91
543.561	22.94
543.988	22.98
544.415	22.98
544.842	23.01
545.269	23.05
545.696	23.08
546.123	23.09
546.549	23.09
546.976	23.11
547.403	23.12
547.829	23.13
548.256	23.16
548.682	23.16
549.108	23.19
549.535	23.2
549.961	23.2
550.387	23.19
550.813	23.2
551.24	23.21
551.666	23.2
552.092	23.2
552.518	23.2
552.943	23.17
553.369	23.17
553.795	23.14
554.221	23.1
554.646	23.06
555.072	23.03
555.498	22.97
555.923	22.91
556.349	22.86
556.774	22.79
557.199	22.72
557.625	22.64
558.05	22.55
558.475	22.47
558.9	22.41
559.325	22.33
559.75	22.24
560.175	22.14
560.6	22.04
561.025	21.92
561.449	21.82
561.874	21.7
562.299	21.59
562.723	21.47
563.148	21.34
563.572	21.19
563.997	21.05
564.421	20.9
564.846	20.77
565.27	20.64
565.694	20.51
566.118	20.36
566.542	20.22
566.966	20.06
567.39	19.9
567.814	19.75
568.238	19.59
568.662	19.45
569.086	19.29
569.509	19.15
569.933	19
570.357	18.84
570.78	18.7
571.204	18.55
571.627	18.42
572.05	18.28
572.474	18.15
572.897	18.02
573.32	17.88
573.743	17.76
574.166	17.63
574.589	17.49
575.012	17.37
575.435	17.23
575.858	17.13
576.281	17.02
576.704	16.9
577.126	16.8
577.549	16.69
577.972	16.58
578.394	16.48
578.817	16.38
579.239	16.3
579.661	16.22
580.084	16.14
580.506	16.04
580.928	15.95
581.35	15.88
581.772	15.78
582.194	15.71
582.616	15.64
583.038	15.56
583.46	15.48
583.882	15.39
584.303	15.31
584.725	15.24
585.147	15.17
585.568	15.11
585.99	15.05
586.411	14.98
586.833	14.9
587.254	14.84
587.675	14.78
588.096	14.73
588.518	14.68
588.939	14.64
589.36	14.57
589.781	14.52
590.202	14.46
590.623	14.41
591.043	14.36
591.464	14.33
591.885	14.28
592.305	14.24
592.726	14.21
593.147	14.17
593.567	14.12
593.987	14.09
594.408	14.05
594.828	14.01
595.248	13.97
595.669	13.94
596.089	13.9
596.509	13.87
596.929	13.83
597.349	13.79
597.769	13.75
598.189	13.7
598.608	13.67
599.028	13.65
599.448	13.61
599.867	13.57
600.287	13.53
600.706	13.5
601.126	13.46
601.545	13.41
601.965	13.36
602.384	13.32
602.803	13.28
603.222	13.22
603.641	13.15
604.061	13.09
604.48	13.02
604.898	12.95
605.317	12.89
605.736	12.82
606.155	12.76
606.574	12.69
606.992	12.61
607.411	12.54
607.829	12.45
608.248	12.37
608.666	12.3
609.085	12.23
609.503	12.17
609.921	12.09
610.339	12.02
610.758	11.93
611.176	11.87
611.594	11.8
612.012	11.72
612.43	11.66
612.847	11.59
613.265	11.52
613.683	11.45
614.101	11.38
614.518	11.29
614.936	11.21
615.353	11.13
615.771	11.06
616.188	10.98
616.606	10.92
617.023	10.86
617.44	10.81
617.857	10.75
618.274	10.7
618.691	10.64
619.108	10.59
619.525	10.55
619.942	10.52
620.359	10.49
620.776	10.46
621.192	10.43
621.609	10.4
622.026	10.37
622.442	10.34
622.859	10.3
623.275	10.29
623.691	10.26
624.108	10.24
624.524	10.22
624.94	10.2
625.356	10.19
625.772	10.16
626.188	10.16
626.604	10.14
627.02	10.13
627.436	10.12
627.852	10.1
628.268	10.08
628.683	10.07
629.099	10.06
629.514	10.03
629.93	10.01
630.345	10
630.761	9.96
631.176	9.94
631.591	9.91
632.007	9.88
632.422	9.84
632.837	9.8
633.252	9.74
633.667	9.69
634.082	9.62
634.497	9.55
634.911	9.49
635.326	9.41
635.741	9.33
636.155	9.23
636.57	9.14
636.984	9.04
637.399	8.94
637.813	8.83
638.228	8.72
638.642	8.61
639.056	8.5
639.47	8.37
639.884	8.26
640.298	8.15
640.712	8.04
641.126	7.94
641.54	7.81
641.954	7.69
642.368	7.59
642.781	7.5
643.195	7.39
643.609	7.29
644.022	7.19
644.436	7.09
644.849	6.98
645.262	6.89
645.676	6.79
646.089	6.72
646.502	6.65
646.915	6.58
647.328	6.51
647.741	6.46
648.154	6.4
648.567	6.36
648.98	6.31
649.393	6.28
649.805	6.24
650.218	6.2
650.631	6.17
651.043	6.14
651.456	6.11
651.868	6.07
652.28	6.03
652.693	5.99
653.105	5.95
653.517	5.91
653.929	5.87
654.341	5.82
654.753	5.77
655.165	5.72
655.577	5.67
655.989	5.59
656.401	5.53
656.813	5.47
657.224	5.41
657.636	5.33
658.047	5.27
658.459	5.18
658.87	5.12
659.282	5.04
659.693	4.97
660.104	4.88
660.515	4.82
660.926	4.76
661.338	4.67
661.749	4.6
662.159	4.54
662.57	4.48
662.981	4.42
663.392	4.37
663.803	4.32
664.213	4.26
664.624	4.21
665.035	4.17
665.445	4.13
665.855	4.11
666.266	4.08
666.676	4.06
667.086	4.03
667.497	4
667.907	3.98
668.317	3.96
668.727	3.95
669.137	3.94
669.547	3.93
669.956	3.91
670.366	3.9
670.776	3.9
671.186	3.89
671.595	3.89
672.005	3.89
672.414	3.9
672.824	3.91
673.233	3.92
673.642	3.94
674.052	3.95
674.461	3.96
674.87	3.98
675.279	4.01
675.688	4.03
676.097	4.05
676.506	4.07
676.915	4.1
677.323	4.13
677.732	4.16
678.141	4.2
678.549	4.24
678.958	4.29
679.366	4.33
679.775	4.36
680.183	4.42
680.592	4.48
681	4.56
681.408	4.63
681.816	4.7
682.224	4.79
682.632	4.89
683.04	4.99
683.448	5.11
683.856	5.24
684.264	5.39
684.671	5.55
685.079	5.73
685.487	5.94
685.894	6.16
686.302	6.41
686.709	6.67
687.116	6.96
687.524	7.29
687.931	7.63
688.338	8
688.745	8.4
689.152	8.81
689.559	9.25
689.966	9.69
690.373	10.17
690.78	10.66
691.187	11.17
691.593	11.7
692	12.24
692.407	12.78
692.813	13.34
693.22	13.9
693.626	14.48
694.032	15.06
694.439	15.65
694.845	16.24
695.251	16.84
695.657	17.42
696.063	18
696.469	18.59
696.875	19.17
697.281	19.75
697.687	20.33
698.093	20.92
698.498	21.48
698.904	22.04
699.31	22.59
699.715	23.13
700.12	23.68
700.526	24.22
700.931	24.74
701.337	25.27
701.742	25.75
702.147	26.25
702.552	26.73
702.957	27.2
703.362	27.68
703.767	28.13
704.172	28.59
704.577	29.02
704.981	29.47
705.386	29.9
705.791	30.32
706.195	30.76
706.6	31.18
707.004	31.58
707.408	31.99
707.813	32.38
708.217	32.76
708.621	33.14
709.025	33.51
709.43	33.85
709.834	34.23
710.237	34.57
710.641	34.92
711.045	35.23
711.449	35.56
711.853	35.9
712.256	36.23
712.66	36.55
713.064	36.85
713.467	37.16
713.87	37.47
714.274	37.76
714.677	38.07
715.08	38.35
715.484	38.65
715.887	38.94
716.29	39.19
716.693	39.46
717.096	39.72
717.499	40
717.901	40.25
718.304	40.48
718.707	40.71
719.109	40.95
719.512	41.18
719.915	41.41
720.317	41.62
720.719	41.81
721.122	41.99
721.524	42.2
721.926	42.4
722.328	42.6
722.731	42.79
723.133	42.97
723.535	43.13
723.937	43.29
724.338	43.44
724.74	43.6
725.142	43.85
725.544	43.99
725.945	44.17
726.347	44.27
726.748	44.41
727.15	44.52
727.551	44.67
727.952	44.77
728.354	44.87
728.755	44.99
729.156	45.09
729.557	45.1
729.958	45.21
730.359	45.28
730.76	45.37
731.161	45.46
731.562	45.57
731.962	45.63
732.363	45.73
732.763	45.85
733.164	45.9
733.564	46
733.965	46.08
734.365	46.17
734.766	46.23
735.166	46.31
735.566	46.36
735.966	46.42
736.366	46.48
736.766	46.53
737.166	46.58
737.566	46.66
737.966	46.71
738.365	46.74
738.765	46.79
739.165	46.82
739.564	46.88
739.964	46.92
740.363	46.96
740.763	47.01
741.162	47.08
741.561	47.08
741.96	47.1
742.36	47.13
742.759	47.18
743.158	47.19
743.557	47.2
743.955	47.24
744.354	47.28
744.753	47.33
745.152	47.35
745.55	47.35
745.949	47.4
746.348	47.41
746.746	47.42
747.144	47.44
747.543	47.45
747.941	47.5
748.339	47.5
748.737	47.51
749.136	47.5
749.534	47.48
749.932	47.48
750.33	47.47
750.727	47.48
751.125	47.51
751.523	47.52
751.921	47.53
752.318	47.51
752.716	47.53
753.113	47.54
753.511	47.56
753.908	47.59
754.305	47.6
754.703	47.6
755.1	47.61
755.497	47.6
755.894	47.6
756.291	47.61
756.688	47.61
757.085	47.6
757.482	47.58
757.878	47.57
758.275	47.58
758.672	47.57
759.068	47.59
759.465	47.59
759.861	47.57
760.258	47.55
760.654	47.55
761.05	47.57
761.447	47.6
761.843	47.62
762.239	47.62
762.635	47.6
763.031	47.62
763.427	47.59
763.822	47.6
764.218	47.65
764.614	47.66
765.01	47.64
765.405	47.63
765.801	47.61
766.196	47.59
766.592	47.57
766.987	47.58
767.382	47.57
767.778	47.6
768.173	47.57
768.568	47.54
768.963	47.54
769.358	47.54
769.753	47.55
770.148	47.55
770.542	47.55
770.937	47.57
771.332	47.54
771.726	47.55
772.121	47.55
772.515	47.54
772.91	47.54
773.304	47.58
773.699	47.59
774.093	47.59
774.487	47.57
774.881	47.58
775.275	47.57
775.669	47.61
776.063	47.58
776.457	47.57
776.851	47.57
777.245	47.55
777.638	47.52
778.032	47.5
778.425	47.51
778.819	47.54
779.212	47.56
779.606	47.58
779.999	47.55
780.392	47.59
780.786	47.61
781.179	47.62
781.572	47.66
781.965	47.67
782.358	47.7
782.751	47.69
783.143	47.68
783.536	47.64
783.929	47.63
