Data from C_2_HIR_IL_4N_Splice17_13-12-55-805.txt Node
Date: Sat Mar 07 13:12:55 EST 2020
User: sa697716
Spectrometer: NQ5500242
Trigger mode: 0
Integration Time (sec): 1.450000E-1
Scans to average: 20
Nonlinearity correction enabled: false
Boxcar width: 5
Storing dark spectrum: false
XAxis mode: Wavelengths
Number of Pixels in Spectrum: 512
>>>>>Begin Spectral Data<<<<<
187.83	107.65
188.298	124.36
188.766	110.11
189.233	108.82
189.701	100.07
190.169	116.17
190.636	105.64
191.104	46.3
191.571	-205.24
192.039	-296.81
192.506	-777.78
192.974	140.53
193.441	311.08
193.908	121.9
194.375	80.86
194.842	11.58
195.31	64.79
195.777	39.81
196.244	51.78
196.711	49.36
197.177	51.79
197.644	49.61
198.111	49.72
198.578	49.63
199.045	50.01
199.511	50.57
199.978	50.5
200.445	50.39
200.911	50.33
201.378	50.07
201.844	49.99
202.31	49.64
202.777	49.95
203.243	49.89
203.709	49.45
204.176	48.97
204.642	48.51
205.108	48.37
205.574	48.06
206.04	47.69
206.506	47.31
206.972	47.17
207.438	46.27
207.903	45.64
208.369	44.6
208.835	43.95
209.301	43.44
209.766	42.31
210.232	41.2
210.697	40.18
211.163	39.32
211.628	38.49
212.094	37.49
212.559	37.14
213.024	36.52
213.49	35.92
213.955	35.19
214.42	34.38
214.885	33.65
215.35	32.81
215.815	31.44
216.28	29.67
216.745	27.73
217.21	25.98
217.675	24.26
218.14	22.83
218.604	21.59
219.069	20.55
219.534	19.66
219.998	18.89
220.463	18.25
220.927	17.66
221.392	17.24
221.856	16.85
222.32	16.5
222.785	16.2
223.249	15.91
223.713	15.63
224.177	15.41
224.642	15.17
225.106	14.95
225.57	14.7
226.034	14.52
226.497	14.32
226.961	14.13
227.425	13.94
227.889	13.75
228.353	13.55
228.816	13.36
229.28	13.17
229.744	13
230.207	12.83
230.671	12.68
231.134	12.5
231.597	12.36
232.061	12.21
232.524	12.07
232.987	11.94
233.45	11.81
233.914	11.69
234.377	11.55
234.84	11.41
235.303	11.3
235.766	11.19
236.229	11.07
236.691	10.96
237.154	10.86
237.617	10.75
238.08	10.64
238.542	10.53
239.005	10.44
239.468	10.35
239.93	10.27
240.393	10.17
240.855	10.07
241.317	9.98
241.78	9.89
242.242	9.79
242.704	9.7
243.166	9.62
243.629	9.55
244.091	9.46
244.553	9.37
245.015	9.28
245.477	9.19
245.939	9.13
246.4	9.05
246.862	8.97
247.324	8.9
247.786	8.82
248.247	8.76
248.709	8.69
249.17	8.62
249.632	8.58
250.093	8.53
250.555	8.49
251.016	8.43
251.477	8.37
251.939	8.33
252.4	8.28
252.861	8.24
253.322	8.2
253.783	8.16
254.244	8.13
254.705	8.08
255.166	8.03
255.627	7.98
256.088	7.95
256.549	7.92
257.009	7.88
257.47	7.83
257.931	7.78
258.391	7.72
258.852	7.69
259.312	7.64
259.773	7.6
260.233	7.57
260.694	7.54
261.154	7.5
261.614	7.47
262.074	7.45
262.534	7.42
262.994	7.4
263.455	7.38
263.915	7.35
264.374	7.33
264.834	7.32
265.294	7.3
265.754	7.29
266.214	7.28
266.673	7.25
267.133	7.23
267.593	7.22
268.052	7.21
268.512	7.2
268.971	7.19
269.431	7.18
269.89	7.16
270.349	7.15
270.809	7.13
271.268	7.11
271.727	7.1
272.186	7.09
272.645	7.08
273.104	7.07
273.563	7.06
274.022	7.04
274.481	7.03
274.94	7.02
275.399	7.01
275.857	7.01
276.316	7
276.775	6.98
277.233	6.97
277.692	6.96
278.15	6.95
278.609	6.94
279.067	6.93
279.525	6.92
279.984	6.91
280.442	6.89
280.9	6.88
281.358	6.87
281.816	6.86
282.274	6.85
282.732	6.83
283.19	6.82
283.648	6.8
284.106	6.79
284.564	6.77
285.021	6.76
285.479	6.75
285.937	6.74
286.394	6.73
286.852	6.72
287.309	6.71
287.767	6.69
288.224	6.67
288.682	6.66
289.139	6.64
289.596	6.62
290.053	6.6
290.511	6.58
290.968	6.56
291.425	6.53
291.882	6.53
292.339	6.5
292.796	6.49
293.252	6.48
293.709	6.47
294.166	6.46
294.623	6.46
295.079	6.45
295.536	6.44
295.992	6.44
296.449	6.44
296.905	6.43
297.362	6.43
297.818	6.42
298.274	6.42
298.731	6.41
299.187	6.39
299.643	6.38
300.099	6.38
300.555	6.37
301.011	6.36
301.467	6.36
301.923	6.34
302.379	6.33
302.835	6.34
303.291	6.32
303.746	6.32
304.202	6.32
304.658	6.32
305.113	6.31
305.569	6.31
306.024	6.3
306.479	6.29
306.935	6.29
307.39	6.29
307.845	6.28
308.301	6.28
308.756	6.27
309.211	6.27
309.666	6.27
310.121	6.27
310.576	6.27
311.031	6.27
311.486	6.27
311.94	6.27
312.395	6.27
312.85	6.27
313.305	6.27
313.759	6.27
314.214	6.26
314.668	6.25
315.123	6.24
315.577	6.23
316.032	6.21
316.486	6.2
316.94	6.19
317.394	6.18
317.849	6.16
318.303	6.16
318.757	6.14
319.211	6.13
319.665	6.12
320.119	6.12
320.572	6.1
321.026	6.09
321.48	6.08
321.934	6.06
322.387	6.05
322.841	6.04
323.295	6.04
323.748	6.03
324.202	6.02
324.655	6.01
325.108	6
325.562	6
326.015	6.01
326.468	6
326.921	6.01
327.374	6.01
327.827	6
328.28	5.98
328.733	5.98
329.186	5.98
329.639	5.98
330.092	5.98
330.545	5.97
330.997	5.96
331.45	5.96
331.903	5.96
332.355	5.97
332.808	5.97
333.26	5.97
333.713	5.97
334.165	5.96
334.617	5.97
335.069	5.96
335.522	5.96
335.974	5.96
336.426	5.95
336.878	5.93
337.33	5.91
337.782	5.92
338.234	5.92
338.686	5.91
339.137	5.92
339.589	5.89
340.041	5.88
340.493	5.85
340.944	5.83
341.396	5.81
341.847	5.79
342.299	5.78
342.75	5.76
343.201	5.72
343.653	5.7
344.104	5.67
344.555	5.67
345.006	5.65
345.457	5.65
345.908	5.65
346.359	5.64
346.81	5.64
347.261	5.62
347.712	5.62
348.163	5.61
348.613	5.63
349.064	5.63
349.515	5.62
349.965	5.62
350.416	5.61
350.866	5.6
351.317	5.58
351.767	5.59
352.217	5.59
352.668	5.58
353.118	5.58
353.568	5.56
354.018	5.56
354.468	5.56
354.918	5.55
355.368	5.56
355.818	5.56
356.268	5.56
356.718	5.56
357.168	5.55
357.617	5.54
358.067	5.54
358.517	5.55
358.966	5.55
359.416	5.55
359.865	5.55
360.315	5.55
360.764	5.55
361.213	5.56
361.663	5.55
362.112	5.57
362.561	5.59
363.01	5.6
363.459	5.59
363.908	5.59
364.357	5.6
364.806	5.6
365.255	5.61
365.703	5.62
366.152	5.63
366.601	5.65
367.05	5.66
367.498	5.66
367.947	5.69
368.395	5.72
368.844	5.75
369.292	5.76
369.74	5.8
370.189	5.83
370.637	5.87
371.085	5.9
371.533	5.94
371.981	5.99
372.429	6.04
372.877	6.11
373.325	6.17
373.773	6.24
374.221	6.31
374.669	6.39
375.116	6.48
375.564	6.57
376.012	6.68
376.459	6.79
376.907	6.91
377.354	7.04
377.801	7.16
378.249	7.29
378.696	7.43
379.143	7.59
379.591	7.75
380.038	7.91
380.485	8.06
380.932	8.22
381.379	8.39
381.826	8.56
382.273	8.74
382.72	8.9
383.166	9.09
383.613	9.27
384.06	9.45
384.506	9.64
384.953	9.83
385.4	10.04
385.846	10.24
386.292	10.43
386.739	10.61
387.185	10.79
387.631	10.98
388.078	11.16
388.524	11.34
388.97	11.51
389.416	11.69
389.862	11.85
390.308	12
390.754	12.15
391.2	12.31
391.645	12.45
392.091	12.6
392.537	12.74
392.983	12.89
393.428	13.03
393.874	13.15
394.319	13.26
394.765	13.36
395.21	13.45
395.655	13.53
396.101	13.6
396.546	13.66
396.991	13.72
397.436	13.78
397.881	13.84
398.326	13.88
398.771	13.93
399.216	13.97
399.661	14.01
400.106	14.02
400.551	14.04
400.995	14.03
401.44	14.04
401.885	14.04
402.329	14.04
402.774	14.05
403.218	14.06
403.663	14.05
404.107	14.04
404.551	14.02
404.995	14.02
405.44	14.01
405.884	14.03
406.328	14.02
406.772	13.99
407.216	13.97
407.66	13.94
408.104	13.89
408.547	13.87
408.991	13.85
409.435	13.82
409.879	13.8
410.322	13.79
410.766	13.76
411.209	13.75
411.653	13.74
412.096	13.73
412.54	13.71
412.983	13.7
413.426	13.69
413.869	13.69
414.312	13.69
414.756	13.68
415.199	13.64
415.642	13.61
416.085	13.57
416.527	13.52
416.97	13.47
417.413	13.43
417.856	13.38
418.298	13.34
418.741	13.29
419.184	13.25
419.626	13.21
420.069	13.19
420.511	13.16
420.953	13.16
421.396	13.14
421.838	13.14
422.28	13.11
422.722	13.11
423.164	13.07
423.606	13.04
424.048	13
424.49	12.98
424.932	12.96
425.374	12.9
425.816	12.82
426.258	12.79
426.699	12.73
427.141	12.72
427.582	12.71
428.024	12.7
428.465	12.69
428.907	12.66
429.348	12.63
429.789	12.63
430.231	12.65
430.672	12.69
431.113	12.7
431.554	12.72
431.995	12.72
432.436	12.73
432.877	12.73
433.318	12.77
433.759	12.81
434.2	12.84
434.64	12.86
435.081	12.87
435.522	12.89
435.962	12.91
436.403	12.95
436.843	12.98
437.284	12.99
437.724	13.01
438.164	13.01
438.604	13.02
439.045	13.04
439.485	13.06
439.925	13.08
440.365	13.1
440.805	13.14
441.245	13.19
441.685	13.24
442.125	13.3
442.564	13.34
443.004	13.4
443.444	13.47
443.883	13.54
444.323	13.59
444.762	13.67
445.202	13.74
445.641	13.82
446.081	13.88
446.52	13.94
446.959	14.02
447.398	14.1
447.837	14.19
448.276	14.24
448.716	14.31
449.154	14.4
449.593	14.46
450.032	14.51
450.471	14.56
450.91	14.6
451.349	14.65
451.787	14.69
452.226	14.73
452.664	14.76
453.103	14.81
453.541	14.87
453.98	14.91
454.418	14.94
454.856	15
455.295	15.03
455.733	15.05
456.171	15.09
456.609	15.14
457.047	15.17
457.485	15.22
457.923	15.26
458.361	15.28
458.798	15.32
459.236	15.35
459.674	15.38
460.111	15.43
460.549	15.48
460.987	15.52
461.424	15.56
461.862	15.61
462.299	15.64
462.736	15.68
463.173	15.71
463.611	15.74
464.048	15.77
464.485	15.79
464.922	15.81
465.359	15.82
465.796	15.85
466.233	15.84
466.67	15.84
467.106	15.84
467.543	15.81
467.98	15.8
468.416	15.77
468.853	15.75
469.29	15.74
469.726	15.72
470.162	15.7
470.599	15.67
471.035	15.65
471.471	15.62
471.907	15.6
472.344	15.59
472.78	15.58
473.216	15.56
473.652	15.55
474.088	15.5
474.523	15.5
474.959	15.48
475.395	15.45
475.831	15.43
476.266	15.44
476.702	15.44
477.138	15.43
477.573	15.43
478.008	15.44
478.444	15.43
478.879	15.47
479.314	15.47
479.75	15.49
480.185	15.51
480.62	15.53
481.055	15.55
481.49	15.57
481.925	15.61
482.36	15.66
482.795	15.71
483.229	15.77
483.664	15.85
484.099	15.91
484.534	15.99
484.968	16.09
485.403	16.19
485.837	16.3
486.271	16.42
486.706	16.53
487.14	16.65
487.574	16.79
488.009	16.93
488.443	17.07
488.877	17.23
489.311	17.41
489.745	17.58
490.179	17.76
490.613	17.96
491.046	18.16
491.48	18.38
491.914	18.6
492.348	18.81
492.781	19.04
493.215	19.28
493.648	19.53
494.082	19.78
494.515	20.01
494.948	20.26
495.382	20.52
495.815	20.79
496.248	21.07
496.681	21.35
497.114	21.63
497.547	21.93
497.98	22.21
498.413	22.5
498.846	22.79
499.279	23.1
499.711	23.41
500.144	23.74
500.577	24.06
501.009	24.38
501.442	24.7
501.874	25.05
502.306	25.39
502.739	25.76
503.171	26.11
503.603	26.47
504.036	26.83
504.468	27.2
504.9	27.54
505.332	27.9
505.764	28.27
506.196	28.63
506.627	28.99
507.059	29.36
507.491	29.71
507.923	30.08
508.354	30.46
508.786	30.83
509.217	31.2
509.649	31.59
510.08	31.97
510.512	32.35
510.943	32.72
511.374	33.08
511.805	33.46
512.237	33.82
512.668	34.17
513.099	34.51
513.53	34.86
513.961	35.21
514.391	35.55
514.822	35.9
515.253	36.23
515.684	36.57
516.114	36.91
516.545	37.2
516.975	37.52
517.406	37.83
517.836	38.13
518.267	38.42
518.697	38.69
519.127	38.95
519.558	39.22
519.988	39.48
520.418	39.72
520.848	39.95
521.278	40.19
521.708	40.58
522.138	40.8
522.567	41.03
522.997	41.24
523.427	41.45
523.857	41.64
524.286	41.79
524.716	41.95
525.145	42.13
525.575	42.3
526.004	42.48
526.433	42.47
526.863	42.62
527.292	42.77
527.721	42.9
528.15	43.02
528.579	43.14
529.008	43.29
529.437	43.43
529.866	43.54
530.295	43.64
530.724	43.75
531.152	43.86
531.581	43.99
532.01	44.1
532.438	44.18
532.867	44.3
533.295	44.4
533.723	44.49
534.152	44.58
534.58	44.66
535.008	44.73
535.436	44.81
535.865	44.88
536.293	44.92
536.721	44.96
537.149	45.05
537.576	45.11
538.004	45.17
538.432	45.22
538.86	45.26
539.287	45.29
539.715	45.34
540.143	45.38
540.57	45.42
540.998	45.45
541.425	45.48
541.852	45.52
542.28	45.54
542.707	45.56
543.134	45.6
543.561	45.65
543.988	45.68
544.415	45.69
544.842	45.69
545.269	45.7
545.696	45.73
546.123	45.75
546.549	45.78
546.976	45.82
547.403	45.83
547.829	45.84
548.256	45.88
548.682	45.89
549.108	45.92
549.535	45.96
549.961	45.97
550.387	45.99
550.813	46.01
551.24	46
551.666	45.97
552.092	45.99
552.518	45.98
552.943	45.96
553.369	45.96
553.795	45.95
554.221	45.92
554.646	45.92
555.072	45.91
555.498	45.88
555.923	45.86
556.349	45.83
556.774	45.79
557.199	45.75
557.625	45.71
558.05	45.68
558.475	45.65
558.9	45.62
559.325	45.6
559.75	45.55
560.175	45.5
560.6	45.44
561.025	45.41
561.449	45.36
561.874	45.3
562.299	45.24
562.723	45.16
563.148	45.07
563.572	44.98
563.997	44.88
564.421	44.79
564.846	44.71
565.27	44.64
565.694	44.54
566.118	44.46
566.542	44.38
566.966	44.29
567.39	44.2
567.814	44.13
568.238	44.04
568.662	43.96
569.086	43.88
569.509	43.79
569.933	43.71
570.357	43.62
570.78	43.54
571.204	43.46
571.627	43.39
572.05	43.3
572.474	43.23
572.897	43.17
573.32	43.09
573.743	43.01
574.166	42.94
574.589	42.86
575.012	42.78
575.435	42.69
575.858	42.61
576.281	42.53
576.704	42.45
577.126	42.35
577.549	42.25
577.972	42.16
578.394	42.08
578.817	42.01
579.239	41.94
579.661	41.89
580.084	41.81
580.506	41.76
580.928	41.7
581.35	41.64
581.772	41.6
582.194	41.54
582.616	41.51
583.038	41.46
583.46	41.39
583.882	41.32
584.303	41.26
584.725	41.22
585.147	41.17
585.568	41.11
585.99	41.04
586.411	40.97
586.833	40.92
587.254	40.85
587.675	40.79
588.096	40.75
588.518	40.71
588.939	40.69
589.36	40.62
589.781	40.57
590.202	40.54
590.623	40.5
591.043	40.45
591.464	40.43
591.885	40.38
592.305	40.36
592.726	40.32
593.147	40.27
593.567	40.2
593.987	40.17
594.408	40.11
594.828	40.06
595.248	40.02
595.669	40
596.089	39.93
596.509	39.91
596.929	39.87
597.349	39.82
597.769	39.76
598.189	39.73
598.608	39.7
599.028	39.68
599.448	39.63
599.867	39.58
600.287	39.54
600.706	39.49
601.126	39.45
601.545	39.42
601.965	39.39
602.384	39.37
602.803	39.33
603.222	39.27
603.641	39.22
604.061	39.17
604.48	39.1
604.898	39.04
605.317	38.99
605.736	38.94
606.155	38.88
606.574	38.8
606.992	38.73
607.411	38.67
607.829	38.58
608.248	38.52
608.666	38.47
609.085	38.41
609.503	38.37
609.921	38.29
610.339	38.2
610.758	38.13
611.176	38.06
611.594	38
612.012	37.93
612.43	37.88
612.847	37.81
613.265	37.75
613.683	37.68
614.101	37.61
614.518	37.55
614.936	37.5
615.353	37.43
615.771	37.36
616.188	37.3
616.606	37.22
617.023	37.17
617.44	37.12
617.857	37.04
618.274	37
618.691	36.93
619.108	36.89
619.525	36.83
619.942	36.79
620.359	36.74
620.776	36.69
621.192	36.66
621.609	36.64
622.026	36.6
622.442	36.57
622.859	36.54
623.275	36.53
623.691	36.51
624.108	36.5
624.524	36.48
624.94	36.49
625.356	36.49
625.772	36.47
626.188	36.46
626.604	36.46
627.02	36.46
627.436	36.45
627.852	36.44
628.268	36.43
628.683	36.41
629.099	36.41
629.514	36.39
629.93	36.38
630.345	36.35
630.761	36.31
631.176	36.28
631.591	36.22
632.007	36.17
632.422	36.11
632.837	36.03
633.252	35.94
633.667	35.84
634.082	35.73
634.497	35.61
634.911	35.49
635.326	35.37
635.741	35.21
636.155	35.06
636.57	34.9
636.984	34.73
637.399	34.55
637.813	34.37
638.228	34.15
638.642	33.94
639.056	33.71
639.47	33.5
639.884	33.25
640.298	33
640.712	32.77
641.126	32.51
641.54	32.24
641.954	31.99
642.368	31.73
642.781	31.49
643.195	31.24
643.609	30.99
644.022	30.74
644.436	30.52
644.849	30.31
645.262	30.08
645.676	29.88
646.089	29.7
646.502	29.52
646.915	29.36
647.328	29.2
647.741	29.05
648.154	28.9
648.567	28.78
648.98	28.65
649.393	28.55
649.805	28.46
650.218	28.37
650.631	28.29
651.043	28.21
651.456	28.12
651.868	28.06
652.28	28
652.693	27.96
653.105	27.88
653.517	27.8
653.929	27.7
654.341	27.61
654.753	27.49
655.165	27.39
655.577	27.28
655.989	27.15
656.401	26.99
656.813	26.85
657.224	26.67
657.636	26.5
658.047	26.34
658.459	26.16
658.87	25.97
659.282	25.76
659.693	25.56
660.104	25.33
660.515	25.13
660.926	24.91
661.338	24.68
661.749	24.46
662.159	24.23
662.57	24
662.981	23.78
663.392	23.56
663.803	23.36
664.213	23.14
664.624	22.94
665.035	22.75
665.445	22.56
665.855	22.39
666.266	22.23
666.676	22.07
667.086	21.91
667.497	21.76
667.907	21.64
668.317	21.51
668.727	21.41
669.137	21.3
669.547	21.2
669.956	21.11
670.366	21.03
670.776	20.96
671.186	20.92
671.595	20.88
672.005	20.85
672.414	20.81
672.824	20.79
673.233	20.8
673.642	20.81
674.052	20.84
674.461	20.87
674.87	20.9
675.279	20.95
675.688	21
676.097	21.07
676.506	21.16
676.915	21.27
677.323	21.41
677.732	21.56
678.141	21.72
678.549	21.9
678.958	22.13
679.366	22.39
679.775	22.65
680.183	22.97
680.592	23.34
681	23.73
681.408	24.13
681.816	24.57
682.224	25.04
682.632	25.55
683.04	26.08
683.448	26.65
683.856	27.23
684.264	27.88
684.671	28.51
685.079	29.16
685.487	29.84
685.894	30.55
686.302	31.26
686.709	31.97
687.116	32.69
687.524	33.42
687.931	34.15
688.338	34.88
688.745	35.59
689.152	36.29
689.559	37
689.966	37.68
690.373	38.36
690.78	39.01
691.187	39.64
691.593	40.28
692	40.87
692.407	41.45
692.813	42
693.22	42.53
693.626	43.06
694.032	43.55
694.439	44.01
694.845	44.48
695.251	44.92
695.657	45.34
696.063	45.73
696.469	46.1
696.875	46.48
697.281	46.83
697.687	47.18
698.093	47.5
698.498	47.83
698.904	48.16
699.31	48.43
699.715	48.72
700.12	48.99
700.526	49.28
700.931	49.54
701.337	49.76
701.742	50
702.147	50.22
702.552	50.44
702.957	50.62
703.362	50.81
703.767	50.98
704.172	51.14
704.577	51.3
704.981	51.45
705.386	51.59
705.791	51.72
706.195	51.87
706.6	52.02
707.004	52.13
707.408	52.27
707.813	52.43
708.217	52.55
708.621	52.68
709.025	52.78
709.43	52.87
709.834	53.01
710.237	53.14
710.641	53.24
711.045	53.36
711.449	53.45
711.853	53.57
712.256	53.65
712.66	53.74
713.064	53.84
713.467	53.94
713.87	54.04
714.274	54.1
714.677	54.18
715.08	54.24
715.484	54.3
715.887	54.42
716.29	54.46
716.693	54.53
717.096	54.61
717.499	54.7
717.901	54.78
718.304	54.83
718.707	54.9
719.109	54.99
719.512	55.05
719.915	55.12
720.317	55.14
720.719	55.19
721.122	55.23
721.524	55.29
721.926	55.33
722.328	55.4
722.731	55.44
723.133	55.5
723.535	55.53
723.937	55.58
724.338	55.58
724.74	55.62
725.142	55.74
725.544	55.77
725.945	55.81
726.347	55.82
726.748	55.85
727.15	55.88
727.551	55.93
727.952	55.95
728.354	55.97
728.755	56.01
729.156	56.03
729.557	55.97
729.958	55.98
730.359	55.96
730.76	56.01
731.161	56.01
731.562	56.02
731.962	56.02
732.363	56.03
732.763	56.04
733.164	56.07
733.564	56.1
733.965	56.1
734.365	56.13
734.766	56.16
735.166	56.15
735.566	56.15
735.966	56.18
736.366	56.18
736.766	56.17
737.166	56.2
737.566	56.2
737.966	56.21
738.365	56.22
738.765	56.22
739.165	56.22
739.564	56.22
739.964	56.22
740.363	56.2
740.763	56.22
741.162	56.22
741.561	56.2
741.96	56.19
742.36	56.18
742.759	56.18
743.158	56.19
743.557	56.16
743.955	56.16
744.354	56.15
744.753	56.19
745.152	56.19
745.55	56.19
745.949	56.2
746.348	56.21
746.746	56.2
747.144	56.21
747.543	56.19
747.941	56.18
748.339	56.15
748.737	56.16
749.136	56.15
749.534	56.14
749.932	56.12
750.33	56.12
750.727	56.11
751.125	56.1
751.523	56.07
751.921	56.06
752.318	56.08
752.716	56.11
753.113	56.09
753.511	56.07
753.908	56.1
754.305	56.12
754.703	56.1
755.1	56.1
755.497	56.1
755.894	56.13
756.291	56.14
756.688	56.14
757.085	56.14
757.482	56.17
757.878	56.17
758.275	56.14
758.672	56.12
759.068	56.12
759.465	56.12
759.861	56.14
760.258	56.13
760.654	56.14
761.05	56.14
761.447	56.14
761.843	56.11
762.239	56.12
762.635	56.1
763.031	56.09
763.427	56.07
763.822	56.05
764.218	56.04
764.614	56.04
765.01	56
765.405	55.98
765.801	55.95
766.196	55.94
766.592	55.92
766.987	55.94
767.382	55.93
767.778	55.93
768.173	55.93
768.568	55.89
768.963	55.86
769.358	55.88
769.753	55.89
770.148	55.9
770.542	55.92
770.937	55.91
771.332	55.9
771.726	55.91
