Data from C_2_DIV_IL_4N_Splice17_13-40-42-265.txt Node
Date: Sat Mar 07 13:40:42 EST 2020
User: sa697716
Spectrometer: NQ5500242
Trigger mode: 0
Integration Time (sec): 1.450000E-1
Scans to average: 20
Nonlinearity correction enabled: false
Boxcar width: 5
Storing dark spectrum: false
XAxis mode: Wavelengths
Number of Pixels in Spectrum: 512
>>>>>Begin Spectral Data<<<<<
187.83	245.31
188.298	252.15
188.766	232.15
189.233	199.97
189.701	192.13
190.169	225.52
190.636	265.44
191.104	461.05
191.571	270.87
192.039	-175.65
192.506	-816.28
192.974	72.61
193.441	17.01
193.908	-9.1
194.375	30.15
194.842	-50.73
195.31	-28.37
195.777	-47.91
196.244	95.46
196.711	90.15
197.177	93.6
197.644	93.22
198.111	93.7
198.578	94.11
199.045	95.22
199.511	94.91
199.978	95.04
200.445	95.46
200.911	95.58
201.378	95.26
201.844	95.42
202.31	94.67
202.777	94.3
203.243	93.79
203.709	93.09
204.176	92.07
204.642	91.62
205.108	90.81
205.574	89.75
206.04	88.77
206.506	88.24
206.972	87.47
207.438	86.87
207.903	86
208.369	84.6
208.835	83.26
209.301	81.33
209.766	78.98
210.232	76.9
210.697	74.77
211.163	72.79
211.628	70.9
212.094	69.08
212.559	67.47
213.024	65.8
213.49	64.43
213.955	62.72
214.42	61.18
214.885	59.44
215.35	57.26
215.815	54.41
216.28	50.62
216.745	46.38
217.21	42.2
217.675	38.2
218.14	34.84
218.604	31.98
219.069	29.62
219.534	27.66
219.998	25.99
220.463	24.65
220.927	23.4
221.392	22.51
221.856	21.74
222.32	21.07
222.785	20.51
223.249	19.97
223.713	19.49
224.177	19.07
224.642	18.66
225.106	18.28
225.57	17.87
226.034	17.57
226.497	17.25
226.961	16.94
227.425	16.65
227.889	16.37
228.353	16.1
228.816	15.81
229.28	15.55
229.744	15.29
230.207	15.07
230.671	14.86
231.134	14.62
231.597	14.41
232.061	14.22
232.524	14.01
232.987	13.83
233.45	13.66
233.914	13.49
234.377	13.31
234.84	13.15
235.303	13
235.766	12.85
236.229	12.71
236.691	12.57
237.154	12.43
237.617	12.33
238.08	12.19
238.542	12.05
239.005	11.93
239.468	11.81
239.93	11.69
240.393	11.57
240.855	11.42
241.317	11.3
241.78	11.18
242.242	11.05
242.704	10.93
243.166	10.82
243.629	10.74
244.091	10.62
244.553	10.52
245.015	10.41
245.477	10.31
245.939	10.23
246.4	10.14
246.862	10.05
247.324	9.97
247.786	9.87
248.247	9.79
248.709	9.68
249.17	9.6
249.632	9.52
250.093	9.46
250.555	9.38
251.016	9.3
251.477	9.22
251.939	9.16
252.4	9.09
252.861	9.03
253.322	8.97
253.783	8.91
254.244	8.86
254.705	8.8
255.166	8.73
255.627	8.67
256.088	8.62
256.549	8.56
257.009	8.49
257.47	8.42
257.931	8.35
258.391	8.27
258.852	8.2
259.312	8.13
259.773	8.07
260.233	8.01
260.694	7.94
261.154	7.87
261.614	7.81
262.074	7.75
262.534	7.69
262.994	7.64
263.455	7.59
263.915	7.55
264.374	7.51
264.834	7.46
265.294	7.42
265.754	7.39
266.214	7.36
266.673	7.33
267.133	7.3
267.593	7.29
268.052	7.27
268.512	7.24
268.971	7.22
269.431	7.2
269.89	7.18
270.349	7.17
270.809	7.14
271.268	7.13
271.727	7.1
272.186	7.08
272.645	7.06
273.104	7.04
273.563	7.02
274.022	7
274.481	6.99
274.94	6.98
275.399	6.95
275.857	6.93
276.316	6.91
276.775	6.9
277.233	6.88
277.692	6.87
278.15	6.86
278.609	6.84
279.067	6.83
279.525	6.81
279.984	6.79
280.442	6.78
280.9	6.76
281.358	6.76
281.816	6.75
282.274	6.74
282.732	6.72
283.19	6.71
283.648	6.7
284.106	6.68
284.564	6.67
285.021	6.66
285.479	6.65
285.937	6.63
286.394	6.61
286.852	6.58
287.309	6.56
287.767	6.53
288.224	6.5
288.682	6.46
289.139	6.42
289.596	6.39
290.053	6.35
290.511	6.32
290.968	6.3
291.425	6.26
291.882	6.24
292.339	6.22
292.796	6.2
293.252	6.18
293.709	6.16
294.166	6.15
294.623	6.14
295.079	6.12
295.536	6.11
295.992	6.09
296.449	6.08
296.905	6.06
297.362	6.04
297.818	6.03
298.274	6.02
298.731	6
299.187	5.98
299.643	5.96
300.099	5.96
300.555	5.95
301.011	5.93
301.467	5.93
301.923	5.91
302.379	5.91
302.835	5.9
303.291	5.89
303.746	5.89
304.202	5.89
304.658	5.89
305.113	5.89
305.569	5.88
306.024	5.88
306.479	5.87
306.935	5.88
307.39	5.88
307.845	5.88
308.301	5.88
308.756	5.87
309.211	5.87
309.666	5.88
310.121	5.88
310.576	5.88
311.031	5.87
311.486	5.87
311.94	5.87
312.395	5.86
312.85	5.86
313.305	5.85
313.759	5.85
314.214	5.84
314.668	5.83
315.123	5.81
315.577	5.81
316.032	5.8
316.486	5.79
316.94	5.78
317.394	5.77
317.849	5.75
318.303	5.73
318.757	5.69
319.211	5.68
319.665	5.66
320.119	5.65
320.572	5.62
321.026	5.6
321.48	5.59
321.934	5.57
322.387	5.55
322.841	5.54
323.295	5.55
323.748	5.54
324.202	5.54
324.655	5.54
325.108	5.54
325.562	5.55
326.015	5.56
326.468	5.56
326.921	5.56
327.374	5.57
327.827	5.58
328.28	5.58
328.733	5.58
329.186	5.58
329.639	5.59
330.092	5.59
330.545	5.58
330.997	5.57
331.45	5.57
331.903	5.58
332.355	5.59
332.808	5.58
333.26	5.58
333.713	5.59
334.165	5.59
334.617	5.59
335.069	5.58
335.522	5.59
335.974	5.6
336.426	5.6
336.878	5.58
337.33	5.56
337.782	5.55
338.234	5.55
338.686	5.53
339.137	5.53
339.589	5.51
340.041	5.49
340.493	5.47
340.944	5.44
341.396	5.42
341.847	5.41
342.299	5.39
342.75	5.37
343.201	5.34
343.653	5.32
344.104	5.29
344.555	5.28
345.006	5.26
345.457	5.25
345.908	5.25
346.359	5.24
346.81	5.23
347.261	5.22
347.712	5.21
348.163	5.2
348.613	5.2
349.064	5.21
349.515	5.21
349.965	5.21
350.416	5.2
350.866	5.19
351.317	5.19
351.767	5.19
352.217	5.19
352.668	5.19
353.118	5.2
353.568	5.19
354.018	5.2
354.468	5.21
354.918	5.21
355.368	5.22
355.818	5.23
356.268	5.23
356.718	5.23
357.168	5.23
357.617	5.22
358.067	5.21
358.517	5.23
358.966	5.22
359.416	5.21
359.865	5.21
360.315	5.21
360.764	5.21
361.213	5.19
361.663	5.18
362.112	5.19
362.561	5.2
363.01	5.2
363.459	5.18
363.908	5.17
364.357	5.19
364.806	5.18
365.255	5.18
365.703	5.18
366.152	5.19
366.601	5.2
367.05	5.2
367.498	5.2
367.947	5.2
368.395	5.22
368.844	5.22
369.292	5.21
369.74	5.21
370.189	5.21
370.637	5.2
371.085	5.19
371.533	5.17
371.981	5.15
372.429	5.16
372.877	5.15
373.325	5.14
373.773	5.13
374.221	5.12
374.669	5.11
375.116	5.09
375.564	5.08
376.012	5.08
376.459	5.08
376.907	5.09
377.354	5.08
377.801	5.08
378.249	5.08
378.696	5.08
379.143	5.07
379.591	5.08
380.038	5.08
380.485	5.09
380.932	5.09
381.379	5.11
381.826	5.11
382.273	5.11
382.72	5.1
383.166	5.1
383.613	5.1
384.06	5.1
384.506	5.11
384.953	5.12
385.4	5.12
385.846	5.13
386.292	5.13
386.739	5.14
387.185	5.14
387.631	5.15
388.078	5.16
388.524	5.16
388.97	5.18
389.416	5.21
389.862	5.23
390.308	5.26
390.754	5.29
391.2	5.32
391.645	5.34
392.091	5.39
392.537	5.43
392.983	5.46
393.428	5.49
393.874	5.52
394.319	5.54
394.765	5.56
395.21	5.59
395.655	5.61
396.101	5.64
396.546	5.67
396.991	5.69
397.436	5.71
397.881	5.76
398.326	5.81
398.771	5.84
399.216	5.88
399.661	5.92
400.106	5.94
400.551	5.96
400.995	5.98
401.44	6.01
401.885	6.03
402.329	6.07
402.774	6.1
403.218	6.14
403.663	6.18
404.107	6.21
404.551	6.24
404.995	6.28
405.44	6.32
405.884	6.35
406.328	6.4
406.772	6.42
407.216	6.45
407.66	6.47
408.104	6.49
408.547	6.52
408.991	6.55
409.435	6.58
409.879	6.61
410.322	6.66
410.766	6.7
411.209	6.75
411.653	6.8
412.096	6.84
412.54	6.88
412.983	6.93
413.426	7
413.869	7.03
414.312	7.08
414.756	7.12
415.199	7.14
415.642	7.17
416.085	7.18
416.527	7.18
416.97	7.18
417.413	7.18
417.856	7.18
418.298	7.18
418.741	7.18
419.184	7.19
419.626	7.2
420.069	7.23
420.511	7.24
420.953	7.28
421.396	7.32
421.838	7.34
422.28	7.37
422.722	7.41
423.164	7.44
423.606	7.44
424.048	7.46
424.49	7.46
424.932	7.45
425.374	7.42
425.816	7.38
426.258	7.38
426.699	7.38
427.141	7.4
427.582	7.41
428.024	7.4
428.465	7.42
428.907	7.43
429.348	7.42
429.789	7.45
430.231	7.5
430.672	7.54
431.113	7.56
431.554	7.58
431.995	7.59
432.436	7.61
432.877	7.65
433.318	7.68
433.759	7.73
434.2	7.79
434.64	7.83
435.081	7.86
435.522	7.9
435.962	7.92
436.403	7.97
436.843	7.98
437.284	7.97
437.724	7.97
438.164	7.97
438.604	7.96
439.045	7.97
439.485	7.97
439.925	7.95
440.365	7.95
440.805	7.94
441.245	7.95
441.685	7.98
442.125	8.01
442.564	8.03
443.004	8.04
443.444	8.06
443.883	8.09
444.323	8.09
444.762	8.11
445.202	8.13
445.641	8.18
446.081	8.2
446.52	8.21
446.959	8.24
447.398	8.27
447.837	8.29
448.276	8.31
448.716	8.32
449.154	8.34
449.593	8.37
450.032	8.37
450.471	8.34
450.91	8.33
451.349	8.36
451.787	8.33
452.226	8.32
452.664	8.3
453.103	8.27
453.541	8.25
453.98	8.24
454.418	8.21
454.856	8.2
455.295	8.2
455.733	8.16
456.171	8.13
456.609	8.12
457.047	8.1
457.485	8.1
457.923	8.1
458.361	8.1
458.798	8.1
459.236	8.1
459.674	8.1
460.111	8.1
460.549	8.13
460.987	8.14
461.424	8.14
461.862	8.14
462.299	8.16
462.736	8.16
463.173	8.17
463.611	8.18
464.048	8.19
464.485	8.2
464.922	8.2
465.359	8.2
465.796	8.21
466.233	8.23
466.67	8.23
467.106	8.25
467.543	8.23
467.98	8.23
468.416	8.22
468.853	8.22
469.29	8.21
469.726	8.19
470.162	8.17
470.599	8.15
471.035	8.12
471.471	8.11
471.907	8.07
472.344	8.08
472.78	8.07
473.216	8.05
473.652	8.03
474.088	8.01
474.523	8.02
474.959	8.01
475.395	8
475.831	7.99
476.266	7.98
476.702	7.98
477.138	7.97
477.573	7.96
478.008	7.96
478.444	7.94
478.879	7.94
479.314	7.91
479.75	7.9
480.185	7.87
480.62	7.85
481.055	7.83
481.49	7.82
481.925	7.81
482.36	7.81
482.795	7.79
483.229	7.78
483.664	7.78
484.099	7.77
484.534	7.77
484.968	7.79
485.403	7.8
485.837	7.81
486.271	7.82
486.706	7.82
487.14	7.83
487.574	7.84
488.009	7.86
488.443	7.87
488.877	7.9
489.311	7.92
489.745	7.94
490.179	7.98
490.613	8.01
491.046	8.03
491.48	8.07
491.914	8.1
492.348	8.14
492.781	8.19
493.215	8.24
493.648	8.29
494.082	8.33
494.515	8.39
494.948	8.43
495.382	8.49
495.815	8.56
496.248	8.62
496.681	8.7
497.114	8.77
497.547	8.83
497.98	8.91
498.413	8.99
498.846	9.07
499.279	9.16
499.711	9.25
500.144	9.35
500.577	9.45
501.009	9.55
501.442	9.66
501.874	9.77
502.306	9.89
502.739	10.03
503.171	10.16
503.603	10.3
504.036	10.44
504.468	10.58
504.9	10.73
505.332	10.9
505.764	11.07
506.196	11.24
506.627	11.42
507.059	11.62
507.491	11.79
507.923	11.99
508.354	12.2
508.786	12.42
509.217	12.65
509.649	12.87
510.08	13.09
510.512	13.34
510.943	13.59
511.374	13.84
511.805	14.1
512.237	14.36
512.668	14.63
513.099	14.88
513.53	15.15
513.961	15.44
514.391	15.74
514.822	16.03
515.253	16.32
515.684	16.61
516.114	16.92
516.545	17.23
516.975	17.54
517.406	17.84
517.836	18.15
518.267	18.48
518.697	18.78
519.127	19.08
519.558	19.37
519.988	19.68
520.418	19.99
520.848	20.29
521.278	20.58
521.708	21.09
522.138	21.38
522.567	21.68
522.997	21.94
523.427	22.22
523.857	22.48
524.286	22.75
524.716	23
525.145	23.24
525.575	23.47
526.004	23.7
526.433	23.7
526.863	23.92
527.292	24.14
527.721	24.34
528.15	24.53
528.579	24.74
529.008	24.93
529.437	25.09
529.866	25.25
530.295	25.42
530.724	25.59
531.152	25.74
531.581	25.89
532.01	26.03
532.438	26.16
532.867	26.29
533.295	26.41
533.723	26.52
534.152	26.63
534.58	26.74
535.008	26.84
535.436	26.94
535.865	27.02
536.293	27.09
536.721	27.17
537.149	27.25
537.576	27.32
538.004	27.39
538.432	27.45
538.86	27.53
539.287	27.58
539.715	27.65
540.143	27.69
540.57	27.75
540.998	27.8
541.425	27.86
541.852	27.92
542.28	27.96
542.707	28.01
543.134	28.07
543.561	28.11
543.988	28.17
544.415	28.2
544.842	28.23
545.269	28.28
545.696	28.32
546.123	28.36
546.549	28.39
546.976	28.43
547.403	28.46
547.829	28.47
548.256	28.5
548.682	28.54
549.108	28.59
549.535	28.64
549.961	28.66
550.387	28.68
550.813	28.7
551.24	28.72
551.666	28.73
552.092	28.75
552.518	28.76
552.943	28.76
553.369	28.74
553.795	28.72
554.221	28.68
554.646	28.66
555.072	28.63
555.498	28.58
555.923	28.53
556.349	28.47
556.774	28.39
557.199	28.33
557.625	28.25
558.05	28.21
558.475	28.12
558.9	28.07
559.325	27.98
559.75	27.9
560.175	27.8
560.6	27.71
561.025	27.62
561.449	27.53
561.874	27.42
562.299	27.33
562.723	27.19
563.148	27.05
563.572	26.91
563.997	26.78
564.421	26.62
564.846	26.49
565.27	26.35
565.694	26.21
566.118	26.06
566.542	25.91
566.966	25.74
567.39	25.59
567.814	25.45
568.238	25.3
568.662	25.15
569.086	25.02
569.509	24.87
569.933	24.74
570.357	24.6
570.78	24.46
571.204	24.33
571.627	24.22
572.05	24.07
572.474	23.96
572.897	23.83
573.32	23.69
573.743	23.55
574.166	23.44
574.589	23.3
575.012	23.17
575.435	23.05
575.858	22.91
576.281	22.78
576.704	22.67
577.126	22.55
577.549	22.44
577.972	22.33
578.394	22.23
578.817	22.12
579.239	22.03
579.661	21.93
580.084	21.85
580.506	21.77
580.928	21.68
581.35	21.61
581.772	21.52
582.194	21.46
582.616	21.39
583.038	21.31
583.46	21.24
583.882	21.16
584.303	21.08
584.725	21.01
585.147	20.96
585.568	20.9
585.99	20.83
586.411	20.77
586.833	20.7
587.254	20.65
587.675	20.58
588.096	20.51
588.518	20.45
588.939	20.39
589.36	20.33
589.781	20.26
590.202	20.21
590.623	20.16
591.043	20.11
591.464	20.06
591.885	20
592.305	19.96
592.726	19.93
593.147	19.89
593.567	19.84
593.987	19.78
594.408	19.74
594.828	19.68
595.248	19.65
595.669	19.6
596.089	19.56
596.509	19.53
596.929	19.5
597.349	19.45
597.769	19.41
598.189	19.37
598.608	19.36
599.028	19.33
599.448	19.28
599.867	19.24
600.287	19.2
600.706	19.17
601.126	19.12
601.545	19.07
601.965	19.03
602.384	18.99
602.803	18.94
603.222	18.87
603.641	18.81
604.061	18.76
604.48	18.7
604.898	18.62
605.317	18.55
605.736	18.48
606.155	18.42
606.574	18.33
606.992	18.25
607.411	18.17
607.829	18.08
608.248	17.99
608.666	17.9
609.085	17.81
609.503	17.74
609.921	17.66
610.339	17.56
610.758	17.46
611.176	17.37
611.594	17.28
612.012	17.18
612.43	17.11
612.847	17.03
613.265	16.95
613.683	16.87
614.101	16.79
614.518	16.71
614.936	16.64
615.353	16.55
615.771	16.48
616.188	16.42
616.606	16.36
617.023	16.29
617.44	16.24
617.857	16.18
618.274	16.11
618.691	16.05
619.108	16
619.525	15.94
619.942	15.91
620.359	15.86
620.776	15.81
621.192	15.78
621.609	15.73
622.026	15.69
622.442	15.67
622.859	15.64
623.275	15.61
623.691	15.6
624.108	15.59
624.524	15.57
624.94	15.56
625.356	15.55
625.772	15.54
626.188	15.54
626.604	15.53
627.02	15.51
627.436	15.5
627.852	15.5
628.268	15.49
628.683	15.48
629.099	15.47
629.514	15.46
629.93	15.45
630.345	15.42
630.761	15.39
631.176	15.37
631.591	15.35
632.007	15.32
632.422	15.27
632.837	15.23
633.252	15.16
633.667	15.1
634.082	15.04
634.497	14.97
634.911	14.9
635.326	14.81
635.741	14.72
636.155	14.62
636.57	14.53
636.984	14.44
637.399	14.33
637.813	14.23
638.228	14.11
638.642	13.99
639.056	13.87
639.47	13.76
639.884	13.66
640.298	13.54
640.712	13.42
641.126	13.3
641.54	13.17
641.954	13.03
642.368	12.91
642.781	12.81
643.195	12.68
643.609	12.57
644.022	12.45
644.436	12.33
644.849	12.22
645.262	12.12
645.676	12.01
646.089	11.91
646.502	11.84
646.915	11.76
647.328	11.68
647.741	11.6
648.154	11.53
648.567	11.46
648.98	11.4
649.393	11.35
649.805	11.3
650.218	11.26
650.631	11.21
651.043	11.15
651.456	11.1
651.868	11.04
652.28	10.99
652.693	10.95
653.105	10.89
653.517	10.83
653.929	10.77
654.341	10.7
654.753	10.64
655.165	10.56
655.577	10.48
655.989	10.41
656.401	10.33
656.813	10.24
657.224	10.14
657.636	10.04
658.047	9.95
658.459	9.83
658.87	9.74
659.282	9.61
659.693	9.51
660.104	9.41
660.515	9.31
660.926	9.21
661.338	9.1
661.749	9.01
662.159	8.92
662.57	8.83
662.981	8.75
663.392	8.67
663.803	8.6
664.213	8.53
664.624	8.45
665.035	8.38
665.445	8.32
665.855	8.27
666.266	8.22
666.676	8.17
667.086	8.12
667.497	8.08
667.907	8.04
668.317	8.01
668.727	7.98
669.137	7.95
669.547	7.94
669.956	7.92
670.366	7.9
670.776	7.89
671.186	7.88
671.595	7.86
672.005	7.84
672.414	7.85
672.824	7.84
673.233	7.84
673.642	7.84
674.052	7.83
674.461	7.84
674.87	7.85
675.279	7.87
675.688	7.88
676.097	7.92
676.506	7.95
676.915	7.97
677.323	8
677.732	8.03
678.141	8.08
678.549	8.12
678.958	8.18
679.366	8.24
679.775	8.3
680.183	8.38
680.592	8.46
681	8.55
681.408	8.65
681.816	8.77
682.224	8.9
682.632	9.04
683.04	9.19
683.448	9.37
683.856	9.54
684.264	9.75
684.671	9.96
685.079	10.2
685.487	10.46
685.894	10.77
686.302	11.08
686.709	11.43
687.116	11.79
687.524	12.19
687.931	12.61
688.338	13.05
688.745	13.51
689.152	14
689.559	14.53
689.966	15.07
690.373	15.61
690.78	16.17
691.187	16.75
691.593	17.34
692	17.94
692.407	18.55
692.813	19.19
693.22	19.82
693.626	20.47
694.032	21.1
694.439	21.74
694.845	22.37
695.251	23.03
695.657	23.65
696.063	24.31
696.469	24.95
696.875	25.58
697.281	26.19
697.687	26.82
698.093	27.41
698.498	28
698.904	28.59
699.31	29.16
699.715	29.72
700.12	30.3
700.526	30.83
700.931	31.37
701.337	31.91
701.742	32.43
702.147	32.92
702.552	33.42
702.957	33.88
703.362	34.36
703.767	34.84
704.172	35.29
704.577	35.74
704.981	36.19
705.386	36.61
705.791	37.03
706.195	37.45
706.6	37.86
707.004	38.26
707.408	38.68
707.813	39.07
708.217	39.43
708.621	39.84
709.025	40.18
709.43	40.53
709.834	40.91
710.237	41.23
710.641	41.57
711.045	41.9
711.449	42.25
711.853	42.58
712.256	42.89
712.66	43.21
713.064	43.48
713.467	43.78
713.87	44.07
714.274	44.31
714.677	44.61
715.08	44.89
715.484	45.17
715.887	45.47
716.29	45.71
716.693	45.97
717.096	46.24
717.499	46.5
717.901	46.73
718.304	46.98
718.707	47.25
719.109	47.46
719.512	47.66
719.915	47.88
720.317	48.04
720.719	48.2
721.122	48.4
721.524	48.58
721.926	48.75
722.328	48.96
722.731	49.13
723.133	49.31
723.535	49.49
723.937	49.67
724.338	49.82
724.74	49.98
725.142	50.35
725.544	50.49
725.945	50.66
726.347	50.78
726.748	50.9
727.15	51.02
727.551	51.15
727.952	51.26
728.354	51.35
728.755	51.45
729.156	51.56
729.557	51.49
729.958	51.56
730.359	51.62
730.76	51.74
731.161	51.85
731.562	51.94
731.962	51.98
732.363	52.09
732.763	52.16
733.164	52.26
733.564	52.3
733.965	52.36
734.365	52.45
734.766	52.54
735.166	52.59
735.566	52.64
735.966	52.71
736.366	52.78
736.766	52.82
737.166	52.89
737.566	52.91
737.966	52.98
738.365	53.05
738.765	53.11
739.165	53.12
739.564	53.17
739.964	53.22
740.363	53.25
740.763	53.31
741.162	53.37
741.561	53.4
741.96	53.42
742.36	53.47
742.759	53.48
743.158	53.5
743.557	53.54
743.955	53.56
744.354	53.58
744.753	53.6
745.152	53.62
745.55	53.62
745.949	53.64
746.348	53.68
746.746	53.66
747.144	53.71
747.543	53.68
747.941	53.67
748.339	53.66
748.737	53.64
749.136	53.64
749.534	53.59
749.932	53.58
750.33	53.57
750.727	53.56
751.125	53.58
751.523	53.55
751.921	53.6
752.318	53.63
752.716	53.67
753.113	53.69
753.511	53.7
753.908	53.76
754.305	53.79
754.703	53.8
755.1	53.82
755.497	53.84
755.894	53.87
756.291	53.87
756.688	53.87
757.085	53.89
757.482	53.89
757.878	53.92
758.275	53.91
758.672	53.92
759.068	53.97
759.465	53.98
759.861	53.98
760.258	54
760.654	54
761.05	54.02
761.447	54.01
761.843	54.01
762.239	54.02
762.635	54.02
763.031	54.03
763.427	53.99
763.822	54
764.218	54.02
764.614	54.01
765.01	54.02
765.405	54.02
765.801	54.02
766.196	54.04
766.592	54.01
766.987	54.01
767.382	54
767.778	54.03
768.173	54.04
768.568	54.03
768.963	54.03
769.358	54.02
769.753	54.01
770.148	54.04
770.542	54.03
770.937	54.06
771.332	54.08
771.726	54.06
772.121	54.06
772.515	54.05
772.91	54.05
773.304	54.07
773.699	54.07
774.093	54.09
774.487	54.08
774.881	54.13
775.275	54.12
775.669	54.08
776.063	54.08
776.457	54.08
776.851	54.07
777.245	54.06
777.638	54.04
778.032	54.07
778.425	54.08
778.819	54.05
779.212	54.04
779.606	54.05
779.999	54.08
