Data from C_2_HIR_WI_4N_Splice17_13-36-08-761.txt Node
Date: Sat Mar 07 13:36:08 EST 2020
User: sa697716
Spectrometer: NQ5500242
Trigger mode: 0
Integration Time (sec): 1.450000E-1
Scans to average: 20
Nonlinearity correction enabled: false
Boxcar width: 5
Storing dark spectrum: false
XAxis mode: Wavelengths
Number of Pixels in Spectrum: 512
>>>>>Begin Spectral Data<<<<<
187.83	236.04
188.298	252.32
188.766	218.98
189.233	179.3
189.701	204.4
190.169	262.15
190.636	285.63
191.104	502.04
191.571	418.19
192.039	196.91
192.506	-191.54
192.974	147.44
193.441	279.94
193.908	133.54
194.375	100.32
194.842	80.06
195.31	181.76
195.777	410.22
196.244	130.35
196.711	108.3
197.177	108.48
197.644	105.45
198.111	105.19
198.578	104.99
199.045	105.63
199.511	104.92
199.978	105.27
200.445	105.74
200.911	105.75
201.378	105.74
201.844	105.46
202.31	104.56
202.777	104.46
203.243	104.07
203.709	103.5
204.176	102.42
204.642	102.01
205.108	101.31
205.574	100.29
206.04	99.05
206.506	98.07
206.972	97.15
207.438	96.19
207.903	94.81
208.369	92.96
208.835	90.94
209.301	88.88
209.766	86.06
210.232	83.37
210.697	80.78
211.163	78.55
211.628	76.48
212.094	74.4
212.559	72.46
213.024	70.74
213.49	69.11
213.955	67.45
214.42	65.57
214.885	63.74
215.35	61.09
215.815	57.77
216.28	53.46
216.745	48.57
217.21	43.66
217.675	39.12
218.14	35.12
218.604	31.62
219.069	28.66
219.534	26.27
219.998	24.3
220.463	22.67
220.927	21.23
221.392	20.09
221.856	19.17
222.32	18.37
222.785	17.71
223.249	17.1
223.713	16.56
224.177	16.11
224.642	15.67
225.106	15.22
225.57	14.81
226.034	14.48
226.497	14.13
226.961	13.8
227.425	13.5
227.889	13.19
228.353	12.9
228.816	12.63
229.28	12.36
229.744	12.1
230.207	11.87
230.671	11.64
231.134	11.4
231.597	11.22
232.061	11.02
232.524	10.86
232.987	10.69
233.45	10.54
233.914	10.38
234.377	10.22
234.84	10.08
235.303	9.96
235.766	9.84
236.229	9.72
236.691	9.6
237.154	9.49
237.617	9.37
238.08	9.26
238.542	9.15
239.005	9.07
239.468	8.97
239.93	8.88
240.393	8.8
240.855	8.69
241.317	8.59
241.78	8.48
242.242	8.37
242.704	8.29
243.166	8.21
243.629	8.13
244.091	8.04
244.553	7.94
245.015	7.85
245.477	7.76
245.939	7.69
246.4	7.61
246.862	7.54
247.324	7.47
247.786	7.39
248.247	7.3
248.709	7.21
249.17	7.12
249.632	7.06
250.093	6.99
250.555	6.93
251.016	6.86
251.477	6.79
251.939	6.74
252.4	6.69
252.861	6.63
253.322	6.58
253.783	6.54
254.244	6.5
254.705	6.45
255.166	6.4
255.627	6.35
256.088	6.3
256.549	6.26
257.009	6.19
257.47	6.13
257.931	6.07
258.391	6.01
258.852	5.94
259.312	5.88
259.773	5.81
260.233	5.75
260.694	5.69
261.154	5.63
261.614	5.58
262.074	5.52
262.534	5.47
262.994	5.42
263.455	5.39
263.915	5.35
264.374	5.31
264.834	5.28
265.294	5.25
265.754	5.22
266.214	5.19
266.673	5.15
267.133	5.14
267.593	5.12
268.052	5.09
268.512	5.08
268.971	5.05
269.431	5.04
269.89	5.02
270.349	5
270.809	4.98
271.268	4.97
271.727	4.96
272.186	4.94
272.645	4.93
273.104	4.91
273.563	4.89
274.022	4.87
274.481	4.86
274.94	4.85
275.399	4.83
275.857	4.82
276.316	4.81
276.775	4.81
277.233	4.8
277.692	4.79
278.15	4.78
278.609	4.79
279.067	4.78
279.525	4.78
279.984	4.77
280.442	4.77
280.9	4.77
281.358	4.78
281.816	4.78
282.274	4.78
282.732	4.77
283.19	4.77
283.648	4.76
284.106	4.76
284.564	4.75
285.021	4.76
285.479	4.75
285.937	4.74
286.394	4.73
286.852	4.72
287.309	4.71
287.767	4.69
288.224	4.67
288.682	4.64
289.139	4.61
289.596	4.59
290.053	4.55
290.511	4.52
290.968	4.49
291.425	4.45
291.882	4.42
292.339	4.38
292.796	4.37
293.252	4.35
293.709	4.33
294.166	4.32
294.623	4.3
295.079	4.29
295.536	4.29
295.992	4.28
296.449	4.27
296.905	4.27
297.362	4.26
297.818	4.25
298.274	4.25
298.731	4.24
299.187	4.23
299.643	4.22
300.099	4.21
300.555	4.2
301.011	4.19
301.467	4.2
301.923	4.18
302.379	4.18
302.835	4.19
303.291	4.19
303.746	4.18
304.202	4.2
304.658	4.19
305.113	4.19
305.569	4.2
306.024	4.21
306.479	4.2
306.935	4.2
307.39	4.2
307.845	4.2
308.301	4.2
308.756	4.2
309.211	4.2
309.666	4.21
310.121	4.22
310.576	4.22
311.031	4.22
311.486	4.23
311.94	4.25
312.395	4.24
312.85	4.25
313.305	4.25
313.759	4.26
314.214	4.26
314.668	4.25
315.123	4.25
315.577	4.24
316.032	4.23
316.486	4.22
316.94	4.2
317.394	4.19
317.849	4.16
318.303	4.14
318.757	4.12
319.211	4.11
319.665	4.09
320.119	4.07
320.572	4.05
321.026	4.03
321.48	4.02
321.934	4.01
322.387	4
322.841	4
323.295	4
323.748	4
324.202	4
324.655	3.99
325.108	4
325.562	4
326.015	4.01
326.468	4.02
326.921	4.02
327.374	4.02
327.827	4.02
328.28	4.01
328.733	4.01
329.186	4.01
329.639	4.02
330.092	4.02
330.545	4.02
330.997	4.03
331.45	4.03
331.903	4.05
332.355	4.07
332.808	4.08
333.26	4.08
333.713	4.08
334.165	4.09
334.617	4.09
335.069	4.09
335.522	4.1
335.974	4.11
336.426	4.11
336.878	4.1
337.33	4.09
337.782	4.09
338.234	4.1
338.686	4.1
339.137	4.1
339.589	4.09
340.041	4.08
340.493	4.07
340.944	4.05
341.396	4.04
341.847	4.03
342.299	4
342.75	3.99
343.201	3.96
343.653	3.95
344.104	3.92
344.555	3.9
345.006	3.88
345.457	3.87
345.908	3.86
346.359	3.85
346.81	3.84
347.261	3.82
347.712	3.82
348.163	3.81
348.613	3.81
349.064	3.81
349.515	3.82
349.965	3.82
350.416	3.82
350.866	3.82
351.317	3.81
351.767	3.82
352.217	3.82
352.668	3.83
353.118	3.84
353.568	3.83
354.018	3.84
354.468	3.86
354.918	3.86
355.368	3.86
355.818	3.87
356.268	3.88
356.718	3.88
357.168	3.88
357.617	3.89
358.067	3.89
358.517	3.9
358.966	3.9
359.416	3.89
359.865	3.89
360.315	3.9
360.764	3.9
361.213	3.9
361.663	3.89
362.112	3.89
362.561	3.89
363.01	3.89
363.459	3.87
363.908	3.86
364.357	3.87
364.806	3.86
365.255	3.86
365.703	3.87
366.152	3.87
366.601	3.89
367.05	3.89
367.498	3.89
367.947	3.9
368.395	3.92
368.844	3.93
369.292	3.93
369.74	3.95
370.189	3.95
370.637	3.95
371.085	3.95
371.533	3.95
371.981	3.95
372.429	3.96
372.877	3.97
373.325	3.98
373.773	3.97
374.221	3.98
374.669	3.99
375.116	3.99
375.564	4
376.012	4.02
376.459	4.04
376.907	4.07
377.354	4.08
377.801	4.11
378.249	4.13
378.696	4.16
379.143	4.2
379.591	4.22
380.038	4.26
380.485	4.3
380.932	4.33
381.379	4.36
381.826	4.4
382.273	4.43
382.72	4.46
383.166	4.49
383.613	4.54
384.06	4.58
384.506	4.62
384.953	4.67
385.4	4.72
385.846	4.79
386.292	4.85
386.739	4.91
387.185	4.98
387.631	5.05
388.078	5.12
388.524	5.2
388.97	5.28
389.416	5.37
389.862	5.46
390.308	5.55
390.754	5.64
391.2	5.72
391.645	5.81
392.091	5.92
392.537	6.02
392.983	6.13
393.428	6.23
393.874	6.34
394.319	6.44
394.765	6.55
395.21	6.65
395.655	6.75
396.101	6.86
396.546	6.98
396.991	7.08
397.436	7.2
397.881	7.32
398.326	7.44
398.771	7.57
399.216	7.68
399.661	7.79
400.106	7.89
400.551	8
400.995	8.09
401.44	8.17
401.885	8.28
402.329	8.38
402.774	8.49
403.218	8.61
403.663	8.71
404.107	8.82
404.551	8.93
404.995	9.02
405.44	9.13
405.884	9.24
406.328	9.36
406.772	9.44
407.216	9.54
407.66	9.62
408.104	9.7
408.547	9.79
408.991	9.87
409.435	9.95
409.879	10.06
410.322	10.15
410.766	10.24
411.209	10.34
411.653	10.45
412.096	10.54
412.54	10.62
412.983	10.73
413.426	10.83
413.869	10.92
414.312	11.04
414.756	11.13
415.199	11.21
415.642	11.29
416.085	11.35
416.527	11.39
416.97	11.42
417.413	11.47
417.856	11.51
418.298	11.54
418.741	11.58
419.184	11.6
419.626	11.65
420.069	11.68
420.511	11.73
420.953	11.77
421.396	11.82
421.838	11.89
422.28	11.95
422.722	12
423.164	12.04
423.606	12.07
424.048	12.11
424.49	12.12
424.932	12.15
425.374	12.13
425.816	12.11
426.258	12.1
426.699	12.07
427.141	12.07
427.582	12.08
428.024	12.11
428.465	12.13
428.907	12.13
429.348	12.11
429.789	12.13
430.231	12.19
430.672	12.26
431.113	12.31
431.554	12.36
431.995	12.4
432.436	12.44
432.877	12.46
433.318	12.52
433.759	12.6
434.2	12.68
434.64	12.73
435.081	12.78
435.522	12.83
435.962	12.87
436.403	12.95
436.843	13.01
437.284	13.06
437.724	13.1
438.164	13.14
438.604	13.2
439.045	13.27
439.485	13.34
439.925	13.42
440.365	13.49
440.805	13.57
441.245	13.65
441.685	13.73
442.125	13.84
442.564	13.95
443.004	14.04
443.444	14.14
443.883	14.24
444.323	14.36
444.762	14.47
445.202	14.59
445.641	14.72
446.081	14.84
446.52	14.95
446.959	15.07
447.398	15.2
447.837	15.33
448.276	15.45
448.716	15.57
449.154	15.69
449.593	15.8
450.032	15.87
450.471	15.95
450.91	16
451.349	16.08
451.787	16.12
452.226	16.16
452.664	16.2
453.103	16.21
453.541	16.23
453.98	16.25
454.418	16.24
454.856	16.27
455.295	16.28
455.733	16.28
456.171	16.29
456.609	16.3
457.047	16.27
457.485	16.27
457.923	16.3
458.361	16.29
458.798	16.29
459.236	16.31
459.674	16.3
460.111	16.3
460.549	16.34
460.987	16.34
461.424	16.37
461.862	16.4
462.299	16.42
462.736	16.44
463.173	16.45
463.611	16.46
464.048	16.46
464.485	16.5
464.922	16.52
465.359	16.53
465.796	16.56
466.233	16.58
466.67	16.59
467.106	16.61
467.543	16.61
467.98	16.62
468.416	16.62
468.853	16.63
469.29	16.64
469.726	16.65
470.162	16.66
470.599	16.65
471.035	16.66
471.471	16.67
471.907	16.67
472.344	16.69
472.78	16.72
473.216	16.73
473.652	16.75
474.088	16.74
474.523	16.76
474.959	16.77
475.395	16.77
475.831	16.78
476.266	16.81
476.702	16.82
477.138	16.83
477.573	16.85
478.008	16.86
478.444	16.85
478.879	16.87
479.314	16.87
479.75	16.9
480.185	16.9
480.62	16.9
481.055	16.88
481.49	16.88
481.925	16.88
482.36	16.9
482.795	16.92
483.229	16.95
483.664	16.96
484.099	16.97
484.534	17.01
484.968	17.05
485.403	17.11
485.837	17.15
486.271	17.21
486.706	17.26
487.14	17.32
487.574	17.41
488.009	17.48
488.443	17.56
488.877	17.67
489.311	17.76
489.745	17.88
490.179	17.99
490.613	18.11
491.046	18.24
491.48	18.37
491.914	18.5
492.348	18.64
492.781	18.79
493.215	18.95
493.648	19.1
494.082	19.26
494.515	19.41
494.948	19.57
495.382	19.74
495.815	19.92
496.248	20.12
496.681	20.31
497.114	20.49
497.547	20.69
497.98	20.9
498.413	21.1
498.846	21.32
499.279	21.54
499.711	21.76
500.144	21.99
500.577	22.23
501.009	22.45
501.442	22.7
501.874	22.97
502.306	23.22
502.739	23.5
503.171	23.76
503.603	24.03
504.036	24.32
504.468	24.61
504.9	24.89
505.332	25.19
505.764	25.49
506.196	25.81
506.627	26.11
507.059	26.43
507.491	26.74
507.923	27.08
508.354	27.42
508.786	27.74
509.217	28.09
509.649	28.44
510.08	28.77
510.512	29.12
510.943	29.45
511.374	29.79
511.805	30.14
512.237	30.48
512.668	30.83
513.099	31.16
513.53	31.51
513.961	31.85
514.391	32.19
514.822	32.54
515.253	32.87
515.684	33.17
516.114	33.5
516.545	33.81
516.975	34.13
517.406	34.45
517.836	34.74
518.267	35.05
518.697	35.33
519.127	35.61
519.558	35.88
519.988	36.16
520.418	36.44
520.848	36.7
521.278	36.95
521.708	37.38
522.138	37.62
522.567	37.88
522.997	38.1
523.427	38.33
523.857	38.55
524.286	38.76
524.716	38.96
525.145	39.16
525.575	39.36
526.004	39.56
526.433	39.56
526.863	39.72
527.292	39.89
527.721	40.03
528.15	40.18
528.579	40.3
529.008	40.45
529.437	40.58
529.866	40.7
530.295	40.82
530.724	40.94
531.152	41.05
531.581	41.18
532.01	41.29
532.438	41.41
532.867	41.51
533.295	41.61
533.723	41.71
534.152	41.79
534.58	41.86
535.008	41.93
535.436	42
535.865	42.07
536.293	42.12
536.721	42.18
537.149	42.25
537.576	42.3
538.004	42.37
538.432	42.42
538.86	42.49
539.287	42.54
539.715	42.6
540.143	42.65
540.57	42.69
540.998	42.72
541.425	42.74
541.852	42.76
542.28	42.81
542.707	42.84
543.134	42.88
543.561	42.89
543.988	42.94
544.415	42.94
544.842	42.95
545.269	42.97
545.696	43.02
546.123	43.05
546.549	43.09
546.976	43.1
547.403	43.13
547.829	43.13
548.256	43.16
548.682	43.17
549.108	43.21
549.535	43.26
549.961	43.29
550.387	43.29
550.813	43.31
551.24	43.31
551.666	43.32
552.092	43.34
552.518	43.36
552.943	43.35
553.369	43.37
553.795	43.38
554.221	43.38
554.646	43.39
555.072	43.38
555.498	43.35
555.923	43.34
556.349	43.31
556.774	43.28
557.199	43.26
557.625	43.22
558.05	43.18
558.475	43.14
558.9	43.11
559.325	43.06
559.75	43.01
560.175	42.97
560.6	42.91
561.025	42.86
561.449	42.78
561.874	42.71
562.299	42.64
562.723	42.57
563.148	42.47
563.572	42.36
563.997	42.28
564.421	42.17
564.846	42.07
565.27	41.97
565.694	41.85
566.118	41.75
566.542	41.67
566.966	41.54
567.39	41.45
567.814	41.34
568.238	41.25
568.662	41.15
569.086	41.07
569.509	40.98
569.933	40.9
570.357	40.81
570.78	40.73
571.204	40.6
571.627	40.53
572.05	40.42
572.474	40.34
572.897	40.24
573.32	40.14
573.743	40.03
574.166	39.94
574.589	39.86
575.012	39.77
575.435	39.68
575.858	39.63
576.281	39.55
576.704	39.48
577.126	39.4
577.549	39.32
577.972	39.25
578.394	39.19
578.817	39.13
579.239	39.05
579.661	38.99
580.084	38.92
580.506	38.84
580.928	38.78
581.35	38.73
581.772	38.66
582.194	38.59
582.616	38.54
583.038	38.48
583.46	38.39
583.882	38.33
584.303	38.27
584.725	38.23
585.147	38.18
585.568	38.12
585.99	38.06
586.411	38.01
586.833	37.96
587.254	37.92
587.675	37.85
588.096	37.82
588.518	37.77
588.939	37.73
589.36	37.67
589.781	37.63
590.202	37.6
590.623	37.54
591.043	37.48
591.464	37.44
591.885	37.39
592.305	37.36
592.726	37.34
593.147	37.31
593.567	37.27
593.987	37.23
594.408	37.18
594.828	37.15
595.248	37.13
595.669	37.11
596.089	37.07
596.509	37.05
596.929	37
597.349	36.94
597.769	36.9
598.189	36.85
598.608	36.84
599.028	36.79
599.448	36.75
599.867	36.72
600.287	36.7
600.706	36.65
601.126	36.59
601.545	36.56
601.965	36.52
602.384	36.5
602.803	36.45
603.222	36.37
603.641	36.32
604.061	36.27
604.48	36.2
604.898	36.12
605.317	36.07
605.736	36.01
606.155	35.94
606.574	35.87
606.992	35.78
607.411	35.72
607.829	35.64
608.248	35.56
608.666	35.47
609.085	35.39
609.503	35.31
609.921	35.22
610.339	35.15
610.758	35.07
611.176	34.99
611.594	34.91
612.012	34.82
612.43	34.75
612.847	34.69
613.265	34.6
613.683	34.52
614.101	34.45
614.518	34.35
614.936	34.27
615.353	34.16
615.771	34.1
616.188	34.02
616.606	33.96
617.023	33.87
617.44	33.83
617.857	33.77
618.274	33.71
618.691	33.63
619.108	33.57
619.525	33.52
619.942	33.49
620.359	33.42
620.776	33.37
621.192	33.32
621.609	33.29
622.026	33.24
622.442	33.2
622.859	33.16
623.275	33.13
623.691	33.12
624.108	33.09
624.524	33.07
624.94	33.06
625.356	33.05
625.772	33.05
626.188	33.03
626.604	32.99
627.02	32.99
627.436	32.99
627.852	32.99
628.268	32.97
628.683	32.96
629.099	32.96
629.514	32.93
629.93	32.92
630.345	32.89
630.761	32.86
631.176	32.83
631.591	32.8
632.007	32.76
632.422	32.7
632.837	32.66
633.252	32.6
633.667	32.53
634.082	32.44
634.497	32.37
634.911	32.28
635.326	32.2
635.741	32.11
636.155	32
636.57	31.88
636.984	31.76
637.399	31.62
637.813	31.48
638.228	31.33
638.642	31.17
639.056	31.02
639.47	30.86
639.884	30.67
640.298	30.49
640.712	30.31
641.126	30.12
641.54	29.93
641.954	29.74
642.368	29.55
642.781	29.37
643.195	29.2
643.609	28.99
644.022	28.8
644.436	28.63
644.849	28.45
645.262	28.28
645.676	28.12
646.089	27.97
646.502	27.81
646.915	27.68
647.328	27.54
647.741	27.41
648.154	27.3
648.567	27.19
648.98	27.09
649.393	26.98
649.805	26.9
650.218	26.81
650.631	26.71
651.043	26.61
651.456	26.51
651.868	26.41
652.28	26.31
652.693	26.22
653.105	26.09
653.517	25.97
653.929	25.87
654.341	25.72
654.753	25.58
655.165	25.43
655.577	25.3
655.989	25.13
656.401	24.97
656.813	24.79
657.224	24.59
657.636	24.4
658.047	24.19
658.459	23.94
658.87	23.7
659.282	23.45
659.693	23.22
660.104	22.96
660.515	22.71
660.926	22.44
661.338	22.18
661.749	21.93
662.159	21.67
662.57	21.44
662.981	21.21
663.392	20.99
663.803	20.77
664.213	20.54
664.624	20.33
665.035	20.14
665.445	19.95
665.855	19.75
666.266	19.57
666.676	19.41
667.086	19.21
667.497	19.04
667.907	18.88
668.317	18.74
668.727	18.62
669.137	18.49
669.547	18.36
669.956	18.24
670.366	18.15
670.776	18.06
671.186	17.96
671.595	17.9
672.005	17.83
672.414	17.78
672.824	17.73
673.233	17.67
673.642	17.64
674.052	17.61
674.461	17.58
674.87	17.56
675.279	17.56
675.688	17.56
676.097	17.59
676.506	17.64
676.915	17.67
677.323	17.72
677.732	17.8
678.141	17.91
678.549	18.02
678.958	18.19
679.366	18.37
679.775	18.55
680.183	18.8
680.592	19.05
681	19.34
681.408	19.67
681.816	20.02
682.224	20.41
682.632	20.82
683.04	21.27
683.448	21.75
683.856	22.25
684.264	22.81
684.671	23.37
685.079	23.98
685.487	24.6
685.894	25.26
686.302	25.95
686.709	26.64
687.116	27.36
687.524	28.1
687.931	28.82
688.338	29.57
688.745	30.31
689.152	31.05
689.559	31.78
689.966	32.53
690.373	33.26
690.78	33.98
691.187	34.68
691.593	35.36
692	36.03
692.407	36.69
692.813	37.32
693.22	37.93
693.626	38.52
694.032	39.11
694.439	39.68
694.845	40.23
695.251	40.77
695.657	41.27
696.063	41.77
696.469	42.27
696.875	42.75
697.281	43.21
697.687	43.64
698.093	44.06
698.498	44.46
698.904	44.85
699.31	45.22
699.715	45.59
700.12	45.95
700.526	46.29
700.931	46.59
701.337	46.87
701.742	47.16
702.147	47.46
702.552	47.75
702.957	48
703.362	48.24
703.767	48.47
704.172	48.69
704.577	48.9
704.981	49.1
705.386	49.32
705.791	49.53
706.195	49.72
706.6	49.93
707.004	50.09
707.408	50.28
707.813	50.48
708.217	50.65
708.621	50.82
709.025	50.97
709.43	51.1
709.834	51.25
710.237	51.38
710.641	51.51
711.045	51.63
711.449	51.78
711.853	51.93
712.256	52.03
712.66	52.15
713.064	52.26
713.467	52.39
713.87	52.53
714.274	52.61
714.677	52.78
715.08	52.91
715.484	53.02
715.887	53.13
716.29	53.21
716.693	53.32
717.096	53.43
717.499	53.53
717.901	53.62
718.304	53.71
718.707	53.83
719.109	53.89
719.512	53.96
719.915	54.06
720.317	54.12
720.719	54.19
721.122	54.26
721.524	54.33
721.926	54.42
722.328	54.51
722.731	54.59
723.133	54.68
723.535	54.75
723.937	54.82
724.338	54.84
724.74	54.91
725.142	55.07
725.544	55.12
725.945	55.18
726.347	55.19
726.748	55.22
727.15	55.21
727.551	55.25
727.952	55.27
728.354	55.3
728.755	55.33
729.156	55.33
729.557	55.25
729.958	55.28
730.359	55.27
730.76	55.3
731.161	55.35
731.562	55.42
731.962	55.41
732.363	55.43
732.763	55.45
733.164	55.48
733.564	55.51
733.965	55.54
734.365	55.55
734.766	55.57
735.166	55.6
735.566	55.6
735.966	55.62
736.366	55.64
736.766	55.66
737.166	55.7
737.566	55.75
737.966	55.76
738.365	55.8
738.765	55.84
739.165	55.86
739.564	55.88
739.964	55.89
740.363	55.85
740.763	55.88
741.162	55.89
741.561	55.87
741.96	55.85
742.36	55.88
742.759	55.86
743.158	55.85
743.557	55.83
743.955	55.86
744.354	55.86
744.753	55.9
745.152	55.9
745.55	55.91
745.949	55.92
746.348	55.95
746.746	55.92
747.144	55.95
747.543	55.94
747.941	55.98
748.339	55.94
748.737	55.96
749.136	55.95
749.534	55.94
749.932	55.91
750.33	55.9
750.727	55.88
751.125	55.88
751.523	55.84
751.921	55.85
752.318	55.82
752.716	55.84
753.113	55.81
753.511	55.8
753.908	55.8
754.305	55.82
754.703	55.82
755.1	55.83
755.497	55.81
755.894	55.82
756.291	55.81
756.688	55.81
757.085	55.83
757.482	55.84
757.878	55.86
758.275	55.86
758.672	55.86
759.068	55.87
759.465	55.88
759.861	55.92
760.258	55.92
760.654	55.95
761.05	55.97
761.447	55.96
761.843	55.97
762.239	55.96
762.635	55.97
763.031	55.97
763.427	55.96
763.822	55.97
764.218	55.98
764.614	56
765.01	55.97
765.405	55.95
765.801	55.94
766.196	55.95
766.592	55.94
766.987	55.95
767.382	55.93
767.778	55.95
768.173	55.93
768.568	55.93
768.963	55.92
769.358	55.93
769.753	55.96
770.148	55.99
770.542	55.99
770.937	56.01
771.332	56.02
771.726	56.04
772.121	56.04
772.515	56.04
772.91	56.04
