Data from C_2_DEC_NC_4N_Splice17_13-28-24-443.txt Node
Date: Sat Mar 07 13:28:24 EST 2020
User: sa697716
Spectrometer: NQ5500242
Trigger mode: 0
Integration Time (sec): 1.450000E-1
Scans to average: 20
Nonlinearity correction enabled: false
Boxcar width: 5
Storing dark spectrum: false
XAxis mode: Wavelengths
Number of Pixels in Spectrum: 512
>>>>>Begin Spectral Data<<<<<
187.83	128.53
188.298	123.74
188.766	102.83
189.233	82.91
189.701	97.24
190.169	113.83
190.636	94.34
191.104	112.11
191.571	85.98
192.039	-191.65
192.506	331.17
192.974	-115.26
193.441	-149.09
193.908	-79.71
194.375	-88.01
194.842	-31.43
195.31	28.17
195.777	81.87
196.244	48.79
196.711	48.26
197.177	47.94
197.644	48.05
198.111	48.3
198.578	47.72
199.045	47.85
199.511	47.89
199.978	47.42
200.445	47.46
200.911	47
201.378	46.91
201.844	46.89
202.31	46.37
202.777	46.28
203.243	46.02
203.709	45.81
204.176	45.28
204.642	45.05
205.108	44.77
205.574	44.09
206.04	43.56
206.506	43.51
206.972	43.05
207.438	42.67
207.903	41.83
208.369	40.87
208.835	39.99
209.301	39.05
209.766	37.76
210.232	36.56
210.697	35.46
211.163	34.75
211.628	33.76
212.094	33.03
212.559	32.4
213.024	31.78
213.49	31
213.955	30.29
214.42	29.43
214.885	28.51
215.35	27.48
215.815	26.12
216.28	24.23
216.745	22.17
217.21	20.12
217.675	18.24
218.14	16.61
218.604	15.33
219.069	14.16
219.534	13.21
219.998	12.4
220.463	11.71
220.927	11.08
221.392	10.62
221.856	10.22
222.32	9.89
222.785	9.62
223.249	9.37
223.713	9.12
224.177	8.94
224.642	8.76
225.106	8.58
225.57	8.39
226.034	8.26
226.497	8.11
226.961	7.98
227.425	7.85
227.889	7.71
228.353	7.58
228.816	7.46
229.28	7.34
229.744	7.23
230.207	7.12
230.671	7.02
231.134	6.92
231.597	6.86
232.061	6.78
232.524	6.7
232.987	6.62
233.45	6.57
233.914	6.48
234.377	6.41
234.84	6.33
235.303	6.29
235.766	6.24
236.229	6.18
236.691	6.1
237.154	6.04
237.617	5.98
238.08	5.93
238.542	5.86
239.005	5.82
239.468	5.76
239.93	5.73
240.393	5.68
240.855	5.62
241.317	5.57
241.78	5.53
242.242	5.47
242.704	5.43
243.166	5.39
243.629	5.36
244.091	5.32
244.553	5.29
245.015	5.23
245.477	5.19
245.939	5.15
246.4	5.12
246.862	5.07
247.324	5.03
247.786	4.98
248.247	4.93
248.709	4.88
249.17	4.83
249.632	4.79
250.093	4.76
250.555	4.72
251.016	4.69
251.477	4.65
251.939	4.63
252.4	4.61
252.861	4.59
253.322	4.57
253.783	4.55
254.244	4.53
254.705	4.5
255.166	4.47
255.627	4.45
256.088	4.43
256.549	4.41
257.009	4.39
257.47	4.36
257.931	4.33
258.391	4.3
258.852	4.27
259.312	4.24
259.773	4.22
260.233	4.2
260.694	4.18
261.154	4.14
261.614	4.13
262.074	4.1
262.534	4.08
262.994	4.06
263.455	4.05
263.915	4.03
264.374	4.01
264.834	4
265.294	3.98
265.754	3.97
266.214	3.96
266.673	3.95
267.133	3.94
267.593	3.93
268.052	3.92
268.512	3.92
268.971	3.91
269.431	3.9
269.89	3.89
270.349	3.89
270.809	3.89
271.268	3.88
271.727	3.87
272.186	3.87
272.645	3.87
273.104	3.85
273.563	3.85
274.022	3.85
274.481	3.85
274.94	3.84
275.399	3.83
275.857	3.82
276.316	3.82
276.775	3.81
277.233	3.81
277.692	3.8
278.15	3.8
278.609	3.8
279.067	3.79
279.525	3.79
279.984	3.79
280.442	3.79
280.9	3.8
281.358	3.79
281.816	3.79
282.274	3.79
282.732	3.79
283.19	3.78
283.648	3.77
284.106	3.76
284.564	3.75
285.021	3.75
285.479	3.75
285.937	3.74
286.394	3.73
286.852	3.72
287.309	3.72
287.767	3.71
288.224	3.7
288.682	3.69
289.139	3.68
289.596	3.66
290.053	3.64
290.511	3.62
290.968	3.61
291.425	3.59
291.882	3.58
292.339	3.57
292.796	3.56
293.252	3.56
293.709	3.55
294.166	3.55
294.623	3.54
295.079	3.54
295.536	3.54
295.992	3.53
296.449	3.53
296.905	3.53
297.362	3.53
297.818	3.52
298.274	3.52
298.731	3.51
299.187	3.5
299.643	3.49
300.099	3.49
300.555	3.48
301.011	3.48
301.467	3.48
301.923	3.46
302.379	3.46
302.835	3.46
303.291	3.46
303.746	3.46
304.202	3.46
304.658	3.46
305.113	3.45
305.569	3.45
306.024	3.44
306.479	3.44
306.935	3.43
307.39	3.43
307.845	3.43
308.301	3.43
308.756	3.42
309.211	3.42
309.666	3.43
310.121	3.43
310.576	3.43
311.031	3.43
311.486	3.43
311.94	3.44
312.395	3.44
312.85	3.44
313.305	3.44
313.759	3.44
314.214	3.43
314.668	3.42
315.123	3.42
315.577	3.42
316.032	3.42
316.486	3.41
316.94	3.4
317.394	3.4
317.849	3.38
318.303	3.38
318.757	3.36
319.211	3.36
319.665	3.35
320.119	3.33
320.572	3.32
321.026	3.32
321.48	3.31
321.934	3.3
322.387	3.3
322.841	3.29
323.295	3.29
323.748	3.29
324.202	3.28
324.655	3.28
325.108	3.29
325.562	3.29
326.015	3.28
326.468	3.28
326.921	3.27
327.374	3.27
327.827	3.27
328.28	3.26
328.733	3.26
329.186	3.26
329.639	3.27
330.092	3.27
330.545	3.26
330.997	3.27
331.45	3.28
331.903	3.29
332.355	3.29
332.808	3.29
333.26	3.29
333.713	3.29
334.165	3.28
334.617	3.27
335.069	3.26
335.522	3.26
335.974	3.26
336.426	3.24
336.878	3.23
337.33	3.23
337.782	3.22
338.234	3.23
338.686	3.23
339.137	3.24
339.589	3.23
340.041	3.23
340.493	3.22
340.944	3.21
341.396	3.21
341.847	3.2
342.299	3.19
342.75	3.19
343.201	3.18
343.653	3.17
344.104	3.15
344.555	3.14
345.006	3.13
345.457	3.13
345.908	3.12
346.359	3.12
346.81	3.12
347.261	3.12
347.712	3.11
348.163	3.1
348.613	3.1
349.064	3.11
349.515	3.11
349.965	3.11
350.416	3.1
350.866	3.1
351.317	3.1
351.767	3.09
352.217	3.09
352.668	3.09
353.118	3.1
353.568	3.08
354.018	3.08
354.468	3.09
354.918	3.09
355.368	3.1
355.818	3.1
356.268	3.1
356.718	3.1
357.168	3.09
357.617	3.09
358.067	3.09
358.517	3.1
358.966	3.11
359.416	3.1
359.865	3.1
360.315	3.1
360.764	3.11
361.213	3.1
361.663	3.1
362.112	3.11
362.561	3.11
363.01	3.11
363.459	3.1
363.908	3.1
364.357	3.1
364.806	3.09
365.255	3.09
365.703	3.09
366.152	3.11
366.601	3.11
367.05	3.1
367.498	3.09
367.947	3.1
368.395	3.1
368.844	3.1
369.292	3.08
369.74	3.09
370.189	3.09
370.637	3.09
371.085	3.08
371.533	3.08
371.981	3.08
372.429	3.08
372.877	3.08
373.325	3.08
373.773	3.08
374.221	3.08
374.669	3.08
375.116	3.06
375.564	3.06
376.012	3.07
376.459	3.07
376.907	3.07
377.354	3.07
377.801	3.07
378.249	3.07
378.696	3.08
379.143	3.08
379.591	3.08
380.038	3.09
380.485	3.09
380.932	3.09
381.379	3.1
381.826	3.1
382.273	3.1
382.72	3.1
383.166	3.09
383.613	3.09
384.06	3.08
384.506	3.09
384.953	3.09
385.4	3.09
385.846	3.11
386.292	3.1
386.739	3.11
387.185	3.11
387.631	3.13
388.078	3.14
388.524	3.15
388.97	3.16
389.416	3.17
389.862	3.19
390.308	3.2
390.754	3.22
391.2	3.24
391.645	3.26
392.091	3.28
392.537	3.3
392.983	3.31
393.428	3.33
393.874	3.36
394.319	3.38
394.765	3.38
395.21	3.39
395.655	3.41
396.101	3.43
396.546	3.44
396.991	3.47
397.436	3.49
397.881	3.52
398.326	3.54
398.771	3.56
399.216	3.57
399.661	3.61
400.106	3.64
400.551	3.65
400.995	3.67
401.44	3.68
401.885	3.69
402.329	3.71
402.774	3.72
403.218	3.74
403.663	3.76
404.107	3.78
404.551	3.79
404.995	3.79
405.44	3.8
405.884	3.81
406.328	3.84
406.772	3.86
407.216	3.87
407.66	3.88
408.104	3.88
408.547	3.89
408.991	3.91
409.435	3.92
409.879	3.95
410.322	3.97
410.766	3.99
411.209	4.01
411.653	4.02
412.096	4.04
412.54	4.06
412.983	4.08
413.426	4.12
413.869	4.14
414.312	4.17
414.756	4.18
415.199	4.19
415.642	4.2
416.085	4.21
416.527	4.2
416.97	4.19
417.413	4.19
417.856	4.2
418.298	4.19
418.741	4.18
419.184	4.17
419.626	4.17
420.069	4.18
420.511	4.18
420.953	4.19
421.396	4.21
421.838	4.23
422.28	4.25
422.722	4.27
423.164	4.27
423.606	4.29
424.048	4.3
424.49	4.3
424.932	4.29
425.374	4.28
425.816	4.26
426.258	4.24
426.699	4.22
427.141	4.23
427.582	4.22
428.024	4.23
428.465	4.22
428.907	4.22
429.348	4.22
429.789	4.22
430.231	4.25
430.672	4.27
431.113	4.3
431.554	4.32
431.995	4.33
432.436	4.33
432.877	4.35
433.318	4.37
433.759	4.39
434.2	4.42
434.64	4.44
435.081	4.45
435.522	4.46
435.962	4.48
436.403	4.5
436.843	4.5
437.284	4.51
437.724	4.51
438.164	4.49
438.604	4.51
439.045	4.5
439.485	4.51
439.925	4.51
440.365	4.52
440.805	4.51
441.245	4.53
441.685	4.56
442.125	4.58
442.564	4.59
443.004	4.6
443.444	4.61
443.883	4.63
444.323	4.64
444.762	4.64
445.202	4.66
445.641	4.67
446.081	4.67
446.52	4.67
446.959	4.71
447.398	4.74
447.837	4.77
448.276	4.78
448.716	4.79
449.154	4.84
449.593	4.87
450.032	4.88
450.471	4.89
450.91	4.9
451.349	4.92
451.787	4.9
452.226	4.89
452.664	4.9
453.103	4.89
453.541	4.9
453.98	4.88
454.418	4.86
454.856	4.86
455.295	4.85
455.733	4.84
456.171	4.83
456.609	4.82
457.047	4.82
457.485	4.81
457.923	4.8
458.361	4.8
458.798	4.79
459.236	4.79
459.674	4.78
460.111	4.78
460.549	4.8
460.987	4.79
461.424	4.8
461.862	4.8
462.299	4.81
462.736	4.81
463.173	4.81
463.611	4.82
464.048	4.83
464.485	4.84
464.922	4.85
465.359	4.85
465.796	4.87
466.233	4.86
466.67	4.87
467.106	4.87
467.543	4.87
467.98	4.87
468.416	4.87
468.853	4.87
469.29	4.87
469.726	4.86
470.162	4.86
470.599	4.85
471.035	4.85
471.471	4.84
471.907	4.83
472.344	4.85
472.78	4.85
473.216	4.84
473.652	4.85
474.088	4.84
474.523	4.85
474.959	4.84
475.395	4.84
475.831	4.84
476.266	4.84
476.702	4.83
477.138	4.82
477.573	4.82
478.008	4.83
478.444	4.81
478.879	4.81
479.314	4.8
479.75	4.8
480.185	4.78
480.62	4.77
481.055	4.78
481.49	4.77
481.925	4.77
482.36	4.76
482.795	4.75
483.229	4.75
483.664	4.76
484.099	4.76
484.534	4.76
484.968	4.78
485.403	4.79
485.837	4.79
486.271	4.82
486.706	4.83
487.14	4.85
487.574	4.86
488.009	4.89
488.443	4.91
488.877	4.94
489.311	4.97
489.745	4.99
490.179	5.03
490.613	5.06
491.046	5.09
491.48	5.13
491.914	5.17
492.348	5.22
492.781	5.27
493.215	5.32
493.648	5.37
494.082	5.43
494.515	5.49
494.948	5.55
495.382	5.61
495.815	5.68
496.248	5.76
496.681	5.84
497.114	5.91
497.547	5.98
497.98	6.07
498.413	6.16
498.846	6.25
499.279	6.34
499.711	6.44
500.144	6.55
500.577	6.67
501.009	6.78
501.442	6.89
501.874	7.03
502.306	7.16
502.739	7.31
503.171	7.45
503.603	7.6
504.036	7.76
504.468	7.92
504.9	8.08
505.332	8.25
505.764	8.43
506.196	8.61
506.627	8.8
507.059	8.99
507.491	9.18
507.923	9.38
508.354	9.6
508.786	9.82
509.217	10.04
509.649	10.27
510.08	10.5
510.512	10.74
510.943	10.98
511.374	11.21
511.805	11.46
512.237	11.71
512.668	11.97
513.099	12.22
513.53	12.49
513.961	12.75
514.391	13.02
514.822	13.31
515.253	13.57
515.684	13.85
516.114	14.14
516.545	14.43
516.975	14.7
517.406	14.97
517.836	15.26
518.267	15.53
518.697	15.81
519.127	16.07
519.558	16.33
519.988	16.61
520.418	16.87
520.848	17.11
521.278	17.36
521.708	17.79
522.138	18.04
522.567	18.27
522.997	18.49
523.427	18.73
523.857	18.96
524.286	19.16
524.716	19.38
525.145	19.59
525.575	19.79
526.004	19.99
526.433	20.01
526.863	20.19
527.292	20.38
527.721	20.56
528.15	20.7
528.579	20.86
529.008	21.03
529.437	21.17
529.866	21.3
530.295	21.45
530.724	21.58
531.152	21.7
531.581	21.82
532.01	21.92
532.438	22.03
532.867	22.14
533.295	22.23
533.723	22.32
534.152	22.4
534.58	22.48
535.008	22.53
535.436	22.6
535.865	22.66
536.293	22.73
536.721	22.79
537.149	22.84
537.576	22.88
538.004	22.93
538.432	22.97
538.86	23.02
539.287	23.04
539.715	23.1
540.143	23.12
540.57	23.14
540.998	23.17
541.425	23.21
541.852	23.23
542.28	23.27
542.707	23.3
543.134	23.32
543.561	23.35
543.988	23.39
544.415	23.39
544.842	23.42
545.269	23.45
545.696	23.48
546.123	23.49
546.549	23.51
546.976	23.53
547.403	23.56
547.829	23.57
548.256	23.58
548.682	23.58
549.108	23.62
549.535	23.63
549.961	23.63
550.387	23.63
550.813	23.63
551.24	23.62
551.666	23.61
552.092	23.59
552.518	23.59
552.943	23.58
553.369	23.56
553.795	23.53
554.221	23.5
554.646	23.46
555.072	23.45
555.498	23.4
555.923	23.36
556.349	23.32
556.774	23.26
557.199	23.21
557.625	23.14
558.05	23.09
558.475	23.02
558.9	22.96
559.325	22.92
559.75	22.83
560.175	22.77
560.6	22.7
561.025	22.61
561.449	22.51
561.874	22.4
562.299	22.32
562.723	22.22
563.148	22.11
563.572	21.99
563.997	21.86
564.421	21.74
564.846	21.61
565.27	21.49
565.694	21.36
566.118	21.24
566.542	21.12
566.966	20.98
567.39	20.86
567.814	20.73
568.238	20.61
568.662	20.48
569.086	20.34
569.509	20.21
569.933	20.07
570.357	19.94
570.78	19.8
571.204	19.66
571.627	19.54
572.05	19.4
572.474	19.3
572.897	19.18
573.32	19.06
573.743	18.94
574.166	18.83
574.589	18.73
575.012	18.62
575.435	18.53
575.858	18.42
576.281	18.3
576.704	18.22
577.126	18.11
577.549	18.01
577.972	17.91
578.394	17.81
578.817	17.73
579.239	17.63
579.661	17.56
580.084	17.47
580.506	17.4
580.928	17.32
581.35	17.22
581.772	17.16
582.194	17.09
582.616	17.02
583.038	16.95
583.46	16.87
583.882	16.8
584.303	16.72
584.725	16.65
585.147	16.57
585.568	16.51
585.99	16.46
586.411	16.38
586.833	16.32
587.254	16.27
587.675	16.21
588.096	16.15
588.518	16.11
588.939	16.07
589.36	16.02
589.781	15.97
590.202	15.95
590.623	15.9
591.043	15.87
591.464	15.82
591.885	15.79
592.305	15.77
592.726	15.74
593.147	15.69
593.567	15.65
593.987	15.61
594.408	15.57
594.828	15.52
595.248	15.5
595.669	15.47
596.089	15.43
596.509	15.39
596.929	15.35
597.349	15.3
597.769	15.27
598.189	15.23
598.608	15.19
599.028	15.17
599.448	15.14
599.867	15.09
600.287	15.05
600.706	15.01
601.126	14.98
601.545	14.94
601.965	14.92
602.384	14.88
602.803	14.84
603.222	14.79
603.641	14.74
604.061	14.68
604.48	14.62
604.898	14.57
605.317	14.5
605.736	14.43
606.155	14.37
606.574	14.29
606.992	14.21
607.411	14.14
607.829	14.04
608.248	13.97
608.666	13.89
609.085	13.82
609.503	13.74
609.921	13.67
610.339	13.61
610.758	13.53
611.176	13.45
611.594	13.38
612.012	13.31
612.43	13.26
612.847	13.19
613.265	13.12
613.683	13.05
614.101	12.99
614.518	12.91
614.936	12.84
615.353	12.75
615.771	12.69
616.188	12.63
616.606	12.58
617.023	12.52
617.44	12.47
617.857	12.41
618.274	12.36
618.691	12.31
619.108	12.26
619.525	12.22
619.942	12.2
620.359	12.17
620.776	12.12
621.192	12.09
621.609	12.07
622.026	12.02
622.442	11.99
622.859	11.97
623.275	11.95
623.691	11.94
624.108	11.91
624.524	11.89
624.94	11.88
625.356	11.88
625.772	11.85
626.188	11.84
626.604	11.84
627.02	11.84
627.436	11.84
627.852	11.83
628.268	11.83
628.683	11.81
629.099	11.8
629.514	11.79
629.93	11.76
630.345	11.74
630.761	11.7
631.176	11.66
631.591	11.62
632.007	11.57
632.422	11.53
632.837	11.47
633.252	11.41
633.667	11.34
634.082	11.26
634.497	11.19
634.911	11.12
635.326	11.04
635.741	10.97
636.155	10.87
636.57	10.78
636.984	10.67
637.399	10.57
637.813	10.47
638.228	10.36
638.642	10.24
639.056	10.13
639.47	10.01
639.884	9.88
640.298	9.76
640.712	9.63
641.126	9.51
641.54	9.38
641.954	9.24
642.368	9.13
642.781	9.03
643.195	8.91
643.609	8.79
644.022	8.68
644.436	8.59
644.849	8.48
645.262	8.38
645.676	8.28
646.089	8.2
646.502	8.12
646.915	8.04
647.328	7.95
647.741	7.89
648.154	7.83
648.567	7.77
648.98	7.72
649.393	7.68
649.805	7.63
650.218	7.59
650.631	7.56
651.043	7.52
651.456	7.49
651.868	7.44
652.28	7.39
652.693	7.35
653.105	7.3
653.517	7.24
653.929	7.19
654.341	7.13
654.753	7.06
655.165	7
655.577	6.93
655.989	6.86
656.401	6.79
656.813	6.74
657.224	6.66
657.636	6.57
658.047	6.49
658.459	6.41
658.87	6.32
659.282	6.23
659.693	6.14
660.104	6.05
660.515	5.96
660.926	5.87
661.338	5.77
661.749	5.69
662.159	5.62
662.57	5.55
662.981	5.47
663.392	5.4
663.803	5.34
664.213	5.28
664.624	5.22
665.035	5.17
665.445	5.12
665.855	5.07
666.266	5.03
666.676	5
667.086	4.96
667.497	4.93
667.907	4.91
668.317	4.88
668.727	4.86
669.137	4.84
669.547	4.82
669.956	4.81
670.366	4.81
670.776	4.79
671.186	4.78
671.595	4.77
672.005	4.76
672.414	4.76
672.824	4.77
673.233	4.77
673.642	4.78
674.052	4.79
674.461	4.8
674.87	4.8
675.279	4.84
675.688	4.86
676.097	4.89
676.506	4.91
676.915	4.94
677.323	4.96
677.732	4.99
678.141	5.03
678.549	5.08
678.958	5.12
679.366	5.19
679.775	5.24
680.183	5.31
680.592	5.39
681	5.47
681.408	5.57
681.816	5.69
682.224	5.8
682.632	5.94
683.04	6.09
683.448	6.25
683.856	6.42
684.264	6.62
684.671	6.82
685.079	7.05
685.487	7.3
685.894	7.58
686.302	7.88
686.709	8.2
687.116	8.54
687.524	8.9
687.931	9.3
688.338	9.71
688.745	10.14
689.152	10.59
689.559	11.08
689.966	11.58
690.373	12.08
690.78	12.58
691.187	13.11
691.593	13.65
692	14.19
692.407	14.72
692.813	15.28
693.22	15.83
693.626	16.38
694.032	16.93
694.439	17.48
694.845	18.02
695.251	18.57
695.657	19.1
696.063	19.63
696.469	20.16
696.875	20.69
697.281	21.21
697.687	21.72
698.093	22.23
698.498	22.73
698.904	23.22
699.31	23.7
699.715	24.18
700.12	24.66
700.526	25.11
700.931	25.57
701.337	26.02
701.742	26.45
702.147	26.89
702.552	27.29
702.957	27.66
703.362	28.04
703.767	28.42
704.172	28.78
704.577	29.14
704.981	29.5
705.386	29.86
705.791	30.19
706.195	30.53
706.6	30.84
707.004	31.15
707.408	31.47
707.813	31.8
708.217	32.11
708.621	32.42
709.025	32.7
709.43	32.97
709.834	33.24
710.237	33.5
710.641	33.76
711.045	34.03
711.449	34.28
711.853	34.56
712.256	34.8
712.66	35.03
713.064	35.25
713.467	35.48
713.87	35.72
714.274	35.92
714.677	36.15
715.08	36.35
715.484	36.56
715.887	36.78
716.29	36.94
716.693	37.15
717.096	37.35
717.499	37.55
717.901	37.75
718.304	37.94
718.707	38.13
719.109	38.31
719.512	38.48
719.915	38.65
720.317	38.8
720.719	38.95
721.122	39.11
721.524	39.23
721.926	39.37
722.328	39.51
722.731	39.64
723.133	39.77
723.535	39.88
723.937	40.02
724.338	40.13
724.74	40.25
725.142	40.45
725.544	40.55
725.945	40.71
726.347	40.8
726.748	40.88
727.15	40.98
727.551	41.09
727.952	41.16
728.354	41.25
728.755	41.33
729.156	41.41
729.557	41.4
729.958	41.47
730.359	41.5
730.76	41.58
731.161	41.66
731.562	41.71
731.962	41.76
732.363	41.85
732.763	41.89
733.164	41.96
733.564	42
733.965	42.04
734.365	42.09
734.766	42.13
735.166	42.14
735.566	42.2
735.966	42.25
736.366	42.3
736.766	42.31
737.166	42.36
737.566	42.39
737.966	42.41
738.365	42.45
738.765	42.5
739.165	42.54
739.564	42.59
739.964	42.6
740.363	42.61
740.763	42.62
741.162	42.64
741.561	42.65
741.96	42.66
742.36	42.69
742.759	42.7
743.158	42.7
743.557	42.7
743.955	42.72
744.354	42.74
744.753	42.78
745.152	42.83
745.55	42.86
745.949	42.89
746.348	42.94
746.746	42.94
747.144	42.98
747.543	43.02
747.941	43.04
748.339	43.03
748.737	43.03
749.136	43.02
749.534	42.97
749.932	42.96
750.33	42.97
750.727	42.98
751.125	43
751.523	42.98
751.921	42.97
752.318	42.99
752.716	43
753.113	43.01
753.511	43.02
753.908	43.03
754.305	43.05
754.703	43.03
755.1	43.02
755.497	43
755.894	43.01
756.291	43.02
756.688	43.01
757.085	43.02
757.482	43.01
757.878	42.99
758.275	43.01
758.672	43.01
759.068	43.04
759.465	43.03
759.861	43.05
760.258	43.04
760.654	43.03
761.05	43.03
761.447	43.04
761.843	43.05
762.239	43.07
762.635	43.05
763.031	43.07
763.427	43.05
763.822	43.07
764.218	43.09
764.614	43.12
765.01	43.1
765.405	43.11
765.801	43.08
766.196	43.09
766.592	43.07
766.987	43.08
767.382	43.05
767.778	43.05
768.173	43.04
768.568	43.01
768.963	43
769.358	43.03
769.753	43.02
770.148	43.05
770.542	43.02
770.937	43.05
771.332	43.04
771.726	43.05
772.121	43.05
772.515	43.04
772.91	43.03
773.304	43.04
773.699	43.02
774.093	43.01
774.487	43
774.881	43.04
775.275	43
775.669	42.99
776.063	42.99
776.457	42.97
776.851	42.97
777.245	42.96
777.638	42.94
778.032	42.94
778.425	42.98
778.819	42.98
779.212	43.02
779.606	43.06
779.999	43.04
780.392	43.06
780.786	43.08
781.179	43.09
781.572	43.14
781.965	43.18
782.358	43.18
782.751	43.16
