Data from C_2_DEC_OH_4N_Splice17_13-05-22-742.txt Node
Date: Sat Mar 07 13:05:22 EST 2020
User: sa697716
Spectrometer: NQ5500242
Trigger mode: 0
Integration Time (sec): 1.450000E-1
Scans to average: 20
Nonlinearity correction enabled: false
Boxcar width: 5
Storing dark spectrum: false
XAxis mode: Wavelengths
Number of Pixels in Spectrum: 512
>>>>>Begin Spectral Data<<<<<
187.83	90.05
188.298	104.89
188.766	88.42
189.233	80.61
189.701	80.92
190.169	92.48
190.636	99.47
191.104	171.24
191.571	343.21
192.039	67.53
192.506	-75.35
192.974	-15.61
193.441	50.25
193.908	12.08
194.375	54.55
194.842	2.09
195.31	35
195.777	-54.42
196.244	9.26
196.711	17.99
197.177	19.57
197.644	18.53
198.111	18.75
198.578	18.87
199.045	18.41
199.511	18.18
199.978	18.37
200.445	18.56
200.911	18.68
201.378	18.67
201.844	18.61
202.31	18.07
202.777	18.02
203.243	18.01
203.709	17.68
204.176	17.73
204.642	17.62
205.108	17.49
205.574	17.29
206.04	16.85
206.506	16.78
206.972	16.64
207.438	16.49
207.903	16.19
208.369	15.68
208.835	15.26
209.301	14.88
209.766	14.18
210.232	13.69
210.697	12.93
211.163	12.63
211.628	12.17
212.094	11.67
212.559	11.68
213.024	11.37
213.49	11.26
213.955	10.76
214.42	10.43
214.885	10.09
215.35	9.65
215.815	9.18
216.28	8.26
216.745	7.46
217.21	6.72
217.675	5.9
218.14	5.24
218.604	4.53
219.069	4.12
219.534	3.67
219.998	3.34
220.463	3.05
220.927	2.75
221.392	2.59
221.856	2.41
222.32	2.24
222.785	2.09
223.249	1.97
223.713	1.89
224.177	1.81
224.642	1.74
225.106	1.64
225.57	1.58
226.034	1.53
226.497	1.48
226.961	1.44
227.425	1.39
227.889	1.37
228.353	1.32
228.816	1.29
229.28	1.26
229.744	1.23
230.207	1.2
230.671	1.17
231.134	1.14
231.597	1.14
232.061	1.11
232.524	1.09
232.987	1.06
233.45	1.07
233.914	1.06
234.377	1.03
234.84	1.02
235.303	1.02
235.766	1.02
236.229	1.01
236.691	0.99
237.154	0.97
237.617	0.97
238.08	0.96
238.542	0.93
239.005	0.94
239.468	0.93
239.93	0.92
240.393	0.92
240.855	0.9
241.317	0.89
241.78	0.87
242.242	0.86
242.704	0.86
243.166	0.85
243.629	0.85
244.091	0.84
244.553	0.83
245.015	0.81
245.477	0.8
245.939	0.8
246.4	0.79
246.862	0.78
247.324	0.77
247.786	0.77
248.247	0.76
248.709	0.74
249.17	0.72
249.632	0.72
250.093	0.73
250.555	0.73
251.016	0.73
251.477	0.71
251.939	0.72
252.4	0.71
252.861	0.71
253.322	0.71
253.783	0.71
254.244	0.71
254.705	0.7
255.166	0.69
255.627	0.68
256.088	0.68
256.549	0.68
257.009	0.67
257.47	0.66
257.931	0.65
258.391	0.63
258.852	0.62
259.312	0.62
259.773	0.61
260.233	0.61
260.694	0.61
261.154	0.6
261.614	0.6
262.074	0.59
262.534	0.58
262.994	0.58
263.455	0.58
263.915	0.57
264.374	0.57
264.834	0.56
265.294	0.56
265.754	0.56
266.214	0.55
266.673	0.55
267.133	0.55
267.593	0.54
268.052	0.54
268.512	0.54
268.971	0.54
269.431	0.54
269.89	0.53
270.349	0.53
270.809	0.53
271.268	0.52
271.727	0.52
272.186	0.52
272.645	0.53
273.104	0.52
273.563	0.52
274.022	0.52
274.481	0.52
274.94	0.52
275.399	0.52
275.857	0.52
276.316	0.52
276.775	0.52
277.233	0.52
277.692	0.52
278.15	0.52
278.609	0.52
279.067	0.52
279.525	0.53
279.984	0.52
280.442	0.52
280.9	0.53
281.358	0.53
281.816	0.53
282.274	0.53
282.732	0.53
283.19	0.53
283.648	0.53
284.106	0.53
284.564	0.52
285.021	0.54
285.479	0.54
285.937	0.54
286.394	0.54
286.852	0.54
287.309	0.54
287.767	0.54
288.224	0.54
288.682	0.54
289.139	0.53
289.596	0.53
290.053	0.52
290.511	0.51
290.968	0.51
291.425	0.5
291.882	0.5
292.339	0.5
292.796	0.5
293.252	0.5
293.709	0.5
294.166	0.5
294.623	0.5
295.079	0.5
295.536	0.5
295.992	0.51
296.449	0.51
296.905	0.51
297.362	0.51
297.818	0.51
298.274	0.52
298.731	0.51
299.187	0.51
299.643	0.5
300.099	0.5
300.555	0.5
301.011	0.5
301.467	0.5
301.923	0.49
302.379	0.49
302.835	0.49
303.291	0.49
303.746	0.49
304.202	0.5
304.658	0.5
305.113	0.5
305.569	0.51
306.024	0.51
306.479	0.51
306.935	0.52
307.39	0.51
307.845	0.51
308.301	0.52
308.756	0.52
309.211	0.52
309.666	0.52
310.121	0.52
310.576	0.52
311.031	0.52
311.486	0.53
311.94	0.53
312.395	0.53
312.85	0.53
313.305	0.53
313.759	0.54
314.214	0.55
314.668	0.54
315.123	0.54
315.577	0.54
316.032	0.54
316.486	0.53
316.94	0.53
317.394	0.54
317.849	0.53
318.303	0.53
318.757	0.53
319.211	0.53
319.665	0.52
320.119	0.52
320.572	0.52
321.026	0.52
321.48	0.52
321.934	0.51
322.387	0.51
322.841	0.51
323.295	0.51
323.748	0.51
324.202	0.51
324.655	0.51
325.108	0.52
325.562	0.52
326.015	0.52
326.468	0.53
326.921	0.54
327.374	0.54
327.827	0.55
328.28	0.54
328.733	0.55
329.186	0.55
329.639	0.56
330.092	0.55
330.545	0.55
330.997	0.55
331.45	0.55
331.903	0.55
332.355	0.56
332.808	0.55
333.26	0.55
333.713	0.54
334.165	0.54
334.617	0.54
335.069	0.53
335.522	0.54
335.974	0.54
336.426	0.54
336.878	0.53
337.33	0.53
337.782	0.52
338.234	0.53
338.686	0.54
339.137	0.55
339.589	0.54
340.041	0.55
340.493	0.55
340.944	0.54
341.396	0.54
341.847	0.55
342.299	0.55
342.75	0.55
343.201	0.55
343.653	0.54
344.104	0.53
344.555	0.54
345.006	0.53
345.457	0.53
345.908	0.53
346.359	0.53
346.81	0.53
347.261	0.53
347.712	0.52
348.163	0.52
348.613	0.52
349.064	0.53
349.515	0.53
349.965	0.54
350.416	0.53
350.866	0.54
351.317	0.54
351.767	0.54
352.217	0.54
352.668	0.55
353.118	0.55
353.568	0.55
354.018	0.54
354.468	0.55
354.918	0.55
355.368	0.55
355.818	0.55
356.268	0.56
356.718	0.56
357.168	0.56
357.617	0.55
358.067	0.55
358.517	0.56
358.966	0.56
359.416	0.56
359.865	0.56
360.315	0.56
360.764	0.56
361.213	0.56
361.663	0.55
362.112	0.56
362.561	0.57
363.01	0.57
363.459	0.56
363.908	0.56
364.357	0.56
364.806	0.56
365.255	0.55
365.703	0.56
366.152	0.56
366.601	0.57
367.05	0.57
367.498	0.56
367.947	0.56
368.395	0.57
368.844	0.57
369.292	0.56
369.74	0.57
370.189	0.57
370.637	0.57
371.085	0.56
371.533	0.55
371.981	0.56
372.429	0.56
372.877	0.56
373.325	0.55
373.773	0.55
374.221	0.55
374.669	0.55
375.116	0.55
375.564	0.55
376.012	0.55
376.459	0.56
376.907	0.56
377.354	0.55
377.801	0.57
378.249	0.57
378.696	0.57
379.143	0.57
379.591	0.58
380.038	0.58
380.485	0.59
380.932	0.59
381.379	0.6
381.826	0.6
382.273	0.61
382.72	0.6
383.166	0.61
383.613	0.62
384.06	0.63
384.506	0.64
384.953	0.66
385.4	0.67
385.846	0.71
386.292	0.74
386.739	0.78
387.185	0.82
387.631	0.87
388.078	0.91
388.524	0.95
388.97	1
389.416	1.05
389.862	1.13
390.308	1.22
390.754	1.33
391.2	1.45
391.645	1.55
392.091	1.65
392.537	1.75
392.983	1.89
393.428	2.09
393.874	2.33
394.319	2.61
394.765	2.89
395.21	3.19
395.655	3.48
396.101	3.81
396.546	4.17
396.991	4.57
397.436	5.01
397.881	5.44
398.326	5.85
398.771	6.24
399.216	6.59
399.661	6.91
400.106	7.2
400.551	7.46
400.995	7.68
401.44	7.89
401.885	8.08
402.329	8.28
402.774	8.48
403.218	8.74
403.663	8.99
404.107	9.28
404.551	9.58
404.995	9.84
405.44	10.1
405.884	10.37
406.328	10.67
406.772	11.01
407.216	11.37
407.66	11.7
408.104	11.94
408.547	12.19
408.991	12.4
409.435	12.64
409.879	12.93
410.322	13.26
410.766	13.6
411.209	13.92
411.653	14.2
412.096	14.43
412.54	14.66
412.983	14.9
413.426	15.16
413.869	15.43
414.312	15.69
414.756	15.89
415.199	16.04
415.642	16.17
416.085	16.27
416.527	16.34
416.97	16.35
417.413	16.32
417.856	16.29
418.298	16.25
418.741	16.22
419.184	16.2
419.626	16.23
420.069	16.31
420.511	16.4
420.953	16.49
421.396	16.63
421.838	16.82
422.28	17.05
422.722	17.28
423.164	17.47
423.606	17.66
424.048	17.8
424.49	17.83
424.932	17.71
425.374	17.41
425.816	17.01
426.258	16.58
426.699	16.29
427.141	16.22
427.582	16.35
428.024	16.57
428.465	16.82
428.907	17
429.348	17.18
429.789	17.5
430.231	18.04
430.672	18.8
431.113	19.66
431.554	20.44
431.995	21.01
432.436	21.44
432.877	21.74
433.318	21.98
433.759	22.29
434.2	22.67
434.64	23.11
435.081	23.5
435.522	23.82
435.962	24.06
436.403	24.25
436.843	24.4
437.284	24.53
437.724	24.75
438.164	25.01
438.604	25.31
439.045	25.65
439.485	25.93
439.925	26.17
440.365	26.35
440.805	26.45
441.245	26.58
441.685	26.68
442.125	26.81
442.564	26.93
443.004	27.1
443.444	27.31
443.883	27.53
444.323	27.72
444.762	27.91
445.202	28.16
445.641	28.49
446.081	28.88
446.52	29.28
446.959	29.66
447.398	29.92
447.837	30.04
448.276	30.02
448.716	29.97
449.154	29.94
449.593	29.92
450.032	29.82
450.471	29.65
450.91	29.43
451.349	29.25
451.787	29.06
452.226	28.92
452.664	28.85
453.103	28.8
453.541	28.75
453.98	28.66
454.418	28.52
454.856	28.4
455.295	28.27
455.733	28.13
456.171	28.03
456.609	27.93
457.047	27.86
457.485	27.81
457.923	27.82
458.361	27.88
458.798	27.97
459.236	28.05
459.674	28.14
460.111	28.24
460.549	28.36
460.987	28.47
461.424	28.6
461.862	28.72
462.299	28.82
462.736	28.91
463.173	29.02
463.611	29.17
464.048	29.38
464.485	29.64
464.922	29.95
465.359	30.24
465.796	30.49
466.233	30.71
466.67	30.97
467.106	31.29
467.543	31.67
467.98	32.05
468.416	32.35
468.853	32.62
469.29	32.85
469.726	33.09
470.162	33.35
470.599	33.63
471.035	33.87
471.471	34.03
471.907	34.12
472.344	34.18
472.78	34.21
473.216	34.26
473.652	34.35
474.088	34.38
474.523	34.4
474.959	34.39
475.395	34.36
475.831	34.34
476.266	34.35
476.702	34.35
477.138	34.32
477.573	34.28
478.008	34.21
478.444	34.07
478.879	33.92
479.314	33.7
479.75	33.44
480.185	33.14
480.62	32.79
481.055	32.28
481.49	31.6
481.925	30.86
482.36	30.17
482.795	29.58
483.229	29.09
483.664	28.72
484.099	28.4
484.534	28.12
484.968	27.92
485.403	27.83
485.837	27.9
486.271	28.12
486.706	28.37
487.14	28.53
487.574	28.6
488.009	28.63
488.443	28.61
488.877	28.61
489.311	28.61
489.745	28.62
490.179	28.63
490.613	28.64
491.046	28.65
491.48	28.69
491.914	28.78
492.348	28.93
492.781	29.08
493.215	29.18
493.648	29.24
494.082	29.28
494.515	29.29
494.948	29.29
495.382	29.28
495.815	29.24
496.248	29.21
496.681	29.14
497.114	29.04
497.547	28.94
497.98	28.9
498.413	28.96
498.846	29.05
499.279	29.09
499.711	29.14
500.144	29.21
500.577	29.35
501.009	29.53
501.442	29.82
501.874	30.12
502.306	30.41
502.739	30.67
503.171	30.83
503.603	30.98
504.036	31.19
504.468	31.41
504.9	31.64
505.332	31.84
505.764	32.01
506.196	32.13
506.627	32.27
507.059	32.45
507.491	32.65
507.923	32.89
508.354	33.14
508.786	33.31
509.217	33.45
509.649	33.55
510.08	33.66
510.512	33.79
510.943	33.95
511.374	34.08
511.805	34.1
512.237	33.98
512.668	33.83
513.099	33.67
513.53	33.57
513.961	33.54
514.391	33.58
514.822	33.67
515.253	33.81
515.684	33.99
516.114	34.21
516.545	34.51
516.975	35
517.406	35.57
517.836	36.14
518.267	36.66
518.697	37.11
519.127	37.57
519.558	38.02
519.988	38.43
520.418	38.8
520.848	39.11
521.278	39.39
521.708	39.7
522.138	39.72
522.567	39.7
522.997	39.71
523.427	39.81
523.857	39.94
524.286	40.09
524.716	40.23
525.145	40.34
525.575	40.47
526.004	40.65
526.433	40.75
526.863	41.13
527.292	41.54
527.721	41.84
528.15	41.99
528.579	42.01
529.008	41.98
529.437	41.91
529.866	41.87
530.295	41.83
530.724	41.81
531.152	41.8
531.581	41.77
532.01	41.71
532.438	41.68
532.867	41.73
533.295	41.8
533.723	41.87
534.152	41.91
534.58	41.91
535.008	41.83
535.436	41.69
535.865	41.48
536.293	41.26
536.721	41.12
537.149	41.05
537.576	41.01
538.004	41
538.432	40.95
538.86	40.93
539.287	40.96
539.715	41.07
540.143	41.24
540.57	41.42
540.998	41.65
541.425	41.84
541.852	42.04
542.28	42.2
542.707	42.33
543.134	42.45
543.561	42.55
543.988	42.67
544.415	42.75
544.842	42.83
545.269	42.94
545.696	43.07
546.123	43.17
546.549	43.26
546.976	43.34
547.403	43.45
547.829	43.58
548.256	43.71
548.682	43.78
549.108	43.89
549.535	43.97
549.961	44.06
550.387	44.13
550.813	44.23
551.24	44.3
551.666	44.33
552.092	44.33
552.518	44.27
552.943	44.23
553.369	44.18
553.795	44.08
554.221	43.92
554.646	43.7
555.072	43.48
555.498	43.22
555.923	43.01
556.349	42.84
556.774	42.7
557.199	42.56
557.625	42.42
558.05	42.3
558.475	42.19
558.9	42.11
559.325	42.05
559.75	41.98
560.175	41.88
560.6	41.73
561.025	41.52
561.449	41.27
561.874	41
562.299	40.77
562.723	40.55
563.148	40.28
563.572	40.02
563.997	39.75
564.421	39.45
564.846	39.17
565.27	38.92
565.694	38.66
566.118	38.39
566.542	38.13
566.966	37.84
567.39	37.59
567.814	37.39
568.238	37.22
568.662	37.1
569.086	37
569.509	36.91
569.933	36.82
570.357	36.72
570.78	36.65
571.204	36.6
571.627	36.57
572.05	36.48
572.474	36.4
572.897	36.31
573.32	36.15
573.743	36
574.166	35.84
574.589	35.68
575.012	35.59
575.435	35.53
575.858	35.49
576.281	35.45
576.704	35.44
577.126	35.42
577.549	35.4
577.972	35.44
578.394	35.5
578.817	35.58
579.239	35.66
579.661	35.74
580.084	35.79
580.506	35.83
580.928	35.81
581.35	35.76
581.772	35.69
582.194	35.64
582.616	35.59
583.038	35.53
583.46	35.44
583.882	35.31
584.303	35.07
584.725	34.76
585.147	34.46
585.568	34.19
585.99	33.99
586.411	33.84
586.833	33.7
587.254	33.56
587.675	33.45
588.096	33.34
588.518	33.3
588.939	33.35
589.36	33.48
589.781	33.63
590.202	33.77
590.623	33.85
591.043	33.87
591.464	33.88
591.885	33.89
592.305	33.86
592.726	33.83
593.147	33.79
593.567	33.71
593.987	33.63
594.408	33.56
594.828	33.5
595.248	33.44
595.669	33.38
596.089	33.3
596.509	33.2
596.929	33.1
597.349	32.98
597.769	32.86
598.189	32.75
598.608	32.7
599.028	32.67
599.448	32.63
599.867	32.59
600.287	32.56
600.706	32.55
601.126	32.53
601.545	32.52
601.965	32.51
602.384	32.5
602.803	32.5
603.222	32.46
603.641	32.36
604.061	32.26
604.48	32.14
604.898	32.02
605.317	31.88
605.736	31.74
606.155	31.59
606.574	31.47
606.992	31.33
607.411	31.2
607.829	31.05
608.248	30.91
608.666	30.77
609.085	30.63
609.503	30.48
609.921	30.34
610.339	30.23
610.758	30.11
611.176	29.95
611.594	29.8
612.012	29.59
612.43	29.41
612.847	29.26
613.265	29.11
613.683	29.02
614.101	28.94
614.518	28.85
614.936	28.75
615.353	28.67
615.771	28.63
616.188	28.6
616.606	28.61
617.023	28.61
617.44	28.61
617.857	28.55
618.274	28.47
618.691	28.36
619.108	28.25
619.525	28.14
619.942	28
620.359	27.85
620.776	27.66
621.192	27.5
621.609	27.34
622.026	27.19
622.442	27.06
622.859	26.95
623.275	26.83
623.691	26.69
624.108	26.57
624.524	26.46
624.94	26.37
625.356	26.3
625.772	26.2
626.188	26.12
626.604	26.04
627.02	25.95
627.436	25.86
627.852	25.8
628.268	25.78
628.683	25.76
629.099	25.74
629.514	25.72
629.93	25.7
630.345	25.72
630.761	25.71
631.176	25.71
631.591	25.69
632.007	25.68
632.422	25.67
632.837	25.66
633.252	25.64
633.667	25.63
634.082	25.61
634.497	25.61
634.911	25.56
635.326	25.5
635.741	25.44
636.155	25.37
636.57	25.3
636.984	25.21
637.399	25.1
637.813	24.99
638.228	24.86
638.642	24.73
639.056	24.59
639.47	24.48
639.884	24.38
640.298	24.29
640.712	24.21
641.126	24.12
641.54	24
641.954	23.9
642.368	23.79
642.781	23.68
643.195	23.57
643.609	23.44
644.022	23.32
644.436	23.21
644.849	23.05
645.262	22.89
645.676	22.75
646.089	22.65
646.502	22.57
646.915	22.51
647.328	22.44
647.741	22.37
648.154	22.32
648.567	22.28
648.98	22.22
649.393	22.22
649.805	22.2
650.218	22.19
650.631	22.13
651.043	22
651.456	21.79
651.868	21.5
652.28	21.18
652.693	20.89
653.105	20.65
653.517	20.46
653.929	20.3
654.341	20.19
654.753	20.09
655.165	20.03
655.577	20.02
655.989	20.09
656.401	20.25
656.813	20.45
657.224	20.61
657.636	20.71
658.047	20.78
658.459	20.79
658.87	20.76
659.282	20.72
659.693	20.68
660.104	20.59
660.515	20.54
660.926	20.46
661.338	20.37
661.749	20.28
662.159	20.19
662.57	20.09
662.981	20.01
663.392	19.92
663.803	19.85
664.213	19.75
664.624	19.68
665.035	19.58
665.445	19.5
665.855	19.41
666.266	19.33
666.676	19.25
667.086	19.15
667.497	19.06
667.907	18.96
668.317	18.87
668.727	18.8
669.137	18.72
669.547	18.64
669.956	18.56
670.366	18.49
670.776	18.41
671.186	18.34
671.595	18.28
672.005	18.2
672.414	18.17
672.824	18.12
673.233	18.07
673.642	18.04
674.052	18.01
674.461	17.96
674.87	17.92
675.279	17.91
675.688	17.89
676.097	17.87
676.506	17.86
676.915	17.82
677.323	17.82
677.732	17.8
678.141	17.8
678.549	17.79
678.958	17.79
679.366	17.78
679.775	17.76
680.183	17.75
680.592	17.75
681	17.75
681.408	17.78
681.816	17.74
682.224	17.64
682.632	17.44
683.04	17.19
683.448	16.93
683.856	16.69
684.264	16.49
684.671	16.29
685.079	16.13
685.487	15.98
685.894	15.88
686.302	15.82
686.709	15.87
687.116	16.06
687.524	16.33
687.931	16.66
688.338	17
688.745	17.31
689.152	17.64
689.559	17.96
689.966	18.3
690.373	18.59
690.78	18.89
691.187	19.18
691.593	19.47
692	19.75
692.407	20.02
692.813	20.28
693.22	20.54
693.626	20.79
694.032	21.04
694.439	21.27
694.845	21.51
695.251	21.75
695.657	21.95
696.063	22.14
696.469	22.31
696.875	22.48
697.281	22.64
697.687	22.79
698.093	22.93
698.498	23.09
698.904	23.26
699.31	23.44
699.715	23.63
700.12	23.82
700.526	24.04
700.931	24.25
701.337	24.46
701.742	24.68
702.147	24.88
702.552	25.11
702.957	25.3
703.362	25.49
703.767	25.67
704.172	25.84
704.577	26
704.981	26.14
705.386	26.3
705.791	26.45
706.195	26.61
706.6	26.78
707.004	26.92
707.408	27.06
707.813	27.21
708.217	27.34
708.621	27.46
709.025	27.58
709.43	27.7
709.834	27.81
710.237	27.91
710.641	27.99
711.045	28.06
711.449	28.15
711.853	28.23
712.256	28.25
712.66	28.21
713.064	28.15
713.467	28.05
713.87	27.91
714.274	27.72
714.677	27.48
715.08	27.23
715.484	27
715.887	26.79
716.29	26.59
716.693	26.49
717.096	26.53
717.499	26.64
717.901	26.82
718.304	27.05
718.707	27.31
719.109	27.59
719.512	27.83
719.915	28.06
720.317	28.23
720.719	28.39
721.122	28.5
721.524	28.56
721.926	28.57
722.328	28.57
722.731	28.53
723.133	28.52
723.535	28.51
723.937	28.54
724.338	28.58
724.74	28.66
725.142	28.82
725.544	28.88
725.945	28.97
726.347	29
726.748	29.05
727.15	29.09
727.551	29.17
727.952	29.29
728.354	29.44
728.755	29.59
729.156	29.74
729.557	29.82
729.958	30.01
730.359	30.16
730.76	30.33
731.161	30.49
731.562	30.65
731.962	30.73
732.363	30.83
732.763	30.9
733.164	30.94
733.564	30.99
733.965	30.99
734.365	30.97
734.766	30.92
735.166	30.91
735.566	30.88
735.966	30.89
736.366	30.89
736.766	30.85
737.166	30.81
737.566	30.8
737.966	30.75
738.365	30.71
738.765	30.7
739.165	30.73
739.564	30.74
739.964	30.74
740.363	30.73
740.763	30.72
741.162	30.75
741.561	30.76
741.96	30.77
742.36	30.8
742.759	30.82
743.158	30.82
743.557	30.79
743.955	30.77
744.354	30.75
744.753	30.72
745.152	30.69
745.55	30.63
745.949	30.6
746.348	30.53
746.746	30.45
747.144	30.4
747.543	30.32
747.941	30.26
748.339	30.19
748.737	30.11
749.136	30.05
749.534	30
749.932	29.95
750.33	29.9
750.727	29.87
751.125	29.83
751.523	29.78
751.921	29.75
752.318	29.69
752.716	29.63
753.113	29.58
753.511	29.53
753.908	29.45
754.305	29.36
754.703	29.14
755.1	28.67
755.497	27.89
755.894	26.72
756.291	25.3
756.688	23.78
757.085	22.32
757.482	20.97
757.878	19.73
758.275	18.51
758.672	17.29
759.068	16.15
759.465	15.26
759.861	14.78
760.258	14.76
760.654	15.11
761.05	15.64
761.447	16.22
761.843	16.77
762.239	17.3
762.635	17.93
763.031	18.69
763.427	19.53
763.822	20.45
764.218	21.36
764.614	22.21
765.01	23.01
765.405	23.74
765.801	24.39
766.196	24.98
766.592	25.48
766.987	25.87
767.382	26.16
767.778	26.39
768.173	26.53
768.568	26.62
768.963	26.7
769.358	26.76
769.753	26.77
770.148	26.78
770.542	26.73
770.937	26.67
771.332	26.64
771.726	26.61
772.121	26.59
772.515	26.55
772.91	26.54
773.304	26.48
773.699	26.38
774.093	26.31
