Data from C_2_DIV_WI_4N_Splice17_13-21-30-320.txt Node
Date: Sat Mar 07 13:21:30 EST 2020
User: sa697716
Spectrometer: NQ5500242
Trigger mode: 0
Integration Time (sec): 1.450000E-1
Scans to average: 20
Nonlinearity correction enabled: false
Boxcar width: 5
Storing dark spectrum: false
XAxis mode: Wavelengths
Number of Pixels in Spectrum: 512
>>>>>Begin Spectral Data<<<<<
187.83	134.14
188.298	151.86
188.766	151.63
189.233	131.6
189.701	148.62
190.169	182
190.636	234.52
191.104	389.27
191.571	318.32
192.039	218.39
192.506	438.96
192.974	-132.31
193.441	-141.86
193.908	19.17
194.375	43.47
194.842	54.61
195.31	137.78
195.777	350.84
196.244	63.86
196.711	47.74
197.177	48.53
197.644	48.34
198.111	47.78
198.578	48.02
199.045	47.54
199.511	47.18
199.978	47.22
200.445	47.43
200.911	47.35
201.378	47.42
201.844	47.4
202.31	47.25
202.777	47.07
203.243	47.03
203.709	46.69
204.176	46.36
204.642	46.14
205.108	46.15
205.574	45.61
206.04	45.3
206.506	44.84
206.972	44.5
207.438	44.23
207.903	43.66
208.369	42.83
208.835	41.95
209.301	41.01
209.766	40.08
210.232	38.82
210.697	37.7
211.163	36.86
211.628	36.06
212.094	35.1
212.559	34.12
213.024	33.25
213.49	32.55
213.955	31.82
214.42	31.27
214.885	30.37
215.35	29.27
215.815	28
216.28	25.97
216.745	23.74
217.21	21.83
217.675	19.87
218.14	18.25
218.604	16.78
219.069	15.53
219.534	14.5
219.998	13.67
220.463	12.96
220.927	12.3
221.392	11.86
221.856	11.45
222.32	11.08
222.785	10.79
223.249	10.49
223.713	10.23
224.177	10.03
224.642	9.83
225.106	9.6
225.57	9.4
226.034	9.24
226.497	9.06
226.961	8.89
227.425	8.72
227.889	8.58
228.353	8.43
228.816	8.31
229.28	8.18
229.744	8.06
230.207	7.95
230.671	7.82
231.134	7.68
231.597	7.58
232.061	7.49
232.524	7.4
232.987	7.3
233.45	7.23
233.914	7.12
234.377	7.03
234.84	6.93
235.303	6.86
235.766	6.8
236.229	6.73
236.691	6.65
237.154	6.58
237.617	6.51
238.08	6.45
238.542	6.37
239.005	6.32
239.468	6.25
239.93	6.2
240.393	6.14
240.855	6.06
241.317	6
241.78	5.94
242.242	5.87
242.704	5.82
243.166	5.76
243.629	5.72
244.091	5.65
244.553	5.61
245.015	5.55
245.477	5.49
245.939	5.44
246.4	5.39
246.862	5.35
247.324	5.3
247.786	5.24
248.247	5.19
248.709	5.13
249.17	5.07
249.632	5.03
250.093	4.99
250.555	4.94
251.016	4.91
251.477	4.86
251.939	4.82
252.4	4.79
252.861	4.77
253.322	4.74
253.783	4.71
254.244	4.69
254.705	4.65
255.166	4.62
255.627	4.58
256.088	4.55
256.549	4.52
257.009	4.48
257.47	4.44
257.931	4.39
258.391	4.35
258.852	4.32
259.312	4.28
259.773	4.25
260.233	4.22
260.694	4.19
261.154	4.16
261.614	4.13
262.074	4.09
262.534	4.06
262.994	4.04
263.455	4.01
263.915	3.98
264.374	3.96
264.834	3.93
265.294	3.9
265.754	3.88
266.214	3.86
266.673	3.84
267.133	3.83
267.593	3.82
268.052	3.8
268.512	3.79
268.971	3.78
269.431	3.77
269.89	3.75
270.349	3.74
270.809	3.73
271.268	3.73
271.727	3.71
272.186	3.7
272.645	3.69
273.104	3.68
273.563	3.66
274.022	3.65
274.481	3.65
274.94	3.64
275.399	3.62
275.857	3.61
276.316	3.6
276.775	3.59
277.233	3.58
277.692	3.57
278.15	3.56
278.609	3.56
279.067	3.55
279.525	3.54
279.984	3.53
280.442	3.52
280.9	3.53
281.358	3.53
281.816	3.53
282.274	3.52
282.732	3.52
283.19	3.51
283.648	3.5
284.106	3.49
284.564	3.48
285.021	3.48
285.479	3.47
285.937	3.46
286.394	3.45
286.852	3.43
287.309	3.43
287.767	3.41
288.224	3.4
288.682	3.39
289.139	3.38
289.596	3.36
290.053	3.34
290.511	3.33
290.968	3.31
291.425	3.29
291.882	3.28
292.339	3.26
292.796	3.24
293.252	3.24
293.709	3.22
294.166	3.22
294.623	3.21
295.079	3.2
295.536	3.2
295.992	3.19
296.449	3.18
296.905	3.17
297.362	3.17
297.818	3.16
298.274	3.15
298.731	3.14
299.187	3.13
299.643	3.11
300.099	3.11
300.555	3.1
301.011	3.1
301.467	3.1
301.923	3.09
302.379	3.09
302.835	3.09
303.291	3.09
303.746	3.08
304.202	3.08
304.658	3.09
305.113	3.08
305.569	3.09
306.024	3.08
306.479	3.08
306.935	3.07
307.39	3.08
307.845	3.08
308.301	3.08
308.756	3.08
309.211	3.08
309.666	3.08
310.121	3.08
310.576	3.08
311.031	3.08
311.486	3.08
311.94	3.08
312.395	3.07
312.85	3.07
313.305	3.06
313.759	3.06
314.214	3.06
314.668	3.05
315.123	3.04
315.577	3.04
316.032	3.03
316.486	3.02
316.94	3.02
317.394	3.02
317.849	3.01
318.303	3
318.757	2.98
319.211	2.97
319.665	2.96
320.119	2.95
320.572	2.94
321.026	2.93
321.48	2.92
321.934	2.91
322.387	2.9
322.841	2.89
323.295	2.9
323.748	2.9
324.202	2.9
324.655	2.9
325.108	2.91
325.562	2.91
326.015	2.91
326.468	2.92
326.921	2.92
327.374	2.92
327.827	2.93
328.28	2.92
328.733	2.92
329.186	2.92
329.639	2.92
330.092	2.91
330.545	2.91
330.997	2.9
331.45	2.9
331.903	2.91
332.355	2.91
332.808	2.91
333.26	2.91
333.713	2.91
334.165	2.91
334.617	2.91
335.069	2.91
335.522	2.91
335.974	2.92
336.426	2.91
336.878	2.91
337.33	2.9
337.782	2.9
338.234	2.9
338.686	2.9
339.137	2.91
339.589	2.9
340.041	2.91
340.493	2.9
340.944	2.88
341.396	2.88
341.847	2.88
342.299	2.86
342.75	2.85
343.201	2.84
343.653	2.83
344.104	2.8
344.555	2.8
345.006	2.79
345.457	2.79
345.908	2.78
346.359	2.79
346.81	2.78
347.261	2.78
347.712	2.78
348.163	2.78
348.613	2.78
349.064	2.79
349.515	2.79
349.965	2.79
350.416	2.78
350.866	2.78
351.317	2.78
351.767	2.78
352.217	2.79
352.668	2.79
353.118	2.79
353.568	2.79
354.018	2.79
354.468	2.79
354.918	2.8
355.368	2.81
355.818	2.81
356.268	2.81
356.718	2.8
357.168	2.79
357.617	2.79
358.067	2.79
358.517	2.8
358.966	2.8
359.416	2.8
359.865	2.79
360.315	2.79
360.764	2.79
361.213	2.78
361.663	2.79
362.112	2.79
362.561	2.8
363.01	2.8
363.459	2.78
363.908	2.78
364.357	2.78
364.806	2.78
365.255	2.79
365.703	2.8
366.152	2.82
366.601	2.82
367.05	2.83
367.498	2.83
367.947	2.85
368.395	2.86
368.844	2.88
369.292	2.88
369.74	2.9
370.189	2.9
370.637	2.91
371.085	2.9
371.533	2.91
371.981	2.91
372.429	2.92
372.877	2.93
373.325	2.94
373.773	2.95
374.221	2.96
374.669	2.96
375.116	2.97
375.564	2.97
376.012	2.99
376.459	2.99
376.907	3.01
377.354	3.03
377.801	3.05
378.249	3.06
378.696	3.08
379.143	3.09
379.591	3.12
380.038	3.14
380.485	3.17
380.932	3.18
381.379	3.21
381.826	3.23
382.273	3.24
382.72	3.25
383.166	3.28
383.613	3.29
384.06	3.31
384.506	3.33
384.953	3.35
385.4	3.37
385.846	3.4
386.292	3.42
386.739	3.45
387.185	3.48
387.631	3.5
388.078	3.52
388.524	3.55
388.97	3.58
389.416	3.61
389.862	3.64
390.308	3.68
390.754	3.72
391.2	3.75
391.645	3.78
392.091	3.82
392.537	3.86
392.983	3.9
393.428	3.94
393.874	3.97
394.319	4
394.765	4.03
395.21	4.05
395.655	4.07
396.101	4.1
396.546	4.12
396.991	4.15
397.436	4.18
397.881	4.21
398.326	4.25
398.771	4.28
399.216	4.3
399.661	4.33
400.106	4.36
400.551	4.38
400.995	4.39
401.44	4.4
401.885	4.41
402.329	4.43
402.774	4.44
403.218	4.47
403.663	4.49
404.107	4.51
404.551	4.52
404.995	4.54
405.44	4.55
405.884	4.57
406.328	4.6
406.772	4.61
407.216	4.62
407.66	4.63
408.104	4.63
408.547	4.65
408.991	4.66
409.435	4.68
409.879	4.69
410.322	4.71
410.766	4.72
411.209	4.74
411.653	4.76
412.096	4.78
412.54	4.8
412.983	4.81
413.426	4.84
413.869	4.86
414.312	4.89
414.756	4.91
415.199	4.92
415.642	4.94
416.085	4.95
416.527	4.94
416.97	4.93
417.413	4.92
417.856	4.93
418.298	4.91
418.741	4.91
419.184	4.9
419.626	4.91
420.069	4.92
420.511	4.92
420.953	4.93
421.396	4.94
421.838	4.95
422.28	4.97
422.722	4.98
423.164	4.98
423.606	4.99
424.048	4.99
424.49	4.99
424.932	4.98
425.374	4.95
425.816	4.92
426.258	4.9
426.699	4.88
427.141	4.87
427.582	4.86
428.024	4.87
428.465	4.86
428.907	4.85
429.348	4.83
429.789	4.83
430.231	4.86
430.672	4.89
431.113	4.91
431.554	4.92
431.995	4.93
432.436	4.94
432.877	4.95
433.318	4.98
433.759	5.01
434.2	5.03
434.64	5.06
435.081	5.06
435.522	5.07
435.962	5.08
436.403	5.13
436.843	5.16
437.284	5.16
437.724	5.17
438.164	5.17
438.604	5.18
439.045	5.19
439.485	5.19
439.925	5.2
440.365	5.21
440.805	5.23
441.245	5.25
441.685	5.27
442.125	5.29
442.564	5.31
443.004	5.34
443.444	5.37
443.883	5.41
444.323	5.43
444.762	5.45
445.202	5.48
445.641	5.51
446.081	5.53
446.52	5.54
446.959	5.58
447.398	5.61
447.837	5.64
448.276	5.67
448.716	5.68
449.154	5.72
449.593	5.75
450.032	5.76
450.471	5.77
450.91	5.78
451.349	5.8
451.787	5.81
452.226	5.8
452.664	5.81
453.103	5.81
453.541	5.82
453.98	5.83
454.418	5.81
454.856	5.82
455.295	5.82
455.733	5.81
456.171	5.81
456.609	5.8
457.047	5.79
457.485	5.8
457.923	5.8
458.361	5.8
458.798	5.81
459.236	5.81
459.674	5.81
460.111	5.82
460.549	5.84
460.987	5.86
461.424	5.86
461.862	5.86
462.299	5.86
462.736	5.86
463.173	5.86
463.611	5.85
464.048	5.85
464.485	5.86
464.922	5.85
465.359	5.84
465.796	5.84
466.233	5.85
466.67	5.85
467.106	5.86
467.543	5.86
467.98	5.86
468.416	5.84
468.853	5.85
469.29	5.85
469.726	5.85
470.162	5.86
470.599	5.85
471.035	5.83
471.471	5.82
471.907	5.82
472.344	5.81
472.78	5.8
473.216	5.81
473.652	5.8
474.088	5.78
474.523	5.8
474.959	5.79
475.395	5.78
475.831	5.79
476.266	5.8
476.702	5.79
477.138	5.79
477.573	5.8
478.008	5.81
478.444	5.8
478.879	5.81
479.314	5.8
479.75	5.8
480.185	5.79
480.62	5.78
481.055	5.78
481.49	5.77
481.925	5.78
482.36	5.78
482.795	5.77
483.229	5.77
483.664	5.78
484.099	5.77
484.534	5.78
484.968	5.79
485.403	5.81
485.837	5.83
486.271	5.85
486.706	5.87
487.14	5.88
487.574	5.91
488.009	5.94
488.443	5.97
488.877	6.01
489.311	6.05
489.745	6.09
490.179	6.13
490.613	6.18
491.046	6.22
491.48	6.27
491.914	6.32
492.348	6.38
492.781	6.44
493.215	6.51
493.648	6.57
494.082	6.64
494.515	6.71
494.948	6.79
495.382	6.86
495.815	6.95
496.248	7.04
496.681	7.13
497.114	7.23
497.547	7.32
497.98	7.43
498.413	7.53
498.846	7.64
499.279	7.75
499.711	7.87
500.144	8
500.577	8.13
501.009	8.27
501.442	8.42
501.874	8.56
502.306	8.7
502.739	8.86
503.171	9.02
503.603	9.19
504.036	9.35
504.468	9.54
504.9	9.71
505.332	9.89
505.764	10.08
506.196	10.28
506.627	10.48
507.059	10.69
507.491	10.9
507.923	11.11
508.354	11.36
508.786	11.61
509.217	11.85
509.649	12.1
510.08	12.36
510.512	12.61
510.943	12.86
511.374	13.13
511.805	13.4
512.237	13.67
512.668	13.95
513.099	14.2
513.53	14.48
513.961	14.76
514.391	15.03
514.822	15.32
515.253	15.6
515.684	15.9
516.114	16.18
516.545	16.47
516.975	16.76
517.406	17.06
517.836	17.35
518.267	17.64
518.697	17.92
519.127	18.21
519.558	18.49
519.988	18.77
520.418	19.03
520.848	19.3
521.278	19.57
521.708	19.9
522.138	20.15
522.567	20.4
522.997	20.64
523.427	20.88
523.857	21.11
524.286	21.33
524.716	21.55
525.145	21.77
525.575	21.98
526.004	22.19
526.433	22.3
526.863	22.48
527.292	22.67
527.721	22.83
528.15	22.99
528.579	23.13
529.008	23.27
529.437	23.4
529.866	23.54
530.295	23.66
530.724	23.77
531.152	23.89
531.581	24.01
532.01	24.13
532.438	24.24
532.867	24.35
533.295	24.45
533.723	24.55
534.152	24.64
534.58	24.72
535.008	24.79
535.436	24.88
535.865	24.93
536.293	24.98
536.721	25.03
537.149	25.07
537.576	25.13
538.004	25.19
538.432	25.23
538.86	25.28
539.287	25.32
539.715	25.36
540.143	25.38
540.57	25.42
540.998	25.45
541.425	25.48
541.852	25.51
542.28	25.55
542.707	25.56
543.134	25.59
543.561	25.61
543.988	25.63
544.415	25.65
544.842	25.67
545.269	25.68
545.696	25.71
546.123	25.73
546.549	25.75
546.976	25.78
547.403	25.8
547.829	25.81
548.256	25.84
548.682	25.86
549.108	25.89
549.535	25.92
549.961	25.94
550.387	25.94
550.813	25.94
551.24	25.94
551.666	25.93
552.092	25.9
552.518	25.89
552.943	25.87
553.369	25.85
553.795	25.82
554.221	25.78
554.646	25.75
555.072	25.71
555.498	25.66
555.923	25.63
556.349	25.57
556.774	25.52
557.199	25.48
557.625	25.41
558.05	25.36
558.475	25.29
558.9	25.24
559.325	25.16
559.75	25.09
560.175	25.03
560.6	24.92
561.025	24.82
561.449	24.72
561.874	24.63
562.299	24.53
562.723	24.42
563.148	24.3
563.572	24.17
563.997	24.03
564.421	23.91
564.846	23.78
565.27	23.66
565.694	23.54
566.118	23.41
566.542	23.28
566.966	23.13
567.39	22.99
567.814	22.85
568.238	22.73
568.662	22.6
569.086	22.46
569.509	22.32
569.933	22.18
570.357	22.05
570.78	21.92
571.204	21.78
571.627	21.66
572.05	21.53
572.474	21.42
572.897	21.29
573.32	21.17
573.743	21.05
574.166	20.94
574.589	20.83
575.012	20.7
575.435	20.59
575.858	20.49
576.281	20.38
576.704	20.29
577.126	20.17
577.549	20.07
577.972	19.97
578.394	19.88
578.817	19.79
579.239	19.71
579.661	19.62
580.084	19.53
580.506	19.46
580.928	19.38
581.35	19.3
581.772	19.22
582.194	19.14
582.616	19.08
583.038	19
583.46	18.92
583.882	18.84
584.303	18.77
584.725	18.71
585.147	18.64
585.568	18.58
585.99	18.51
586.411	18.45
586.833	18.38
587.254	18.31
587.675	18.24
588.096	18.19
588.518	18.14
588.939	18.11
589.36	18.04
589.781	17.98
590.202	17.94
590.623	17.9
591.043	17.85
591.464	17.83
591.885	17.78
592.305	17.76
592.726	17.72
593.147	17.68
593.567	17.62
593.987	17.59
594.408	17.56
594.828	17.51
595.248	17.48
595.669	17.45
596.089	17.41
596.509	17.38
596.929	17.34
597.349	17.32
597.769	17.29
598.189	17.24
598.608	17.22
599.028	17.18
599.448	17.13
599.867	17.08
600.287	17.03
600.706	16.99
601.126	16.95
601.545	16.91
601.965	16.87
602.384	16.82
602.803	16.77
603.222	16.72
603.641	16.67
604.061	16.62
604.48	16.56
604.898	16.52
605.317	16.46
605.736	16.39
606.155	16.33
606.574	16.24
606.992	16.19
607.411	16.12
607.829	16.04
608.248	15.96
608.666	15.89
609.085	15.82
609.503	15.75
609.921	15.67
610.339	15.61
610.758	15.54
611.176	15.46
611.594	15.37
612.012	15.3
612.43	15.23
612.847	15.15
613.265	15.06
613.683	14.99
614.101	14.91
614.518	14.83
614.936	14.75
615.353	14.67
615.771	14.6
616.188	14.54
616.606	14.48
617.023	14.42
617.44	14.37
617.857	14.33
618.274	14.27
618.691	14.21
619.108	14.16
619.525	14.11
619.942	14.07
620.359	14.04
620.776	14
621.192	13.96
621.609	13.93
622.026	13.9
622.442	13.88
622.859	13.85
623.275	13.83
623.691	13.81
624.108	13.79
624.524	13.79
624.94	13.77
625.356	13.76
625.772	13.74
626.188	13.74
626.604	13.73
627.02	13.71
627.436	13.7
627.852	13.7
628.268	13.69
628.683	13.69
629.099	13.67
629.514	13.65
629.93	13.62
630.345	13.6
630.761	13.57
631.176	13.54
631.591	13.49
632.007	13.44
632.422	13.39
632.837	13.33
633.252	13.27
633.667	13.2
634.082	13.13
634.497	13.06
634.911	12.98
635.326	12.87
635.741	12.77
636.155	12.68
636.57	12.58
636.984	12.48
637.399	12.37
637.813	12.25
638.228	12.13
638.642	12
639.056	11.86
639.47	11.74
639.884	11.62
640.298	11.48
640.712	11.36
641.126	11.23
641.54	11.09
641.954	10.95
642.368	10.82
642.781	10.7
643.195	10.58
643.609	10.46
644.022	10.34
644.436	10.23
644.849	10.13
645.262	10.02
645.676	9.91
646.089	9.82
646.502	9.75
646.915	9.67
647.328	9.59
647.741	9.53
648.154	9.46
648.567	9.41
648.98	9.35
649.393	9.29
649.805	9.25
650.218	9.2
650.631	9.16
651.043	9.11
651.456	9.06
651.868	9.01
652.28	8.95
652.693	8.91
653.105	8.85
653.517	8.79
653.929	8.74
654.341	8.67
654.753	8.6
655.165	8.53
655.577	8.46
655.989	8.38
656.401	8.3
656.813	8.21
657.224	8.12
657.636	8.02
658.047	7.94
658.459	7.84
658.87	7.75
659.282	7.65
659.693	7.54
660.104	7.43
660.515	7.33
660.926	7.22
661.338	7.12
661.749	7.03
662.159	6.94
662.57	6.85
662.981	6.77
663.392	6.68
663.803	6.6
664.213	6.51
664.624	6.44
665.035	6.37
665.445	6.31
665.855	6.25
666.266	6.2
666.676	6.15
667.086	6.08
667.497	6.02
667.907	5.98
668.317	5.94
668.727	5.92
669.137	5.89
669.547	5.87
669.956	5.85
670.366	5.83
670.776	5.81
671.186	5.8
671.595	5.8
672.005	5.8
672.414	5.81
672.824	5.81
673.233	5.82
673.642	5.83
674.052	5.84
674.461	5.86
674.87	5.87
675.279	5.9
675.688	5.93
676.097	5.95
676.506	5.97
676.915	6.01
677.323	6.05
677.732	6.09
678.141	6.14
678.549	6.18
678.958	6.24
679.366	6.31
679.775	6.39
680.183	6.48
680.592	6.58
681	6.7
681.408	6.82
681.816	6.95
682.224	7.09
682.632	7.24
683.04	7.44
683.448	7.63
683.856	7.83
684.264	8.05
684.671	8.3
685.079	8.56
685.487	8.85
685.894	9.17
686.302	9.5
686.709	9.87
687.116	10.26
687.524	10.66
687.931	11.08
688.338	11.54
688.745	12.01
689.152	12.48
689.559	12.99
689.966	13.5
690.373	14.03
690.78	14.57
691.187	15.12
691.593	15.67
692	16.24
692.407	16.81
692.813	17.39
693.22	17.95
693.626	18.52
694.032	19.1
694.439	19.68
694.845	20.23
695.251	20.79
695.657	21.33
696.063	21.89
696.469	22.43
696.875	22.96
697.281	23.5
697.687	24.04
698.093	24.55
698.498	25.04
698.904	25.54
699.31	26.03
699.715	26.52
700.12	27
700.526	27.44
700.931	27.9
701.337	28.34
701.742	28.74
702.147	29.15
702.552	29.57
702.957	29.95
703.362	30.33
703.767	30.69
704.172	31.04
704.577	31.39
704.981	31.74
705.386	32.07
705.791	32.38
706.195	32.71
706.6	33.02
707.004	33.33
707.408	33.65
707.813	33.95
708.217	34.25
708.621	34.56
709.025	34.84
709.43	35.12
709.834	35.41
710.237	35.69
710.641	35.96
711.045	36.22
711.449	36.47
711.853	36.73
712.256	36.96
712.66	37.21
713.064	37.44
713.467	37.66
713.87	37.89
714.274	38.09
714.677	38.29
715.08	38.51
715.484	38.72
715.887	38.94
716.29	39.13
716.693	39.34
717.096	39.53
717.499	39.72
717.901	39.91
718.304	40.09
718.707	40.27
719.109	40.44
719.512	40.61
719.915	40.78
720.317	40.9
720.719	41.04
721.122	41.19
721.524	41.31
721.926	41.44
722.328	41.57
722.731	41.7
723.133	41.82
723.535	41.94
723.937	42.07
724.338	42.19
724.74	42.32
725.142	42.51
725.544	42.58
725.945	42.74
726.347	42.82
726.748	42.89
727.15	42.95
727.551	43.06
727.952	43.14
728.354	43.21
728.755	43.26
729.156	43.33
729.557	43.31
729.958	43.4
730.359	43.44
730.76	43.53
731.161	43.6
731.562	43.7
731.962	43.74
732.363	43.8
732.763	43.87
733.164	43.91
733.564	43.98
733.965	44.04
734.365	44.09
734.766	44.12
735.166	44.15
735.566	44.19
735.966	44.24
736.366	44.26
736.766	44.29
737.166	44.33
737.566	44.37
737.966	44.4
738.365	44.43
738.765	44.48
739.165	44.51
739.564	44.55
739.964	44.58
740.363	44.59
740.763	44.65
741.162	44.7
741.561	44.7
741.96	44.72
742.36	44.74
742.759	44.77
743.158	44.75
743.557	44.76
743.955	44.77
744.354	44.8
744.753	44.83
745.152	44.84
745.55	44.84
745.949	44.87
746.348	44.89
746.746	44.92
747.144	44.93
747.543	44.95
747.941	44.97
748.339	44.96
748.737	44.94
749.136	44.91
749.534	44.89
749.932	44.9
750.33	44.91
750.727	44.91
751.125	44.89
751.523	44.89
751.921	44.89
752.318	44.89
752.716	44.92
753.113	44.94
753.511	44.97
753.908	45.01
754.305	45.01
754.703	44.99
755.1	45.01
755.497	45.04
755.894	45.02
756.291	45.04
756.688	45.03
757.085	45.04
757.482	45.05
757.878	45.05
758.275	45.02
758.672	45.02
759.068	45.05
759.465	45.02
759.861	45.02
760.258	45.07
760.654	45.06
761.05	45.08
761.447	45.1
761.843	45.06
762.239	45.05
762.635	45.07
763.031	45.09
763.427	45.06
763.822	45.07
764.218	45.08
764.614	45.06
765.01	45.05
765.405	45.03
765.801	44.98
766.196	45.02
766.592	45.01
766.987	45.02
767.382	45.01
767.778	45.02
768.173	45.02
768.568	45.02
768.963	45.01
769.358	45.02
769.753	45.03
770.148	45.05
770.542	45.04
770.937	45.06
771.332	45.06
771.726	45.04
772.121	45.05
772.515	45.06
772.91	45.04
773.304	45.07
773.699	45.06
774.093	45.06
774.487	45.06
774.881	45.09
775.275	45.07
775.669	45.06
776.063	45.07
776.457	45.06
776.851	45.07
777.245	45.04
777.638	45.02
778.032	45.02
778.425	45.03
778.819	45.04
779.212	45.02
779.606	45.04
779.999	45.04
780.392	45.06
780.786	45.06
781.179	45.08
781.572	45.14
781.965	45.15
