Data from C_2_DIV_PA_2N_Splice17_13-43-04-394.txt Node
Date: Sat Mar 07 13:43:04 EST 2020
User: sa697716
Spectrometer: NQ5500242
Trigger mode: 0
Integration Time (sec): 1.450000E-1
Scans to average: 20
Nonlinearity correction enabled: false
Boxcar width: 5
Storing dark spectrum: false
XAxis mode: Wavelengths
Number of Pixels in Spectrum: 512
>>>>>Begin Spectral Data<<<<<
187.83	207.4
188.298	239.57
188.766	224.87
189.233	184.5
189.701	189.24
190.169	230.23
190.636	241.13
191.104	364.14
191.571	83.12
192.039	-242.21
192.506	-830.41
192.974	35.87
193.441	130.73
193.908	87.98
194.375	55.24
194.842	13.19
195.31	52.89
195.777	117.31
196.244	79.44
196.711	68.5
197.177	71.04
197.644	71.23
198.111	71.9
198.578	72.17
199.045	72.31
199.511	72.28
199.978	72.36
200.445	73.04
200.911	72.61
201.378	72.42
201.844	72.74
202.31	72.27
202.777	71.98
203.243	71.63
203.709	70.79
204.176	69.94
204.642	69.4
205.108	68.57
205.574	67.47
206.04	66.75
206.506	66.24
206.972	65.49
207.438	64.79
207.903	63.88
208.369	62.74
208.835	61.91
209.301	60.85
209.766	58.93
210.232	57.42
210.697	55.87
211.163	54.51
211.628	53.13
212.094	51.8
212.559	50.58
213.024	49.38
213.49	48.29
213.955	47.09
214.42	45.8
214.885	44.57
215.35	42.95
215.815	40.84
216.28	38.03
216.745	34.83
217.21	31.77
217.675	28.88
218.14	26.39
218.604	24.19
219.069	22.37
219.534	20.99
219.998	19.8
220.463	18.78
220.927	17.85
221.392	17.18
221.856	16.62
222.32	16.15
222.785	15.74
223.249	15.37
223.713	15.05
224.177	14.78
224.642	14.5
225.106	14.24
225.57	13.97
226.034	13.78
226.497	13.56
226.961	13.35
227.425	13.15
227.889	12.95
228.353	12.75
228.816	12.56
229.28	12.36
229.744	12.17
230.207	11.98
230.671	11.82
231.134	11.66
231.597	11.54
232.061	11.38
232.524	11.23
232.987	11.09
233.45	10.99
233.914	10.86
234.377	10.76
234.84	10.63
235.303	10.54
235.766	10.45
236.229	10.34
236.691	10.23
237.154	10.14
237.617	10.06
238.08	9.97
238.542	9.87
239.005	9.81
239.468	9.7
239.93	9.63
240.393	9.55
240.855	9.45
241.317	9.37
241.78	9.28
242.242	9.19
242.704	9.12
243.166	9.03
243.629	8.97
244.091	8.88
244.553	8.8
245.015	8.72
245.477	8.65
245.939	8.57
246.4	8.49
246.862	8.42
247.324	8.35
247.786	8.27
248.247	8.2
248.709	8.11
249.17	8.03
249.632	7.98
250.093	7.93
250.555	7.87
251.016	7.83
251.477	7.76
251.939	7.72
252.4	7.67
252.861	7.63
253.322	7.58
253.783	7.54
254.244	7.5
254.705	7.45
255.166	7.4
255.627	7.35
256.088	7.3
256.549	7.27
257.009	7.21
257.47	7.16
257.931	7.1
258.391	7.04
258.852	6.99
259.312	6.94
259.773	6.89
260.233	6.85
260.694	6.81
261.154	6.76
261.614	6.72
262.074	6.68
262.534	6.64
262.994	6.61
263.455	6.59
263.915	6.56
264.374	6.53
264.834	6.52
265.294	6.48
265.754	6.47
266.214	6.45
266.673	6.44
267.133	6.43
267.593	6.42
268.052	6.41
268.512	6.4
268.971	6.39
269.431	6.38
269.89	6.37
270.349	6.36
270.809	6.35
271.268	6.35
271.727	6.34
272.186	6.33
272.645	6.32
273.104	6.3
273.563	6.29
274.022	6.28
274.481	6.28
274.94	6.27
275.399	6.26
275.857	6.25
276.316	6.24
276.775	6.23
277.233	6.22
277.692	6.21
278.15	6.21
278.609	6.22
279.067	6.22
279.525	6.21
279.984	6.2
280.442	6.19
280.9	6.19
281.358	6.18
281.816	6.19
282.274	6.19
282.732	6.17
283.19	6.16
283.648	6.14
284.106	6.12
284.564	6.11
285.021	6.11
285.479	6.1
285.937	6.08
286.394	6.07
286.852	6.05
287.309	6.03
287.767	6.02
288.224	6
288.682	5.98
289.139	5.96
289.596	5.94
290.053	5.91
290.511	5.88
290.968	5.87
291.425	5.85
291.882	5.84
292.339	5.83
292.796	5.8
293.252	5.79
293.709	5.78
294.166	5.77
294.623	5.77
295.079	5.76
295.536	5.75
295.992	5.74
296.449	5.73
296.905	5.73
297.362	5.71
297.818	5.71
298.274	5.71
298.731	5.7
299.187	5.68
299.643	5.67
300.099	5.66
300.555	5.66
301.011	5.64
301.467	5.64
301.923	5.63
302.379	5.62
302.835	5.62
303.291	5.61
303.746	5.61
304.202	5.61
304.658	5.61
305.113	5.6
305.569	5.6
306.024	5.59
306.479	5.58
306.935	5.57
307.39	5.57
307.845	5.56
308.301	5.56
308.756	5.55
309.211	5.55
309.666	5.55
310.121	5.54
310.576	5.54
311.031	5.54
311.486	5.55
311.94	5.55
312.395	5.55
312.85	5.55
313.305	5.54
313.759	5.54
314.214	5.55
314.668	5.54
315.123	5.54
315.577	5.54
316.032	5.53
316.486	5.52
316.94	5.51
317.394	5.49
317.849	5.47
318.303	5.46
318.757	5.44
319.211	5.43
319.665	5.41
320.119	5.4
320.572	5.38
321.026	5.36
321.48	5.36
321.934	5.34
322.387	5.33
322.841	5.33
323.295	5.33
323.748	5.33
324.202	5.32
324.655	5.32
325.108	5.32
325.562	5.32
326.015	5.32
326.468	5.32
326.921	5.33
327.374	5.33
327.827	5.34
328.28	5.33
328.733	5.33
329.186	5.33
329.639	5.33
330.092	5.32
330.545	5.33
330.997	5.33
331.45	5.34
331.903	5.34
332.355	5.35
332.808	5.35
333.26	5.34
333.713	5.34
334.165	5.34
334.617	5.34
335.069	5.34
335.522	5.34
335.974	5.34
336.426	5.33
336.878	5.31
337.33	5.31
337.782	5.31
338.234	5.32
338.686	5.31
339.137	5.32
339.589	5.31
340.041	5.3
340.493	5.28
340.944	5.26
341.396	5.26
341.847	5.26
342.299	5.23
342.75	5.21
343.201	5.18
343.653	5.17
344.104	5.14
344.555	5.12
345.006	5.11
345.457	5.11
345.908	5.1
346.359	5.09
346.81	5.07
347.261	5.07
347.712	5.07
348.163	5.06
348.613	5.07
349.064	5.07
349.515	5.06
349.965	5.07
350.416	5.06
350.866	5.05
351.317	5.05
351.767	5.05
352.217	5.06
352.668	5.05
353.118	5.06
353.568	5.04
354.018	5.06
354.468	5.06
354.918	5.07
355.368	5.07
355.818	5.08
356.268	5.08
356.718	5.09
357.168	5.09
357.617	5.09
358.067	5.08
358.517	5.1
358.966	5.1
359.416	5.11
359.865	5.1
360.315	5.11
360.764	5.11
361.213	5.1
361.663	5.09
362.112	5.11
362.561	5.12
363.01	5.12
363.459	5.11
363.908	5.1
364.357	5.1
364.806	5.1
365.255	5.1
365.703	5.11
366.152	5.13
366.601	5.14
367.05	5.14
367.498	5.14
367.947	5.15
368.395	5.15
368.844	5.16
369.292	5.15
369.74	5.16
370.189	5.17
370.637	5.18
371.085	5.17
371.533	5.16
371.981	5.17
372.429	5.17
372.877	5.18
373.325	5.18
373.773	5.18
374.221	5.19
374.669	5.19
375.116	5.19
375.564	5.2
376.012	5.21
376.459	5.22
376.907	5.24
377.354	5.24
377.801	5.26
378.249	5.28
378.696	5.28
379.143	5.3
379.591	5.32
380.038	5.34
380.485	5.34
380.932	5.35
381.379	5.38
381.826	5.39
382.273	5.4
382.72	5.4
383.166	5.4
383.613	5.41
384.06	5.41
384.506	5.42
384.953	5.43
385.4	5.44
385.846	5.45
386.292	5.46
386.739	5.47
387.185	5.48
387.631	5.49
388.078	5.51
388.524	5.53
388.97	5.56
389.416	5.59
389.862	5.61
390.308	5.65
390.754	5.68
391.2	5.7
391.645	5.73
392.091	5.76
392.537	5.79
392.983	5.81
393.428	5.84
393.874	5.85
394.319	5.86
394.765	5.87
395.21	5.88
395.655	5.89
396.101	5.92
396.546	5.94
396.991	5.95
397.436	5.98
397.881	6.03
398.326	6.05
398.771	6.08
399.216	6.09
399.661	6.11
400.106	6.11
400.551	6.12
400.995	6.12
401.44	6.13
401.885	6.15
402.329	6.16
402.774	6.16
403.218	6.19
403.663	6.2
404.107	6.22
404.551	6.23
404.995	6.24
405.44	6.26
405.884	6.28
406.328	6.3
406.772	6.31
407.216	6.32
407.66	6.33
408.104	6.31
408.547	6.32
408.991	6.33
409.435	6.35
409.879	6.38
410.322	6.4
410.766	6.42
411.209	6.45
411.653	6.45
412.096	6.47
412.54	6.49
412.983	6.52
413.426	6.57
413.869	6.58
414.312	6.61
414.756	6.63
415.199	6.63
415.642	6.64
416.085	6.64
416.527	6.64
416.97	6.63
417.413	6.63
417.856	6.61
418.298	6.58
418.741	6.58
419.184	6.56
419.626	6.55
420.069	6.56
420.511	6.55
420.953	6.56
421.396	6.58
421.838	6.59
422.28	6.61
422.722	6.64
423.164	6.65
423.606	6.66
424.048	6.67
424.49	6.67
424.932	6.68
425.374	6.65
425.816	6.6
426.258	6.59
426.699	6.58
427.141	6.58
427.582	6.57
428.024	6.58
428.465	6.58
428.907	6.58
429.348	6.57
429.789	6.56
430.231	6.63
430.672	6.68
431.113	6.7
431.554	6.72
431.995	6.72
432.436	6.72
432.877	6.74
433.318	6.77
433.759	6.8
434.2	6.84
434.64	6.87
435.081	6.86
435.522	6.87
435.962	6.88
436.403	6.89
436.843	6.9
437.284	6.89
437.724	6.88
438.164	6.85
438.604	6.86
439.045	6.86
439.485	6.85
439.925	6.85
440.365	6.85
440.805	6.84
441.245	6.84
441.685	6.87
442.125	6.89
442.564	6.88
443.004	6.88
443.444	6.88
443.883	6.88
444.323	6.86
444.762	6.84
445.202	6.83
445.641	6.85
446.081	6.86
446.52	6.84
446.959	6.85
447.398	6.88
447.837	6.88
448.276	6.87
448.716	6.87
449.154	6.89
449.593	6.9
450.032	6.88
450.471	6.85
450.91	6.82
451.349	6.82
451.787	6.78
452.226	6.74
452.664	6.72
453.103	6.7
453.541	6.68
453.98	6.66
454.418	6.63
454.856	6.62
455.295	6.6
455.733	6.57
456.171	6.54
456.609	6.54
457.047	6.53
457.485	6.52
457.923	6.51
458.361	6.5
458.798	6.5
459.236	6.49
459.674	6.48
460.111	6.48
460.549	6.5
460.987	6.5
461.424	6.49
461.862	6.5
462.299	6.5
462.736	6.51
463.173	6.51
463.611	6.52
464.048	6.54
464.485	6.55
464.922	6.56
465.359	6.56
465.796	6.6
466.233	6.61
466.67	6.62
467.106	6.63
467.543	6.62
467.98	6.6
468.416	6.59
468.853	6.57
469.29	6.56
469.726	6.56
470.162	6.55
470.599	6.51
471.035	6.49
471.471	6.46
471.907	6.43
472.344	6.43
472.78	6.42
473.216	6.39
473.652	6.38
474.088	6.35
474.523	6.34
474.959	6.32
475.395	6.28
475.831	6.26
476.266	6.25
476.702	6.23
477.138	6.21
477.573	6.19
478.008	6.18
478.444	6.16
478.879	6.16
479.314	6.15
479.75	6.13
480.185	6.11
480.62	6.1
481.055	6.08
481.49	6.08
481.925	6.06
482.36	6.05
482.795	6.04
483.229	6.02
483.664	6.02
484.099	6
484.534	5.99
484.968	6
485.403	5.99
485.837	5.99
486.271	5.98
486.706	5.98
487.14	5.97
487.574	5.97
488.009	5.97
488.443	5.96
488.877	5.96
489.311	5.97
489.745	5.96
490.179	5.97
490.613	5.97
491.046	5.98
491.48	5.99
491.914	6
492.348	6.01
492.781	6.02
493.215	6.03
493.648	6.03
494.082	6.04
494.515	6.05
494.948	6.06
495.382	6.06
495.815	6.07
496.248	6.08
496.681	6.1
497.114	6.11
497.547	6.12
497.98	6.14
498.413	6.14
498.846	6.16
499.279	6.17
499.711	6.18
500.144	6.21
500.577	6.23
501.009	6.24
501.442	6.26
501.874	6.29
502.306	6.31
502.739	6.35
503.171	6.38
503.603	6.42
504.036	6.45
504.468	6.49
504.9	6.52
505.332	6.55
505.764	6.6
506.196	6.64
506.627	6.68
507.059	6.74
507.491	6.77
507.923	6.83
508.354	6.89
508.786	6.95
509.217	7.02
509.649	7.09
510.08	7.15
510.512	7.22
510.943	7.3
511.374	7.37
511.805	7.44
512.237	7.52
512.668	7.61
513.099	7.7
513.53	7.79
513.961	7.88
514.391	7.99
514.822	8.12
515.253	8.22
515.684	8.34
516.114	8.47
516.545	8.6
516.975	8.73
517.406	8.84
517.836	8.97
518.267	9.12
518.697	9.24
519.127	9.37
519.558	9.48
519.988	9.62
520.418	9.74
520.848	9.87
521.278	10.01
521.708	10.39
522.138	10.54
522.567	10.67
522.997	10.79
523.427	10.92
523.857	11.06
524.286	11.19
524.716	11.33
525.145	11.47
525.575	11.59
526.004	11.72
526.433	11.58
526.863	11.69
527.292	11.81
527.721	11.92
528.15	12.02
528.579	12.12
529.008	12.23
529.437	12.3
529.866	12.39
530.295	12.48
530.724	12.57
531.152	12.64
531.581	12.72
532.01	12.8
532.438	12.87
532.867	12.93
533.295	12.99
533.723	13.04
534.152	13.1
534.58	13.15
535.008	13.19
535.436	13.24
535.865	13.28
536.293	13.31
536.721	13.33
537.149	13.38
537.576	13.42
538.004	13.46
538.432	13.49
538.86	13.53
539.287	13.54
539.715	13.58
540.143	13.59
540.57	13.62
540.998	13.64
541.425	13.68
541.852	13.7
542.28	13.71
542.707	13.72
543.134	13.73
543.561	13.75
543.988	13.79
544.415	13.8
544.842	13.82
545.269	13.84
545.696	13.87
546.123	13.89
546.549	13.91
546.976	13.94
547.403	13.97
547.829	13.99
548.256	14
548.682	14
549.108	14.02
549.535	14.02
549.961	14.02
550.387	14.01
550.813	14.01
551.24	14
551.666	13.98
552.092	13.96
552.518	13.97
552.943	13.96
553.369	13.96
553.795	13.93
554.221	13.91
554.646	13.88
555.072	13.86
555.498	13.82
555.923	13.78
556.349	13.74
556.774	13.7
557.199	13.65
557.625	13.6
558.05	13.54
558.475	13.49
558.9	13.44
559.325	13.41
559.75	13.34
560.175	13.28
560.6	13.21
561.025	13.15
561.449	13.07
561.874	12.98
562.299	12.91
562.723	12.81
563.148	12.73
563.572	12.64
563.997	12.53
564.421	12.42
564.846	12.32
565.27	12.23
565.694	12.12
566.118	12.01
566.542	11.92
566.966	11.82
567.39	11.73
567.814	11.62
568.238	11.52
568.662	11.43
569.086	11.34
569.509	11.26
569.933	11.16
570.357	11.08
570.78	10.99
571.204	10.91
571.627	10.82
572.05	10.74
572.474	10.67
572.897	10.6
573.32	10.53
573.743	10.45
574.166	10.38
574.589	10.31
575.012	10.25
575.435	10.19
575.858	10.13
576.281	10.07
576.704	10.02
577.126	9.97
577.549	9.91
577.972	9.85
578.394	9.8
578.817	9.76
579.239	9.71
579.661	9.67
580.084	9.64
580.506	9.59
580.928	9.54
581.35	9.49
581.772	9.44
582.194	9.41
582.616	9.38
583.038	9.33
583.46	9.29
583.882	9.26
584.303	9.21
584.725	9.17
585.147	9.16
585.568	9.13
585.99	9.1
586.411	9.07
586.833	9.04
587.254	9
587.675	8.97
588.096	8.94
588.518	8.91
588.939	8.9
589.36	8.87
589.781	8.84
590.202	8.83
590.623	8.81
591.043	8.79
591.464	8.76
591.885	8.74
592.305	8.73
592.726	8.72
593.147	8.7
593.567	8.66
593.987	8.64
594.408	8.62
594.828	8.57
595.248	8.56
595.669	8.55
596.089	8.55
596.509	8.54
596.929	8.52
597.349	8.49
597.769	8.47
598.189	8.45
598.608	8.43
599.028	8.42
599.448	8.39
599.867	8.36
600.287	8.33
600.706	8.31
601.126	8.28
601.545	8.26
601.965	8.25
602.384	8.23
602.803	8.21
603.222	8.19
603.641	8.14
604.061	8.13
604.48	8.1
604.898	8.07
605.317	8.04
605.736	8.01
606.155	7.98
606.574	7.94
606.992	7.9
607.411	7.87
607.829	7.81
608.248	7.77
608.666	7.73
609.085	7.71
609.503	7.69
609.921	7.66
610.339	7.63
610.758	7.6
611.176	7.57
611.594	7.56
612.012	7.52
612.43	7.53
612.847	7.5
613.265	7.48
613.683	7.45
614.101	7.42
614.518	7.39
614.936	7.35
615.353	7.32
615.771	7.28
616.188	7.25
616.606	7.24
617.023	7.21
617.44	7.2
617.857	7.17
618.274	7.14
618.691	7.12
619.108	7.1
619.525	7.08
619.942	7.08
620.359	7.07
620.776	7.06
621.192	7.05
621.609	7.04
622.026	7.02
622.442	7.02
622.859	7.02
623.275	7.01
623.691	7.01
624.108	7.01
624.524	7
624.94	6.99
625.356	6.99
625.772	6.97
626.188	6.96
626.604	6.96
627.02	6.95
627.436	6.95
627.852	6.95
628.268	6.94
628.683	6.93
629.099	6.92
629.514	6.91
629.93	6.91
630.345	6.9
630.761	6.89
631.176	6.89
631.591	6.88
632.007	6.87
632.422	6.85
632.837	6.84
633.252	6.83
633.667	6.82
634.082	6.8
634.497	6.79
634.911	6.78
635.326	6.76
635.741	6.74
636.155	6.71
636.57	6.7
636.984	6.69
637.399	6.68
637.813	6.65
638.228	6.62
638.642	6.59
639.056	6.57
639.47	6.55
639.884	6.53
640.298	6.5
640.712	6.48
641.126	6.45
641.54	6.41
641.954	6.38
642.368	6.36
642.781	6.34
643.195	6.32
643.609	6.3
644.022	6.26
644.436	6.25
644.849	6.22
645.262	6.19
645.676	6.17
646.089	6.15
646.502	6.14
646.915	6.13
647.328	6.11
647.741	6.1
648.154	6.08
648.567	6.08
648.98	6.06
649.393	6.05
649.805	6.04
650.218	6.03
650.631	6.02
651.043	6.01
651.456	6
651.868	5.98
652.28	5.98
652.693	5.97
653.105	5.96
653.517	5.94
653.929	5.94
654.341	5.93
654.753	5.92
655.165	5.91
655.577	5.91
655.989	5.89
656.401	5.87
656.813	5.86
657.224	5.84
657.636	5.81
658.047	5.81
658.459	5.79
658.87	5.77
659.282	5.75
659.693	5.74
660.104	5.72
660.515	5.7
660.926	5.69
661.338	5.67
661.749	5.67
662.159	5.67
662.57	5.65
662.981	5.64
663.392	5.63
663.803	5.62
664.213	5.62
664.624	5.61
665.035	5.6
665.445	5.59
665.855	5.6
666.266	5.6
666.676	5.59
667.086	5.58
667.497	5.59
667.907	5.59
668.317	5.59
668.727	5.59
669.137	5.6
669.547	5.6
669.956	5.62
670.366	5.62
670.776	5.62
671.186	5.63
671.595	5.63
672.005	5.63
672.414	5.66
672.824	5.67
673.233	5.67
673.642	5.68
674.052	5.68
674.461	5.69
674.87	5.69
675.279	5.72
675.688	5.72
676.097	5.74
676.506	5.76
676.915	5.76
677.323	5.77
677.732	5.78
678.141	5.79
678.549	5.82
678.958	5.84
679.366	5.87
679.775	5.87
680.183	5.91
680.592	5.93
681	5.96
681.408	5.99
681.816	6.02
682.224	6.05
682.632	6.08
683.04	6.11
683.448	6.13
683.856	6.15
684.264	6.19
684.671	6.21
685.079	6.24
685.487	6.29
685.894	6.34
686.302	6.38
686.709	6.44
687.116	6.51
687.524	6.58
687.931	6.67
688.338	6.76
688.745	6.87
689.152	6.97
689.559	7.11
689.966	7.26
690.373	7.41
690.78	7.59
691.187	7.77
691.593	7.96
692	8.17
692.407	8.4
692.813	8.65
693.22	8.9
693.626	9.18
694.032	9.46
694.439	9.75
694.845	10.07
695.251	10.38
695.657	10.72
696.063	11.07
696.469	11.44
696.875	11.81
697.281	12.19
697.687	12.6
698.093	13.01
698.498	13.42
698.904	13.84
699.31	14.26
699.715	14.7
700.12	15.16
700.526	15.61
700.931	16.06
701.337	16.52
701.742	16.96
702.147	17.39
702.552	17.85
702.957	18.3
703.362	18.75
703.767	19.19
704.172	19.64
704.577	20.08
704.981	20.55
705.386	20.99
705.791	21.44
706.195	21.91
706.6	22.37
707.004	22.82
707.408	23.27
707.813	23.74
708.217	24.2
708.621	24.67
709.025	25.11
709.43	25.55
709.834	26.02
710.237	26.46
710.641	26.91
711.045	27.36
711.449	27.82
711.853	28.29
712.256	28.72
712.66	29.16
713.064	29.59
713.467	30.05
713.87	30.5
714.274	30.94
714.677	31.38
715.08	31.79
715.484	32.22
715.887	32.66
716.29	33.06
716.693	33.5
717.096	33.93
717.499	34.34
717.901	34.73
718.304	35.11
718.707	35.49
719.109	35.89
719.512	36.28
719.915	36.66
720.317	36.99
720.719	37.33
721.122	37.69
721.524	38.03
721.926	38.39
722.328	38.74
722.731	39.08
723.133	39.42
723.535	39.73
723.937	40.06
724.338	40.34
724.74	40.67
725.142	41.16
725.544	41.44
725.945	41.78
726.347	42.01
726.748	42.24
727.15	42.48
727.551	42.73
727.952	42.97
728.354	43.18
728.755	43.42
729.156	43.62
729.557	43.64
729.958	43.82
730.359	43.98
730.76	44.21
731.161	44.41
731.562	44.62
731.962	44.76
732.363	44.97
732.763	45.15
733.164	45.32
733.564	45.51
733.965	45.67
734.365	45.84
734.766	45.98
735.166	46.12
735.566	46.26
735.966	46.4
736.366	46.55
736.766	46.65
737.166	46.79
737.566	46.92
737.966	47.03
738.365	47.16
738.765	47.27
739.165	47.37
739.564	47.48
739.964	47.57
740.363	47.64
740.763	47.75
741.162	47.83
741.561	47.9
741.96	47.95
742.36	48.02
742.759	48.11
743.158	48.17
743.557	48.23
743.955	48.32
744.354	48.38
744.753	48.46
745.152	48.55
745.55	48.62
745.949	48.68
746.348	48.78
746.746	48.81
747.144	48.86
747.543	48.89
747.941	48.94
748.339	48.95
748.737	48.99
749.136	48.99
749.534	48.97
749.932	48.99
750.33	48.99
750.727	49.01
751.125	49.06
751.523	49.08
751.921	49.1
752.318	49.13
752.716	49.19
753.113	49.21
753.511	49.27
753.908	49.35
754.305	49.43
754.703	49.46
755.1	49.49
755.497	49.52
755.894	49.53
756.291	49.56
756.688	49.6
757.085	49.61
757.482	49.64
757.878	49.66
758.275	49.66
758.672	49.64
759.068	49.69
759.465	49.71
759.861	49.72
760.258	49.74
760.654	49.79
761.05	49.82
761.447	49.83
761.843	49.84
762.239	49.85
762.635	49.86
763.031	49.86
763.427	49.85
763.822	49.85
764.218	49.87
764.614	49.89
765.01	49.86
765.405	49.84
765.801	49.85
766.196	49.84
766.592	49.84
766.987	49.85
767.382	49.83
767.778	49.83
768.173	49.85
768.568	49.84
768.963	49.83
769.358	49.86
769.753	49.86
770.148	49.86
770.542	49.87
770.937	49.87
771.332	49.88
771.726	49.9
772.121	49.92
772.515	49.91
772.91	49.91
773.304	49.92
773.699	49.9
774.093	49.9
774.487	49.91
774.881	49.96
775.275	49.97
775.669	49.96
776.063	49.97
776.457	49.95
776.851	49.96
777.245	49.93
777.638	49.92
778.032	49.92
778.425	49.96
778.819	50
779.212	49.99
779.606	50.01
779.999	50.02
780.392	50.05
780.786	50.06
781.179	50.08
781.572	50.15
781.965	50.18
782.358	50.19
782.751	50.16
783.143	50.16
783.536	50.15
783.929	50.16
784.322	50.17
784.714	50.16
785.107	50.17
785.499	50.17
785.891	50.14
786.284	50.14
786.676	50.18
