Data from C_2_HIR_WI_4N_Splice17_13-35-51-060.txt Node
Date: Sat Mar 07 13:35:51 EST 2020
User: sa697716
Spectrometer: NQ5500242
Trigger mode: 0
Integration Time (sec): 1.450000E-1
Scans to average: 20
Nonlinearity correction enabled: false
Boxcar width: 5
Storing dark spectrum: false
XAxis mode: Wavelengths
Number of Pixels in Spectrum: 512
>>>>>Begin Spectral Data<<<<<
187.83	184.51
188.298	186.94
188.766	148.24
189.233	121.68
189.701	148.05
190.169	178.7
190.636	188.7
191.104	164.56
191.571	-175.78
192.039	-309.04
192.506	-668.17
192.974	55.8
193.441	7.12
193.908	-42.77
194.375	-3.77
194.842	-29.86
195.31	40.01
195.777	8.51
196.244	96.75
196.711	102.63
197.177	104.83
197.644	104.01
198.111	105.2
198.578	105.04
199.045	105.24
199.511	104.91
199.978	105.48
200.445	105.38
200.911	105.45
201.378	105.23
201.844	104.9
202.31	104.38
202.777	104.34
203.243	103.8
203.709	103.19
204.176	101.96
204.642	101.11
205.108	100.24
205.574	99.26
206.04	98.29
206.506	97.45
206.972	96.65
207.438	95.53
207.903	94.07
208.369	92.11
208.835	90.16
209.301	88.35
209.766	85.7
210.232	83.4
210.697	81.02
211.163	78.49
211.628	76.14
212.094	73.91
212.559	72.07
213.024	70.26
213.49	68.53
213.955	66.92
214.42	65.04
214.885	63.02
215.35	60.15
215.815	56.84
216.28	52.63
216.745	47.88
217.21	43.07
217.675	38.45
218.14	34.32
218.604	30.76
219.069	27.82
219.534	25.44
219.998	23.54
220.463	21.94
220.927	20.49
221.392	19.35
221.856	18.41
222.32	17.61
222.785	16.92
223.249	16.34
223.713	15.84
224.177	15.38
224.642	14.94
225.106	14.47
225.57	14.04
226.034	13.69
226.497	13.36
226.961	13.05
227.425	12.75
227.889	12.47
228.353	12.2
228.816	11.93
229.28	11.67
229.744	11.43
230.207	11.22
230.671	11.02
231.134	10.81
231.597	10.65
232.061	10.46
232.524	10.29
232.987	10.13
233.45	9.99
233.914	9.83
234.377	9.69
234.84	9.56
235.303	9.43
235.766	9.33
236.229	9.22
236.691	9.09
237.154	9
237.617	8.9
238.08	8.8
238.542	8.69
239.005	8.61
239.468	8.52
239.93	8.44
240.393	8.35
240.855	8.24
241.317	8.15
241.78	8.05
242.242	7.94
242.704	7.84
243.166	7.76
243.629	7.69
244.091	7.59
244.553	7.5
245.015	7.4
245.477	7.32
245.939	7.25
246.4	7.17
246.862	7.09
247.324	7.03
247.786	6.96
248.247	6.88
248.709	6.8
249.17	6.72
249.632	6.67
250.093	6.61
250.555	6.55
251.016	6.49
251.477	6.42
251.939	6.37
252.4	6.32
252.861	6.27
253.322	6.22
253.783	6.18
254.244	6.14
254.705	6.09
255.166	6.04
255.627	5.99
256.088	5.96
256.549	5.91
257.009	5.86
257.47	5.81
257.931	5.76
258.391	5.7
258.852	5.64
259.312	5.59
259.773	5.53
260.233	5.48
260.694	5.44
261.154	5.39
261.614	5.34
262.074	5.29
262.534	5.24
262.994	5.2
263.455	5.17
263.915	5.13
264.374	5.09
264.834	5.07
265.294	5.03
265.754	5
266.214	4.97
266.673	4.93
267.133	4.92
267.593	4.9
268.052	4.87
268.512	4.85
268.971	4.84
269.431	4.82
269.89	4.8
270.349	4.78
270.809	4.76
271.268	4.75
271.727	4.74
272.186	4.72
272.645	4.7
273.104	4.69
273.563	4.67
274.022	4.66
274.481	4.65
274.94	4.64
275.399	4.63
275.857	4.62
276.316	4.61
276.775	4.6
277.233	4.6
277.692	4.59
278.15	4.58
278.609	4.58
279.067	4.57
279.525	4.57
279.984	4.56
280.442	4.56
280.9	4.56
281.358	4.56
281.816	4.56
282.274	4.57
282.732	4.56
283.19	4.56
283.648	4.56
284.106	4.56
284.564	4.57
285.021	4.56
285.479	4.56
285.937	4.55
286.394	4.55
286.852	4.53
287.309	4.52
287.767	4.5
288.224	4.49
288.682	4.47
289.139	4.44
289.596	4.41
290.053	4.38
290.511	4.35
290.968	4.33
291.425	4.3
291.882	4.28
292.339	4.25
292.796	4.24
293.252	4.21
293.709	4.2
294.166	4.19
294.623	4.17
295.079	4.16
295.536	4.15
295.992	4.14
296.449	4.14
296.905	4.13
297.362	4.13
297.818	4.12
298.274	4.11
298.731	4.1
299.187	4.09
299.643	4.08
300.099	4.08
300.555	4.07
301.011	4.06
301.467	4.05
301.923	4.04
302.379	4.03
302.835	4.03
303.291	4.03
303.746	4.03
304.202	4.03
304.658	4.04
305.113	4.05
305.569	4.05
306.024	4.05
306.479	4.06
306.935	4.06
307.39	4.07
307.845	4.07
308.301	4.08
308.756	4.08
309.211	4.08
309.666	4.09
310.121	4.09
310.576	4.1
311.031	4.11
311.486	4.12
311.94	4.12
312.395	4.12
312.85	4.12
313.305	4.13
313.759	4.13
314.214	4.14
314.668	4.12
315.123	4.12
315.577	4.11
316.032	4.1
316.486	4.09
316.94	4.08
317.394	4.07
317.849	4.05
318.303	4.02
318.757	4
319.211	3.98
319.665	3.96
320.119	3.95
320.572	3.94
321.026	3.93
321.48	3.92
321.934	3.9
322.387	3.89
322.841	3.88
323.295	3.89
323.748	3.88
324.202	3.88
324.655	3.88
325.108	3.88
325.562	3.88
326.015	3.89
326.468	3.9
326.921	3.9
327.374	3.91
327.827	3.91
328.28	3.91
328.733	3.92
329.186	3.93
329.639	3.94
330.092	3.93
330.545	3.93
330.997	3.93
331.45	3.94
331.903	3.96
332.355	3.97
332.808	3.98
333.26	3.99
333.713	3.99
334.165	3.99
334.617	4
335.069	4.01
335.522	4.02
335.974	4.02
336.426	4.02
336.878	4.02
337.33	4.01
337.782	4.02
338.234	4.02
338.686	4.01
339.137	4.01
339.589	4
340.041	3.99
340.493	3.98
340.944	3.96
341.396	3.94
341.847	3.93
342.299	3.91
342.75	3.89
343.201	3.87
343.653	3.85
344.104	3.82
344.555	3.8
345.006	3.78
345.457	3.77
345.908	3.76
346.359	3.76
346.81	3.74
347.261	3.74
347.712	3.73
348.163	3.72
348.613	3.72
349.064	3.72
349.515	3.72
349.965	3.73
350.416	3.72
350.866	3.73
351.317	3.72
351.767	3.73
352.217	3.73
352.668	3.73
353.118	3.74
353.568	3.74
354.018	3.75
354.468	3.75
354.918	3.75
355.368	3.76
355.818	3.76
356.268	3.77
356.718	3.77
357.168	3.76
357.617	3.76
358.067	3.76
358.517	3.78
358.966	3.78
359.416	3.78
359.865	3.78
360.315	3.79
360.764	3.79
361.213	3.79
361.663	3.79
362.112	3.8
362.561	3.81
363.01	3.8
363.459	3.78
363.908	3.78
364.357	3.78
364.806	3.77
365.255	3.77
365.703	3.78
366.152	3.79
366.601	3.8
367.05	3.8
367.498	3.79
367.947	3.8
368.395	3.82
368.844	3.83
369.292	3.83
369.74	3.84
370.189	3.84
370.637	3.83
371.085	3.82
371.533	3.82
371.981	3.83
372.429	3.83
372.877	3.84
373.325	3.84
373.773	3.85
374.221	3.85
374.669	3.86
375.116	3.88
375.564	3.89
376.012	3.91
376.459	3.92
376.907	3.94
377.354	3.96
377.801	3.98
378.249	4.01
378.696	4.03
379.143	4.07
379.591	4.11
380.038	4.14
380.485	4.18
380.932	4.22
381.379	4.26
381.826	4.3
382.273	4.34
382.72	4.37
383.166	4.41
383.613	4.46
384.06	4.49
384.506	4.53
384.953	4.59
385.4	4.64
385.846	4.7
386.292	4.75
386.739	4.8
387.185	4.86
387.631	4.93
388.078	4.99
388.524	5.06
388.97	5.14
389.416	5.22
389.862	5.29
390.308	5.39
390.754	5.48
391.2	5.57
391.645	5.67
392.091	5.78
392.537	5.89
392.983	6
393.428	6.11
393.874	6.22
394.319	6.34
394.765	6.45
395.21	6.54
395.655	6.64
396.101	6.75
396.546	6.85
396.991	6.97
397.436	7.08
397.881	7.21
398.326	7.34
398.771	7.47
399.216	7.58
399.661	7.69
400.106	7.81
400.551	7.91
400.995	8.01
401.44	8.12
401.885	8.22
402.329	8.32
402.774	8.41
403.218	8.52
403.663	8.62
404.107	8.71
404.551	8.81
404.995	8.9
405.44	9.01
405.884	9.12
406.328	9.22
406.772	9.31
407.216	9.41
407.66	9.49
408.104	9.55
408.547	9.64
408.991	9.74
409.435	9.83
409.879	9.94
410.322	10.04
410.766	10.13
411.209	10.23
411.653	10.32
412.096	10.4
412.54	10.51
412.983	10.61
413.426	10.73
413.869	10.82
414.312	10.93
414.756	11.01
415.199	11.07
415.642	11.15
416.085	11.22
416.527	11.27
416.97	11.3
417.413	11.34
417.856	11.39
418.298	11.43
418.741	11.47
419.184	11.49
419.626	11.54
420.069	11.58
420.511	11.62
420.953	11.67
421.396	11.73
421.838	11.79
422.28	11.83
422.722	11.88
423.164	11.9
423.606	11.92
424.048	11.95
424.49	11.97
424.932	11.97
425.374	11.94
425.816	11.91
426.258	11.9
426.699	11.88
427.141	11.88
427.582	11.9
428.024	11.93
428.465	11.94
428.907	11.95
429.348	11.95
429.789	11.99
430.231	12.06
430.672	12.13
431.113	12.18
431.554	12.24
431.995	12.28
432.436	12.31
432.877	12.35
433.318	12.41
433.759	12.49
434.2	12.56
434.64	12.62
435.081	12.66
435.522	12.7
435.962	12.76
436.403	12.82
436.843	12.88
437.284	12.92
437.724	12.96
438.164	13
438.604	13.03
439.045	13.1
439.485	13.16
439.925	13.22
440.365	13.28
440.805	13.35
441.245	13.43
441.685	13.54
442.125	13.65
442.564	13.75
443.004	13.85
443.444	13.98
443.883	14.08
444.323	14.18
444.762	14.31
445.202	14.46
445.641	14.58
446.081	14.72
446.52	14.82
446.959	14.96
447.398	15.09
447.837	15.21
448.276	15.3
448.716	15.41
449.154	15.54
449.593	15.62
450.032	15.69
450.471	15.74
450.91	15.79
451.349	15.85
451.787	15.88
452.226	15.89
452.664	15.93
453.103	15.97
453.541	15.99
453.98	16.01
454.418	16.02
454.856	16.02
455.295	16.03
455.733	16.04
456.171	16.04
456.609	16.05
457.047	16.05
457.485	16.06
457.923	16.06
458.361	16.05
458.798	16.05
459.236	16.06
459.674	16.08
460.111	16.09
460.549	16.1
460.987	16.11
461.424	16.14
461.862	16.17
462.299	16.19
462.736	16.2
463.173	16.22
463.611	16.24
464.048	16.25
464.485	16.26
464.922	16.28
465.359	16.29
465.796	16.33
466.233	16.32
466.67	16.32
467.106	16.33
467.543	16.33
467.98	16.35
468.416	16.34
468.853	16.35
469.29	16.36
469.726	16.37
470.162	16.38
470.599	16.37
471.035	16.37
471.471	16.37
471.907	16.39
472.344	16.42
472.78	16.43
473.216	16.45
473.652	16.47
474.088	16.46
474.523	16.49
474.959	16.5
475.395	16.51
475.831	16.52
476.266	16.55
476.702	16.54
477.138	16.54
477.573	16.54
478.008	16.56
478.444	16.56
478.879	16.58
479.314	16.57
479.75	16.58
480.185	16.58
480.62	16.57
481.055	16.57
481.49	16.58
481.925	16.59
482.36	16.61
482.795	16.63
483.229	16.65
483.664	16.66
484.099	16.7
484.534	16.73
484.968	16.76
485.403	16.81
485.837	16.86
486.271	16.92
486.706	16.98
487.14	17.04
487.574	17.1
488.009	17.17
488.443	17.26
488.877	17.34
489.311	17.43
489.745	17.54
490.179	17.65
490.613	17.77
491.046	17.86
491.48	17.98
491.914	18.1
492.348	18.23
492.781	18.37
493.215	18.52
493.648	18.66
494.082	18.82
494.515	18.96
494.948	19.11
495.382	19.27
495.815	19.45
496.248	19.63
496.681	19.82
497.114	20.01
497.547	20.2
497.98	20.4
498.413	20.6
498.846	20.82
499.279	21.04
499.711	21.26
500.144	21.49
500.577	21.74
501.009	21.97
501.442	22.21
501.874	22.46
502.306	22.71
502.739	22.99
503.171	23.26
503.603	23.52
504.036	23.8
504.468	24.08
504.9	24.36
505.332	24.66
505.764	24.97
506.196	25.28
506.627	25.58
507.059	25.89
507.491	26.18
507.923	26.51
508.354	26.85
508.786	27.17
509.217	27.52
509.649	27.85
510.08	28.19
510.512	28.53
510.943	28.86
511.374	29.21
511.805	29.56
512.237	29.92
512.668	30.27
513.099	30.61
513.53	30.96
513.961	31.31
514.391	31.68
514.822	32.02
515.253	32.35
515.684	32.69
516.114	33.04
516.545	33.37
516.975	33.71
517.406	34.01
517.836	34.32
518.267	34.65
518.697	34.93
519.127	35.2
519.558	35.47
519.988	35.77
520.418	36.04
520.848	36.29
521.278	36.54
521.708	36.96
522.138	37.21
522.567	37.46
522.997	37.68
523.427	37.94
523.857	38.16
524.286	38.37
524.716	38.59
525.145	38.78
525.575	39
526.004	39.2
526.433	39.2
526.863	39.39
527.292	39.56
527.721	39.73
528.15	39.87
528.579	40.02
529.008	40.17
529.437	40.29
529.866	40.44
530.295	40.57
530.724	40.68
531.152	40.8
531.581	40.91
532.01	41.01
532.438	41.11
532.867	41.21
533.295	41.3
533.723	41.39
534.152	41.49
534.58	41.57
535.008	41.62
535.436	41.71
535.865	41.76
536.293	41.83
536.721	41.9
537.149	41.95
537.576	42.02
538.004	42.1
538.432	42.14
538.86	42.2
539.287	42.23
539.715	42.3
540.143	42.33
540.57	42.4
540.998	42.44
541.425	42.48
541.852	42.53
542.28	42.58
542.707	42.61
543.134	42.64
543.561	42.68
543.988	42.71
544.415	42.72
544.842	42.74
545.269	42.77
545.696	42.8
546.123	42.82
546.549	42.85
546.976	42.87
547.403	42.88
547.829	42.9
548.256	42.93
548.682	42.96
549.108	43.01
549.535	43.05
549.961	43.06
550.387	43.07
550.813	43.11
551.24	43.13
551.666	43.13
552.092	43.15
552.518	43.17
552.943	43.17
553.369	43.18
553.795	43.18
554.221	43.19
554.646	43.17
555.072	43.16
555.498	43.13
555.923	43.09
556.349	43.05
556.774	43.01
557.199	42.97
557.625	42.92
558.05	42.88
558.475	42.84
558.9	42.78
559.325	42.75
559.75	42.7
560.175	42.65
560.6	42.59
561.025	42.58
561.449	42.54
561.874	42.46
562.299	42.38
562.723	42.29
563.148	42.17
563.572	42.07
563.997	41.96
564.421	41.84
564.846	41.73
565.27	41.63
565.694	41.51
566.118	41.4
566.542	41.32
566.966	41.21
567.39	41.12
567.814	41.03
568.238	40.93
568.662	40.83
569.086	40.75
569.509	40.65
569.933	40.54
570.357	40.43
570.78	40.31
571.204	40.2
571.627	40.11
572.05	39.99
572.474	39.92
572.897	39.83
573.32	39.74
573.743	39.63
574.166	39.54
574.589	39.46
575.012	39.37
575.435	39.29
575.858	39.2
576.281	39.12
576.704	39.06
577.126	38.95
577.549	38.86
577.972	38.78
578.394	38.7
578.817	38.62
579.239	38.54
579.661	38.47
580.084	38.4
580.506	38.35
580.928	38.29
581.35	38.21
581.772	38.15
582.194	38.08
582.616	38.02
583.038	37.96
583.46	37.88
583.882	37.82
584.303	37.76
584.725	37.7
585.147	37.63
585.568	37.57
585.99	37.5
586.411	37.45
586.833	37.39
587.254	37.34
587.675	37.3
588.096	37.25
588.518	37.21
588.939	37.17
589.36	37.12
589.781	37.08
590.202	37.03
590.623	37
591.043	36.95
591.464	36.93
591.885	36.89
592.305	36.87
592.726	36.84
593.147	36.8
593.567	36.76
593.987	36.72
594.408	36.67
594.828	36.63
595.248	36.6
595.669	36.56
596.089	36.52
596.509	36.48
596.929	36.43
597.349	36.4
597.769	36.36
598.189	36.33
598.608	36.29
599.028	36.27
599.448	36.23
599.867	36.19
600.287	36.15
600.706	36.11
601.126	36.06
601.545	36.03
601.965	35.99
602.384	35.95
602.803	35.89
603.222	35.84
603.641	35.79
604.061	35.73
604.48	35.64
604.898	35.58
605.317	35.52
605.736	35.47
606.155	35.4
606.574	35.31
606.992	35.23
607.411	35.16
607.829	35.05
608.248	34.96
608.666	34.87
609.085	34.79
609.503	34.72
609.921	34.64
610.339	34.54
610.758	34.45
611.176	34.37
611.594	34.28
612.012	34.19
612.43	34.12
612.847	34.04
613.265	33.94
613.683	33.88
614.101	33.8
614.518	33.69
614.936	33.61
615.353	33.5
615.771	33.41
616.188	33.33
616.606	33.25
617.023	33.18
617.44	33.13
617.857	33.06
618.274	32.99
618.691	32.91
619.108	32.85
619.525	32.79
619.942	32.76
620.359	32.72
620.776	32.68
621.192	32.63
621.609	32.6
622.026	32.54
622.442	32.52
622.859	32.5
623.275	32.48
623.691	32.47
624.108	32.45
624.524	32.43
624.94	32.42
625.356	32.42
625.772	32.41
626.188	32.4
626.604	32.38
627.02	32.37
627.436	32.35
627.852	32.34
628.268	32.33
628.683	32.33
629.099	32.32
629.514	32.31
629.93	32.27
630.345	32.26
630.761	32.21
631.176	32.19
631.591	32.14
632.007	32.1
632.422	32.04
632.837	31.99
633.252	31.92
633.667	31.84
634.082	31.75
634.497	31.67
634.911	31.57
635.326	31.49
635.741	31.39
636.155	31.28
636.57	31.17
636.984	31.04
637.399	30.89
637.813	30.75
638.228	30.6
638.642	30.43
639.056	30.26
639.47	30.1
639.884	29.91
640.298	29.73
640.712	29.54
641.126	29.35
641.54	29.15
641.954	28.95
642.368	28.74
642.781	28.56
643.195	28.38
643.609	28.18
644.022	28
644.436	27.84
644.849	27.66
645.262	27.48
645.676	27.31
646.089	27.17
646.502	27.04
646.915	26.91
647.328	26.76
647.741	26.63
648.154	26.53
648.567	26.42
648.98	26.29
649.393	26.2
649.805	26.12
650.218	26.03
650.631	25.93
651.043	25.84
651.456	25.74
651.868	25.63
652.28	25.54
652.693	25.45
653.105	25.34
653.517	25.23
653.929	25.09
654.341	24.95
654.753	24.81
655.165	24.66
655.577	24.5
655.989	24.34
656.401	24.17
656.813	24
657.224	23.79
657.636	23.59
658.047	23.4
658.459	23.19
658.87	22.98
659.282	22.75
659.693	22.55
660.104	22.31
660.515	22.06
660.926	21.82
661.338	21.58
661.749	21.33
662.159	21.09
662.57	20.84
662.981	20.61
663.392	20.37
663.803	20.15
664.213	19.9
664.624	19.69
665.035	19.49
665.445	19.28
665.855	19.08
666.266	18.91
666.676	18.74
667.086	18.57
667.497	18.41
667.907	18.27
668.317	18.14
668.727	18.01
669.137	17.88
669.547	17.78
669.956	17.67
670.366	17.58
670.776	17.49
671.186	17.42
671.595	17.36
672.005	17.29
672.414	17.24
672.824	17.17
673.233	17.14
673.642	17.11
674.052	17.09
674.461	17.07
674.87	17.07
675.279	17.07
675.688	17.09
676.097	17.11
676.506	17.14
676.915	17.19
677.323	17.26
677.732	17.34
678.141	17.44
678.549	17.54
678.958	17.69
679.366	17.85
679.775	18.03
680.183	18.24
680.592	18.49
681	18.78
681.408	19.09
681.816	19.44
682.224	19.8
682.632	20.21
683.04	20.65
683.448	21.13
683.856	21.62
684.264	22.16
684.671	22.74
685.079	23.32
685.487	23.94
685.894	24.6
686.302	25.26
686.709	25.94
687.116	26.67
687.524	27.4
687.931	28.14
688.338	28.88
688.745	29.63
689.152	30.39
689.559	31.16
689.966	31.92
690.373	32.66
690.78	33.38
691.187	34.09
691.593	34.78
692	35.47
692.407	36.11
692.813	36.81
693.22	37.41
693.626	38.01
694.032	38.6
694.439	39.16
694.845	39.72
695.251	40.29
695.657	40.81
696.063	41.31
696.469	41.82
696.875	42.32
697.281	42.75
697.687	43.23
698.093	43.65
698.498	44.06
698.904	44.48
699.31	44.86
699.715	45.22
700.12	45.59
700.526	45.94
700.931	46.26
701.337	46.59
701.742	46.88
702.147	47.17
702.552	47.46
702.957	47.72
703.362	47.98
703.767	48.23
704.172	48.46
704.577	48.68
704.981	48.92
705.386	49.13
705.791	49.32
706.195	49.54
706.6	49.77
707.004	49.97
707.408	50.17
707.813	50.36
708.217	50.55
708.621	50.75
709.025	50.94
709.43	51.07
709.834	51.26
710.237	51.43
710.641	51.58
711.045	51.7
711.449	51.83
711.853	52
712.256	52.12
712.66	52.24
713.064	52.37
713.467	52.49
713.87	52.64
714.274	52.75
714.677	52.88
715.08	52.99
715.484	53.13
715.887	53.28
716.29	53.36
716.693	53.49
717.096	53.6
717.499	53.7
717.901	53.81
718.304	53.93
718.707	54.05
719.109	54.14
719.512	54.23
719.915	54.3
720.317	54.36
720.719	54.4
721.122	54.48
721.524	54.56
721.926	54.63
722.328	54.7
722.731	54.75
723.133	54.8
723.535	54.84
723.937	54.92
724.338	54.98
724.74	55.04
725.142	55.25
725.544	55.28
725.945	55.36
726.347	55.41
726.748	55.46
727.15	55.49
727.551	55.53
727.952	55.57
728.354	55.62
728.755	55.66
729.156	55.68
729.557	55.61
729.958	55.64
730.359	55.66
730.76	55.69
731.161	55.69
731.562	55.72
731.962	55.73
732.363	55.78
732.763	55.79
733.164	55.8
733.564	55.83
733.965	55.83
734.365	55.87
734.766	55.87
735.166	55.89
735.566	55.93
735.966	55.97
736.366	55.99
736.766	55.99
737.166	56
737.566	56.04
737.966	56.04
738.365	56.08
738.765	56.08
739.165	56.09
739.564	56.1
739.964	56.13
740.363	56.12
740.763	56.16
741.162	56.17
741.561	56.18
741.96	56.17
742.36	56.16
742.759	56.16
743.158	56.17
743.557	56.17
743.955	56.19
744.354	56.18
744.753	56.21
745.152	56.22
745.55	56.25
745.949	56.25
746.348	56.29
746.746	56.31
747.144	56.31
747.543	56.31
747.941	56.31
748.339	56.28
748.737	56.26
749.136	56.25
749.534	56.21
749.932	56.19
750.33	56.17
750.727	56.14
751.125	56.15
751.523	56.13
751.921	56.13
752.318	56.16
752.716	56.18
753.113	56.17
753.511	56.16
753.908	56.2
754.305	56.23
754.703	56.22
755.1	56.23
755.497	56.23
755.894	56.24
756.291	56.24
756.688	56.2
757.085	56.2
757.482	56.23
757.878	56.24
758.275	56.22
758.672	56.2
759.068	56.23
759.465	56.21
759.861	56.23
760.258	56.25
760.654	56.26
761.05	56.28
761.447	56.3
761.843	56.3
762.239	56.31
762.635	56.33
763.031	56.33
763.427	56.32
763.822	56.33
764.218	56.35
764.614	56.35
765.01	56.36
765.405	56.36
765.801	56.36
766.196	56.36
766.592	56.35
766.987	56.34
767.382	56.32
767.778	56.36
768.173	56.37
768.568	56.33
768.963	56.31
769.358	56.31
769.753	56.3
770.148	56.3
770.542	56.28
770.937	56.33
771.332	56.32
771.726	56.31
772.121	56.29
772.515	56.28
