Data from C_2_HIR_WI_4N_Splice17_13-36-02-935.txt Node
Date: Sat Mar 07 13:36:02 EST 2020
User: sa697716
Spectrometer: NQ5500242
Trigger mode: 0
Integration Time (sec): 1.450000E-1
Scans to average: 20
Nonlinearity correction enabled: false
Boxcar width: 5
Storing dark spectrum: false
XAxis mode: Wavelengths
Number of Pixels in Spectrum: 512
>>>>>Begin Spectral Data<<<<<
187.83	243.49
188.298	268.69
188.766	266.53
189.233	206.82
189.701	215.28
190.169	248.34
190.636	288.81
191.104	393.47
191.571	359.66
192.039	214.6
192.506	761.64
192.974	9.09
193.441	20.55
193.908	124.57
194.375	109.11
194.842	90.61
195.31	170.11
195.777	252.97
196.244	113.07
196.711	108.84
197.177	109.14
197.644	108.14
198.111	107.62
198.578	106.77
199.045	106.8
199.511	105.77
199.978	105.69
200.445	105.8
200.911	106.32
201.378	106.16
201.844	105.84
202.31	105.33
202.777	105.03
203.243	104.84
203.709	104.38
204.176	103.64
204.642	103.07
205.108	102.14
205.574	101.09
206.04	99.71
206.506	98.69
206.972	97.71
207.438	96.34
207.903	94.73
208.369	92.44
208.835	90.53
209.301	88.22
209.766	85.75
210.232	83.48
210.697	80.82
211.163	78.59
211.628	76.61
212.094	74.42
212.559	72.73
213.024	70.95
213.49	69.34
213.955	67.66
214.42	65.64
214.885	63.63
215.35	60.89
215.815	57.64
216.28	53.39
216.745	48.53
217.21	43.74
217.675	39.12
218.14	35.22
218.604	31.73
219.069	28.84
219.534	26.5
219.998	24.51
220.463	22.89
220.927	21.43
221.392	20.34
221.856	19.4
222.32	18.62
222.785	17.98
223.249	17.33
223.713	16.81
224.177	16.36
224.642	15.93
225.106	15.46
225.57	15.06
226.034	14.74
226.497	14.39
226.961	14.08
227.425	13.77
227.889	13.48
228.353	13.21
228.816	12.93
229.28	12.65
229.744	12.39
230.207	12.17
230.671	11.93
231.134	11.71
231.597	11.5
232.061	11.3
232.524	11.1
232.987	10.9
233.45	10.75
233.914	10.6
234.377	10.44
234.84	10.3
235.303	10.18
235.766	10.04
236.229	9.92
236.691	9.8
237.154	9.71
237.617	9.61
238.08	9.52
238.542	9.41
239.005	9.31
239.468	9.22
239.93	9.15
240.393	9.06
240.855	8.96
241.317	8.86
241.78	8.75
242.242	8.63
242.704	8.53
243.166	8.43
243.629	8.34
244.091	8.23
244.553	8.13
245.015	8.03
245.477	7.93
245.939	7.85
246.4	7.77
246.862	7.69
247.324	7.61
247.786	7.53
248.247	7.44
248.709	7.36
249.17	7.27
249.632	7.21
250.093	7.14
250.555	7.08
251.016	7.02
251.477	6.95
251.939	6.89
252.4	6.83
252.861	6.77
253.322	6.73
253.783	6.68
254.244	6.65
254.705	6.6
255.166	6.55
255.627	6.49
256.088	6.44
256.549	6.4
257.009	6.34
257.47	6.3
257.931	6.25
258.391	6.18
258.852	6.12
259.312	6.06
259.773	6
260.233	5.94
260.694	5.9
261.154	5.84
261.614	5.79
262.074	5.74
262.534	5.69
262.994	5.65
263.455	5.61
263.915	5.58
264.374	5.53
264.834	5.49
265.294	5.46
265.754	5.43
266.214	5.4
266.673	5.37
267.133	5.34
267.593	5.32
268.052	5.29
268.512	5.27
268.971	5.26
269.431	5.24
269.89	5.22
270.349	5.21
270.809	5.18
271.268	5.17
271.727	5.16
272.186	5.14
272.645	5.13
273.104	5.1
273.563	5.09
274.022	5.07
274.481	5.06
274.94	5.04
275.399	5.02
275.857	5.01
276.316	5
276.775	4.99
277.233	4.99
277.692	4.98
278.15	4.97
278.609	4.97
279.067	4.97
279.525	4.96
279.984	4.96
280.442	4.96
280.9	4.96
281.358	4.96
281.816	4.96
282.274	4.95
282.732	4.94
283.19	4.95
283.648	4.93
284.106	4.93
284.564	4.93
285.021	4.93
285.479	4.92
285.937	4.91
286.394	4.91
286.852	4.89
287.309	4.88
287.767	4.86
288.224	4.84
288.682	4.82
289.139	4.78
289.596	4.75
290.053	4.72
290.511	4.69
290.968	4.66
291.425	4.62
291.882	4.6
292.339	4.57
292.796	4.55
293.252	4.53
293.709	4.52
294.166	4.51
294.623	4.5
295.079	4.49
295.536	4.48
295.992	4.48
296.449	4.47
296.905	4.46
297.362	4.46
297.818	4.44
298.274	4.44
298.731	4.43
299.187	4.41
299.643	4.4
300.099	4.4
300.555	4.39
301.011	4.38
301.467	4.37
301.923	4.36
302.379	4.35
302.835	4.35
303.291	4.35
303.746	4.36
304.202	4.36
304.658	4.37
305.113	4.36
305.569	4.37
306.024	4.38
306.479	4.38
306.935	4.38
307.39	4.39
307.845	4.4
308.301	4.4
308.756	4.4
309.211	4.4
309.666	4.41
310.121	4.42
310.576	4.43
311.031	4.43
311.486	4.44
311.94	4.45
312.395	4.45
312.85	4.46
313.305	4.46
313.759	4.47
314.214	4.47
314.668	4.46
315.123	4.45
315.577	4.45
316.032	4.43
316.486	4.42
316.94	4.41
317.394	4.4
317.849	4.37
318.303	4.34
318.757	4.32
319.211	4.3
319.665	4.28
320.119	4.26
320.572	4.24
321.026	4.23
321.48	4.21
321.934	4.2
322.387	4.19
322.841	4.19
323.295	4.19
323.748	4.18
324.202	4.18
324.655	4.17
325.108	4.17
325.562	4.17
326.015	4.17
326.468	4.18
326.921	4.18
327.374	4.18
327.827	4.19
328.28	4.19
328.733	4.2
329.186	4.2
329.639	4.21
330.092	4.22
330.545	4.23
330.997	4.23
331.45	4.25
331.903	4.26
332.355	4.27
332.808	4.27
333.26	4.26
333.713	4.27
334.165	4.27
334.617	4.28
335.069	4.28
335.522	4.29
335.974	4.3
336.426	4.29
336.878	4.29
337.33	4.29
337.782	4.29
338.234	4.3
338.686	4.29
339.137	4.29
339.589	4.28
340.041	4.28
340.493	4.25
340.944	4.23
341.396	4.22
341.847	4.19
342.299	4.17
342.75	4.14
343.201	4.12
343.653	4.1
344.104	4.07
344.555	4.05
345.006	4.03
345.457	4.03
345.908	4.02
346.359	4.01
346.81	4.01
347.261	4.01
347.712	4.01
348.163	4
348.613	4
349.064	4.01
349.515	4
349.965	4.01
350.416	4
350.866	4
351.317	3.99
351.767	3.99
352.217	3.99
352.668	4
353.118	4
353.568	4
354.018	4.01
354.468	4.03
354.918	4.03
355.368	4.04
355.818	4.05
356.268	4.05
356.718	4.05
357.168	4.05
357.617	4.05
358.067	4.05
358.517	4.07
358.966	4.07
359.416	4.07
359.865	4.06
360.315	4.06
360.764	4.07
361.213	4.07
361.663	4.06
362.112	4.07
362.561	4.08
363.01	4.09
363.459	4.06
363.908	4.06
364.357	4.06
364.806	4.07
365.255	4.06
365.703	4.07
366.152	4.07
366.601	4.09
367.05	4.1
367.498	4.09
367.947	4.09
368.395	4.11
368.844	4.12
369.292	4.12
369.74	4.13
370.189	4.15
370.637	4.15
371.085	4.15
371.533	4.14
371.981	4.13
372.429	4.14
372.877	4.15
373.325	4.15
373.773	4.16
374.221	4.17
374.669	4.18
375.116	4.18
375.564	4.2
376.012	4.21
376.459	4.25
376.907	4.29
377.354	4.31
377.801	4.34
378.249	4.38
378.696	4.4
379.143	4.44
379.591	4.47
380.038	4.52
380.485	4.56
380.932	4.6
381.379	4.64
381.826	4.67
382.273	4.7
382.72	4.74
383.166	4.78
383.613	4.83
384.06	4.88
384.506	4.93
384.953	4.99
385.4	5.05
385.846	5.12
386.292	5.18
386.739	5.25
387.185	5.32
387.631	5.41
388.078	5.5
388.524	5.58
388.97	5.67
389.416	5.77
389.862	5.86
390.308	5.95
390.754	6.05
391.2	6.16
391.645	6.27
392.091	6.4
392.537	6.51
392.983	6.62
393.428	6.75
393.874	6.86
394.319	6.97
394.765	7.08
395.21	7.19
395.655	7.31
396.101	7.42
396.546	7.52
396.991	7.63
397.436	7.74
397.881	7.88
398.326	8.01
398.771	8.14
399.216	8.27
399.661	8.4
400.106	8.52
400.551	8.64
400.995	8.74
401.44	8.85
401.885	8.95
402.329	9.06
402.774	9.17
403.218	9.27
403.663	9.38
404.107	9.49
404.551	9.6
404.995	9.69
405.44	9.79
405.884	9.91
406.328	10.01
406.772	10.1
407.216	10.2
407.66	10.29
408.104	10.36
408.547	10.44
408.991	10.53
409.435	10.62
409.879	10.72
410.322	10.83
410.766	10.93
411.209	11.02
411.653	11.13
412.096	11.21
412.54	11.3
412.983	11.41
413.426	11.54
413.869	11.63
414.312	11.73
414.756	11.82
415.199	11.89
415.642	11.96
416.085	12.04
416.527	12.07
416.97	12.11
417.413	12.15
417.856	12.16
418.298	12.19
418.741	12.23
419.184	12.27
419.626	12.31
420.069	12.35
420.511	12.38
420.953	12.43
421.396	12.5
421.838	12.55
422.28	12.62
422.722	12.69
423.164	12.71
423.606	12.75
424.048	12.76
424.49	12.76
424.932	12.76
425.374	12.74
425.816	12.71
426.258	12.68
426.699	12.68
427.141	12.68
427.582	12.69
428.024	12.71
428.465	12.72
428.907	12.73
429.348	12.73
429.789	12.77
430.231	12.85
430.672	12.91
431.113	12.98
431.554	13.03
431.995	13.06
432.436	13.09
432.877	13.12
433.318	13.18
433.759	13.25
434.2	13.33
434.64	13.4
435.081	13.45
435.522	13.49
435.962	13.54
436.403	13.6
436.843	13.67
437.284	13.71
437.724	13.78
438.164	13.82
438.604	13.9
439.045	13.96
439.485	14
439.925	14.05
440.365	14.12
440.805	14.21
441.245	14.33
441.685	14.46
442.125	14.58
442.564	14.68
443.004	14.78
443.444	14.89
443.883	15.04
444.323	15.16
444.762	15.31
445.202	15.44
445.641	15.58
446.081	15.69
446.52	15.78
446.959	15.91
447.398	16.04
447.837	16.18
448.276	16.29
448.716	16.4
449.154	16.55
449.593	16.67
450.032	16.78
450.471	16.85
450.91	16.91
451.349	16.99
451.787	17.04
452.226	17.1
452.664	17.14
453.103	17.17
453.541	17.17
453.98	17.19
454.418	17.19
454.856	17.21
455.295	17.23
455.733	17.23
456.171	17.23
456.609	17.26
457.047	17.24
457.485	17.24
457.923	17.27
458.361	17.29
458.798	17.29
459.236	17.29
459.674	17.29
460.111	17.3
460.549	17.32
460.987	17.34
461.424	17.34
461.862	17.37
462.299	17.38
462.736	17.38
463.173	17.39
463.611	17.39
464.048	17.42
464.485	17.43
464.922	17.43
465.359	17.44
465.796	17.46
466.233	17.48
466.67	17.49
467.106	17.51
467.543	17.51
467.98	17.52
468.416	17.53
468.853	17.53
469.29	17.53
469.726	17.57
470.162	17.59
470.599	17.59
471.035	17.6
471.471	17.61
471.907	17.62
472.344	17.67
472.78	17.7
473.216	17.71
473.652	17.74
474.088	17.73
474.523	17.75
474.959	17.76
475.395	17.77
475.831	17.79
476.266	17.82
476.702	17.81
477.138	17.81
477.573	17.82
478.008	17.83
478.444	17.83
478.879	17.86
479.314	17.86
479.75	17.88
480.185	17.88
480.62	17.88
481.055	17.88
481.49	17.88
481.925	17.89
482.36	17.91
482.795	17.92
483.229	17.94
483.664	17.96
484.099	17.98
484.534	18.01
484.968	18.05
485.403	18.1
485.837	18.15
486.271	18.22
486.706	18.27
487.14	18.34
487.574	18.41
488.009	18.51
488.443	18.59
488.877	18.7
489.311	18.79
489.745	18.89
490.179	19.01
490.613	19.14
491.046	19.25
491.48	19.39
491.914	19.53
492.348	19.66
492.781	19.82
493.215	19.99
493.648	20.13
494.082	20.29
494.515	20.45
494.948	20.61
495.382	20.77
495.815	20.95
496.248	21.14
496.681	21.33
497.114	21.52
497.547	21.68
497.98	21.89
498.413	22.09
498.846	22.31
499.279	22.52
499.711	22.76
500.144	23.02
500.577	23.24
501.009	23.47
501.442	23.72
501.874	23.99
502.306	24.27
502.739	24.54
503.171	24.82
503.603	25.11
504.036	25.41
504.468	25.68
504.9	25.97
505.332	26.27
505.764	26.59
506.196	26.91
506.627	27.23
507.059	27.54
507.491	27.84
507.923	28.16
508.354	28.49
508.786	28.85
509.217	29.19
509.649	29.54
510.08	29.88
510.512	30.21
510.943	30.53
511.374	30.87
511.805	31.23
512.237	31.59
512.668	31.95
513.099	32.28
513.53	32.6
513.961	32.95
514.391	33.28
514.822	33.65
515.253	33.98
515.684	34.31
516.114	34.62
516.545	34.95
516.975	35.27
517.406	35.57
517.836	35.89
518.267	36.19
518.697	36.49
519.127	36.76
519.558	37.02
519.988	37.32
520.418	37.59
520.848	37.85
521.278	38.09
521.708	38.5
522.138	38.76
522.567	38.98
522.997	39.21
523.427	39.41
523.857	39.61
524.286	39.81
524.716	40.01
525.145	40.21
525.575	40.4
526.004	40.57
526.433	40.56
526.863	40.72
527.292	40.87
527.721	41.01
528.15	41.16
528.579	41.32
529.008	41.47
529.437	41.59
529.866	41.7
530.295	41.85
530.724	41.99
531.152	42.12
531.581	42.23
532.01	42.34
532.438	42.45
532.867	42.57
533.295	42.67
533.723	42.75
534.152	42.84
534.58	42.93
535.008	42.98
535.436	43.05
535.865	43.11
536.293	43.17
536.721	43.23
537.149	43.29
537.576	43.35
538.004	43.39
538.432	43.45
538.86	43.51
539.287	43.57
539.715	43.62
540.143	43.66
540.57	43.71
540.998	43.74
541.425	43.77
541.852	43.81
542.28	43.86
542.707	43.91
543.134	43.95
543.561	43.98
543.988	44
544.415	44.01
544.842	44.03
545.269	44.05
545.696	44.11
546.123	44.15
546.549	44.17
546.976	44.16
547.403	44.17
547.829	44.19
548.256	44.22
548.682	44.25
549.108	44.28
549.535	44.34
549.961	44.35
550.387	44.35
550.813	44.37
551.24	44.38
551.666	44.41
552.092	44.43
552.518	44.45
552.943	44.43
553.369	44.4
553.795	44.4
554.221	44.38
554.646	44.38
555.072	44.38
555.498	44.36
555.923	44.34
556.349	44.3
556.774	44.27
557.199	44.23
557.625	44.2
558.05	44.18
558.475	44.14
558.9	44.11
559.325	44.08
559.75	44.03
560.175	43.99
560.6	43.94
561.025	43.91
561.449	43.84
561.874	43.77
562.299	43.7
562.723	43.63
563.148	43.56
563.572	43.45
563.997	43.33
564.421	43.24
564.846	43.15
565.27	43.05
565.694	42.94
566.118	42.84
566.542	42.75
566.966	42.65
567.39	42.56
567.814	42.45
568.238	42.36
568.662	42.27
569.086	42.17
569.509	42.07
569.933	41.97
570.357	41.88
570.78	41.78
571.204	41.69
571.627	41.61
572.05	41.5
572.474	41.43
572.897	41.36
573.32	41.27
573.743	41.16
574.166	41.08
574.589	40.99
575.012	40.91
575.435	40.83
575.858	40.73
576.281	40.65
576.704	40.57
577.126	40.49
577.549	40.39
577.972	40.31
578.394	40.25
578.817	40.18
579.239	40.13
579.661	40.05
580.084	39.98
580.506	39.93
580.928	39.86
581.35	39.81
581.772	39.74
582.194	39.69
582.616	39.64
583.038	39.58
583.46	39.5
583.882	39.44
584.303	39.38
584.725	39.34
585.147	39.27
585.568	39.23
585.99	39.18
586.411	39.15
586.833	39.08
587.254	39.03
587.675	38.97
588.096	38.93
588.518	38.9
588.939	38.87
589.36	38.82
589.781	38.79
590.202	38.74
590.623	38.69
591.043	38.62
591.464	38.61
591.885	38.57
592.305	38.54
592.726	38.51
593.147	38.46
593.567	38.41
593.987	38.37
594.408	38.32
594.828	38.27
595.248	38.25
595.669	38.23
596.089	38.19
596.509	38.15
596.929	38.12
597.349	38.08
597.769	38.05
598.189	38.01
598.608	37.99
599.028	37.95
599.448	37.9
599.867	37.85
600.287	37.81
600.706	37.77
601.126	37.74
601.545	37.69
601.965	37.65
602.384	37.6
602.803	37.56
603.222	37.5
603.641	37.45
604.061	37.41
604.48	37.34
604.898	37.28
605.317	37.22
605.736	37.16
606.155	37.11
606.574	37.02
606.992	36.96
607.411	36.9
607.829	36.8
608.248	36.7
608.666	36.62
609.085	36.54
609.503	36.46
609.921	36.37
610.339	36.28
610.758	36.19
611.176	36.1
611.594	36
612.012	35.9
612.43	35.83
612.847	35.76
613.265	35.68
613.683	35.59
614.101	35.51
614.518	35.42
614.936	35.34
615.353	35.25
615.771	35.2
616.188	35.12
616.606	35.04
617.023	34.98
617.44	34.92
617.857	34.87
618.274	34.81
618.691	34.73
619.108	34.67
619.525	34.61
619.942	34.58
620.359	34.52
620.776	34.48
621.192	34.46
621.609	34.42
622.026	34.37
622.442	34.33
622.859	34.32
623.275	34.31
623.691	34.29
624.108	34.28
624.524	34.25
624.94	34.24
625.356	34.21
625.772	34.18
626.188	34.19
626.604	34.18
627.02	34.16
627.436	34.13
627.852	34.12
628.268	34.1
628.683	34.08
629.099	34.07
629.514	34.04
629.93	34.05
630.345	34.02
630.761	33.96
631.176	33.94
631.591	33.9
632.007	33.86
632.422	33.8
632.837	33.75
633.252	33.69
633.667	33.6
634.082	33.52
634.497	33.45
634.911	33.35
635.326	33.26
635.741	33.14
636.155	33.02
636.57	32.91
636.984	32.8
637.399	32.66
637.813	32.51
638.228	32.39
638.642	32.23
639.056	32.05
639.47	31.89
639.884	31.72
640.298	31.54
640.712	31.36
641.126	31.18
641.54	30.98
641.954	30.78
642.368	30.61
642.781	30.42
643.195	30.22
643.609	30.03
644.022	29.85
644.436	29.68
644.849	29.5
645.262	29.34
645.676	29.17
646.089	29.02
646.502	28.87
646.915	28.71
647.328	28.55
647.741	28.44
648.154	28.33
648.567	28.22
648.98	28.12
649.393	28.01
649.805	27.93
650.218	27.84
650.631	27.75
651.043	27.67
651.456	27.57
651.868	27.47
652.28	27.37
652.693	27.27
653.105	27.17
653.517	27.06
653.929	26.94
654.341	26.8
654.753	26.65
655.165	26.49
655.577	26.34
655.989	26.18
656.401	26.02
656.813	25.84
657.224	25.63
657.636	25.4
658.047	25.18
658.459	24.94
658.87	24.72
659.282	24.49
659.693	24.26
660.104	24.01
660.515	23.75
660.926	23.48
661.338	23.2
661.749	22.95
662.159	22.71
662.57	22.46
662.981	22.22
663.392	21.98
663.803	21.74
664.213	21.5
664.624	21.28
665.035	21.07
665.445	20.87
665.855	20.68
666.266	20.5
666.676	20.33
667.086	20.15
667.497	19.98
667.907	19.82
668.317	19.67
668.727	19.53
669.137	19.4
669.547	19.28
669.956	19.16
670.366	19.07
670.776	18.97
671.186	18.88
671.595	18.81
672.005	18.74
672.414	18.68
672.824	18.63
673.233	18.59
673.642	18.56
674.052	18.52
674.461	18.51
674.87	18.49
675.279	18.5
675.688	18.52
676.097	18.53
676.506	18.57
676.915	18.61
677.323	18.68
677.732	18.76
678.141	18.86
678.549	18.99
678.958	19.13
679.366	19.3
679.775	19.47
680.183	19.7
680.592	19.97
681	20.26
681.408	20.59
681.816	20.95
682.224	21.34
682.632	21.76
683.04	22.22
683.448	22.73
683.856	23.26
684.264	23.83
684.671	24.43
685.079	25.02
685.487	25.68
685.894	26.34
686.302	27.03
686.709	27.72
687.116	28.44
687.524	29.18
687.931	29.93
688.338	30.65
688.745	31.39
689.152	32.12
689.559	32.89
689.966	33.62
690.373	34.35
690.78	35.07
691.187	35.75
691.593	36.44
692	37.09
692.407	37.71
692.813	38.38
693.22	38.98
693.626	39.59
694.032	40.18
694.439	40.74
694.845	41.28
695.251	41.83
695.657	42.34
696.063	42.84
696.469	43.31
696.875	43.8
697.281	44.22
697.687	44.67
698.093	45.07
698.498	45.45
698.904	45.83
699.31	46.19
699.715	46.52
700.12	46.86
700.526	47.19
700.931	47.52
701.337	47.82
701.742	48.12
702.147	48.39
702.552	48.66
702.957	48.9
703.362	49.15
703.767	49.39
704.172	49.62
704.577	49.84
704.981	50.05
705.386	50.25
705.791	50.47
706.195	50.65
706.6	50.86
707.004	51.04
707.408	51.23
707.813	51.41
708.217	51.57
708.621	51.76
709.025	51.93
709.43	52.05
709.834	52.23
710.237	52.35
710.641	52.5
711.045	52.63
711.449	52.78
711.853	52.94
712.256	53.05
712.66	53.17
713.064	53.28
713.467	53.4
713.87	53.53
714.274	53.62
714.677	53.77
715.08	53.85
715.484	53.94
715.887	54.06
716.29	54.13
716.693	54.25
717.096	54.35
717.499	54.43
717.901	54.55
718.304	54.63
718.707	54.7
719.109	54.78
719.512	54.87
719.915	54.95
720.317	54.98
720.719	55.02
721.122	55.07
721.524	55.13
721.926	55.2
722.328	55.25
722.731	55.34
723.133	55.43
723.535	55.47
723.937	55.54
724.338	55.59
724.74	55.66
725.142	55.83
725.544	55.86
725.945	55.93
726.347	55.94
726.748	55.97
727.15	55.97
727.551	56.01
727.952	56.03
728.354	56.08
728.755	56.1
729.156	56.12
729.557	56.06
729.958	56.12
730.359	56.14
730.76	56.21
731.161	56.22
731.562	56.29
731.962	56.28
732.363	56.3
732.763	56.33
733.164	56.36
733.564	56.4
733.965	56.4
734.365	56.4
734.766	56.42
735.166	56.43
735.566	56.46
735.966	56.48
736.366	56.5
736.766	56.51
737.166	56.52
737.566	56.54
737.966	56.56
738.365	56.58
738.765	56.62
739.165	56.64
739.564	56.66
739.964	56.68
740.363	56.67
740.763	56.69
741.162	56.72
741.561	56.71
741.96	56.71
742.36	56.74
742.759	56.74
743.158	56.73
743.557	56.69
743.955	56.69
744.354	56.7
744.753	56.73
745.152	56.75
745.55	56.74
745.949	56.76
746.348	56.77
746.746	56.76
747.144	56.78
747.543	56.77
747.941	56.79
748.339	56.77
748.737	56.75
749.136	56.73
749.534	56.69
749.932	56.68
750.33	56.64
750.727	56.65
751.125	56.64
751.523	56.62
751.921	56.62
752.318	56.65
752.716	56.67
753.113	56.7
753.511	56.71
753.908	56.73
754.305	56.75
754.703	56.79
755.1	56.8
755.497	56.81
755.894	56.79
756.291	56.8
756.688	56.79
757.085	56.79
757.482	56.78
757.878	56.79
758.275	56.8
758.672	56.78
759.068	56.8
759.465	56.79
759.861	56.8
760.258	56.88
760.654	56.91
761.05	56.94
761.447	56.97
761.843	56.97
762.239	56.98
762.635	56.96
763.031	56.98
763.427	56.95
763.822	56.98
764.218	56.99
764.614	56.99
765.01	56.95
765.405	56.9
765.801	56.87
766.196	56.87
766.592	56.85
766.987	56.86
767.382	56.85
767.778	56.84
768.173	56.82
768.568	56.77
768.963	56.75
769.358	56.77
769.753	56.8
770.148	56.8
770.542	56.82
770.937	56.83
771.332	56.84
771.726	56.87
772.121	56.88
