Data from C_2_DEC_NC_4N_Splice17_13-28-34-757.txt Node
Date: Sat Mar 07 13:28:34 EST 2020
User: sa697716
Spectrometer: NQ5500242
Trigger mode: 0
Integration Time (sec): 1.450000E-1
Scans to average: 20
Nonlinearity correction enabled: false
Boxcar width: 5
Storing dark spectrum: false
XAxis mode: Wavelengths
Number of Pixels in Spectrum: 512
>>>>>Begin Spectral Data<<<<<
187.83	99.62
188.298	132.82
188.766	113.18
189.233	89.06
189.701	101.66
190.169	129.93
190.636	132.81
191.104	120.44
191.571	82.1
192.039	79.48
192.506	-248.68
192.974	0.55
193.441	118.67
193.908	15.29
194.375	-38.42
194.842	36.87
195.31	57.1
195.777	145.76
196.244	48.43
196.711	46.24
197.177	48.29
197.644	47
198.111	47.14
198.578	47.69
199.045	47.91
199.511	48.31
199.978	47.77
200.445	47.61
200.911	47.38
201.378	47.22
201.844	47.1
202.31	46.67
202.777	46.62
203.243	46.32
203.709	46.01
204.176	45.61
204.642	45.09
205.108	44.71
205.574	44.68
206.04	43.99
206.506	43.47
206.972	43.39
207.438	42.77
207.903	42.09
208.369	41.29
208.835	40.32
209.301	39.4
209.766	38.17
210.232	36.99
210.697	35.84
211.163	34.87
211.628	34.17
212.094	33.22
212.559	32.43
213.024	31.58
213.49	30.96
213.955	30.05
214.42	29.18
214.885	28.5
215.35	27.71
215.815	26.34
216.28	24.51
216.745	22.33
217.21	20.27
217.675	18.46
218.14	16.79
218.604	15.31
219.069	14.12
219.534	13.14
219.998	12.27
220.463	11.5
220.927	10.81
221.392	10.37
221.856	10.01
222.32	9.68
222.785	9.4
223.249	9.15
223.713	8.93
224.177	8.73
224.642	8.56
225.106	8.35
225.57	8.17
226.034	8.07
226.497	7.91
226.961	7.75
227.425	7.62
227.889	7.47
228.353	7.36
228.816	7.23
229.28	7.1
229.744	6.98
230.207	6.89
230.671	6.78
231.134	6.67
231.597	6.59
232.061	6.5
232.524	6.42
232.987	6.35
233.45	6.28
233.914	6.21
234.377	6.14
234.84	6.07
235.303	6.02
235.766	5.97
236.229	5.93
236.691	5.86
237.154	5.8
237.617	5.75
238.08	5.7
238.542	5.64
239.005	5.6
239.468	5.55
239.93	5.51
240.393	5.46
240.855	5.4
241.317	5.36
241.78	5.31
242.242	5.26
242.704	5.21
243.166	5.16
243.629	5.12
244.091	5.07
244.553	5.03
245.015	4.97
245.477	4.92
245.939	4.87
246.4	4.83
246.862	4.78
247.324	4.75
247.786	4.71
248.247	4.67
248.709	4.62
249.17	4.59
249.632	4.55
250.093	4.53
250.555	4.5
251.016	4.47
251.477	4.44
251.939	4.43
252.4	4.4
252.861	4.37
253.322	4.36
253.783	4.33
254.244	4.32
254.705	4.29
255.166	4.26
255.627	4.23
256.088	4.21
256.549	4.19
257.009	4.16
257.47	4.14
257.931	4.1
258.391	4.08
258.852	4.06
259.312	4.03
259.773	4.01
260.233	3.99
260.694	3.98
261.154	3.95
261.614	3.93
262.074	3.9
262.534	3.87
262.994	3.86
263.455	3.83
263.915	3.82
264.374	3.8
264.834	3.79
265.294	3.77
265.754	3.76
266.214	3.74
266.673	3.73
267.133	3.73
267.593	3.72
268.052	3.71
268.512	3.71
268.971	3.7
269.431	3.69
269.89	3.68
270.349	3.68
270.809	3.67
271.268	3.67
271.727	3.66
272.186	3.65
272.645	3.65
273.104	3.64
273.563	3.63
274.022	3.63
274.481	3.62
274.94	3.62
275.399	3.62
275.857	3.62
276.316	3.6
276.775	3.6
277.233	3.6
277.692	3.59
278.15	3.59
278.609	3.59
279.067	3.59
279.525	3.59
279.984	3.58
280.442	3.58
280.9	3.58
281.358	3.58
281.816	3.58
282.274	3.58
282.732	3.58
283.19	3.57
283.648	3.56
284.106	3.56
284.564	3.56
285.021	3.57
285.479	3.56
285.937	3.56
286.394	3.56
286.852	3.55
287.309	3.55
287.767	3.54
288.224	3.53
288.682	3.52
289.139	3.51
289.596	3.5
290.053	3.48
290.511	3.47
290.968	3.46
291.425	3.44
291.882	3.43
292.339	3.41
292.796	3.41
293.252	3.4
293.709	3.39
294.166	3.39
294.623	3.38
295.079	3.37
295.536	3.37
295.992	3.37
296.449	3.36
296.905	3.36
297.362	3.36
297.818	3.35
298.274	3.36
298.731	3.36
299.187	3.35
299.643	3.34
300.099	3.34
300.555	3.33
301.011	3.33
301.467	3.33
301.923	3.32
302.379	3.32
302.835	3.32
303.291	3.31
303.746	3.31
304.202	3.31
304.658	3.32
305.113	3.31
305.569	3.32
306.024	3.31
306.479	3.31
306.935	3.31
307.39	3.31
307.845	3.31
308.301	3.32
308.756	3.33
309.211	3.32
309.666	3.33
310.121	3.34
310.576	3.33
311.031	3.33
311.486	3.35
311.94	3.35
312.395	3.35
312.85	3.35
313.305	3.35
313.759	3.34
314.214	3.35
314.668	3.34
315.123	3.33
315.577	3.33
316.032	3.33
316.486	3.31
316.94	3.31
317.394	3.29
317.849	3.28
318.303	3.26
318.757	3.25
319.211	3.24
319.665	3.22
320.119	3.22
320.572	3.21
321.026	3.2
321.48	3.19
321.934	3.18
322.387	3.17
322.841	3.17
323.295	3.17
323.748	3.17
324.202	3.17
324.655	3.17
325.108	3.18
325.562	3.18
326.015	3.17
326.468	3.17
326.921	3.17
327.374	3.17
327.827	3.18
328.28	3.18
328.733	3.18
329.186	3.17
329.639	3.17
330.092	3.16
330.545	3.16
330.997	3.16
331.45	3.17
331.903	3.17
332.355	3.18
332.808	3.17
333.26	3.17
333.713	3.17
334.165	3.17
334.617	3.17
335.069	3.17
335.522	3.18
335.974	3.18
336.426	3.18
336.878	3.16
337.33	3.17
337.782	3.17
338.234	3.17
338.686	3.16
339.137	3.17
339.589	3.16
340.041	3.17
340.493	3.16
340.944	3.15
341.396	3.14
341.847	3.13
342.299	3.12
342.75	3.11
343.201	3.09
343.653	3.09
344.104	3.06
344.555	3.05
345.006	3.03
345.457	3.02
345.908	3.01
346.359	3.01
346.81	3
347.261	2.99
347.712	2.99
348.163	2.98
348.613	2.98
349.064	2.98
349.515	2.98
349.965	2.99
350.416	2.99
350.866	2.98
351.317	2.98
351.767	2.98
352.217	2.99
352.668	2.99
353.118	2.99
353.568	2.99
354.018	2.99
354.468	3
354.918	3
355.368	3
355.818	3.01
356.268	3.01
356.718	3.01
357.168	3.01
357.617	3
358.067	3.01
358.517	3.01
358.966	3.02
359.416	3.02
359.865	3.01
360.315	3.01
360.764	3.01
361.213	3
361.663	2.99
362.112	3
362.561	3
363.01	2.99
363.459	2.98
363.908	2.97
364.357	2.98
364.806	2.96
365.255	2.97
365.703	2.97
366.152	2.97
366.601	2.98
367.05	2.98
367.498	2.97
367.947	2.97
368.395	2.98
368.844	2.98
369.292	2.97
369.74	2.98
370.189	2.98
370.637	2.98
371.085	2.98
371.533	2.97
371.981	2.97
372.429	2.97
372.877	2.97
373.325	2.96
373.773	2.95
374.221	2.95
374.669	2.95
375.116	2.94
375.564	2.93
376.012	2.93
376.459	2.93
376.907	2.93
377.354	2.94
377.801	2.95
378.249	2.95
378.696	2.95
379.143	2.95
379.591	2.96
380.038	2.97
380.485	2.98
380.932	2.98
381.379	2.98
381.826	2.99
382.273	2.99
382.72	2.98
383.166	2.99
383.613	3
384.06	2.99
384.506	3
384.953	3
385.4	3.01
385.846	3.02
386.292	3.03
386.739	3.03
387.185	3.03
387.631	3.05
388.078	3.06
388.524	3.06
388.97	3.07
389.416	3.08
389.862	3.09
390.308	3.12
390.754	3.13
391.2	3.15
391.645	3.17
392.091	3.19
392.537	3.21
392.983	3.21
393.428	3.23
393.874	3.24
394.319	3.26
394.765	3.27
395.21	3.28
395.655	3.29
396.101	3.31
396.546	3.32
396.991	3.34
397.436	3.36
397.881	3.39
398.326	3.41
398.771	3.44
399.216	3.45
399.661	3.48
400.106	3.51
400.551	3.53
400.995	3.54
401.44	3.55
401.885	3.57
402.329	3.59
402.774	3.6
403.218	3.64
403.663	3.66
404.107	3.68
404.551	3.69
404.995	3.71
405.44	3.71
405.884	3.73
406.328	3.76
406.772	3.77
407.216	3.77
407.66	3.79
408.104	3.78
408.547	3.78
408.991	3.8
409.435	3.81
409.879	3.83
410.322	3.86
410.766	3.88
411.209	3.9
411.653	3.93
412.096	3.96
412.54	3.98
412.983	4
413.426	4.05
413.869	4.07
414.312	4.1
414.756	4.11
415.199	4.11
415.642	4.12
416.085	4.13
416.527	4.11
416.97	4.11
417.413	4.11
417.856	4.11
418.298	4.1
418.741	4.11
419.184	4.1
419.626	4.1
420.069	4.11
420.511	4.12
420.953	4.13
421.396	4.15
421.838	4.16
422.28	4.18
422.722	4.19
423.164	4.21
423.606	4.21
424.048	4.23
424.49	4.24
424.932	4.25
425.374	4.23
425.816	4.21
426.258	4.2
426.699	4.19
427.141	4.18
427.582	4.19
428.024	4.18
428.465	4.18
428.907	4.18
429.348	4.16
429.789	4.16
430.231	4.19
430.672	4.2
431.113	4.21
431.554	4.23
431.995	4.25
432.436	4.25
432.877	4.26
433.318	4.28
433.759	4.31
434.2	4.33
434.64	4.35
435.081	4.36
435.522	4.38
435.962	4.41
436.403	4.43
436.843	4.45
437.284	4.46
437.724	4.46
438.164	4.44
438.604	4.46
439.045	4.46
439.485	4.46
439.925	4.47
440.365	4.49
440.805	4.49
441.245	4.5
441.685	4.52
442.125	4.54
442.564	4.57
443.004	4.58
443.444	4.57
443.883	4.59
444.323	4.59
444.762	4.59
445.202	4.58
445.641	4.61
446.081	4.61
446.52	4.61
446.959	4.64
447.398	4.66
447.837	4.69
448.276	4.72
448.716	4.75
449.154	4.78
449.593	4.81
450.032	4.83
450.471	4.83
450.91	4.83
451.349	4.85
451.787	4.82
452.226	4.82
452.664	4.81
453.103	4.8
453.541	4.8
453.98	4.81
454.418	4.8
454.856	4.79
455.295	4.8
455.733	4.78
456.171	4.77
456.609	4.79
457.047	4.78
457.485	4.77
457.923	4.77
458.361	4.76
458.798	4.76
459.236	4.75
459.674	4.75
460.111	4.74
460.549	4.76
460.987	4.76
461.424	4.76
461.862	4.77
462.299	4.78
462.736	4.78
463.173	4.78
463.611	4.78
464.048	4.78
464.485	4.79
464.922	4.8
465.359	4.8
465.796	4.82
466.233	4.82
466.67	4.83
467.106	4.83
467.543	4.83
467.98	4.83
468.416	4.82
468.853	4.82
469.29	4.81
469.726	4.81
470.162	4.8
470.599	4.79
471.035	4.79
471.471	4.78
471.907	4.77
472.344	4.77
472.78	4.78
473.216	4.78
473.652	4.78
474.088	4.79
474.523	4.79
474.959	4.79
475.395	4.78
475.831	4.78
476.266	4.78
476.702	4.77
477.138	4.77
477.573	4.77
478.008	4.77
478.444	4.76
478.879	4.76
479.314	4.75
479.75	4.75
480.185	4.73
480.62	4.73
481.055	4.72
481.49	4.73
481.925	4.72
482.36	4.72
482.795	4.71
483.229	4.71
483.664	4.72
484.099	4.72
484.534	4.72
484.968	4.74
485.403	4.75
485.837	4.77
486.271	4.78
486.706	4.79
487.14	4.81
487.574	4.83
488.009	4.86
488.443	4.87
488.877	4.91
489.311	4.93
489.745	4.96
490.179	4.99
490.613	5.02
491.046	5.06
491.48	5.1
491.914	5.15
492.348	5.2
492.781	5.25
493.215	5.31
493.648	5.37
494.082	5.42
494.515	5.48
494.948	5.54
495.382	5.6
495.815	5.67
496.248	5.74
496.681	5.82
497.114	5.9
497.547	5.97
497.98	6.06
498.413	6.15
498.846	6.25
499.279	6.35
499.711	6.46
500.144	6.58
500.577	6.69
501.009	6.81
501.442	6.94
501.874	7.07
502.306	7.2
502.739	7.35
503.171	7.5
503.603	7.64
504.036	7.79
504.468	7.95
504.9	8.11
505.332	8.29
505.764	8.48
506.196	8.66
506.627	8.85
507.059	9.05
507.491	9.23
507.923	9.45
508.354	9.67
508.786	9.9
509.217	10.13
509.649	10.37
510.08	10.61
510.512	10.85
510.943	11.1
511.374	11.36
511.805	11.61
512.237	11.89
512.668	12.14
513.099	12.4
513.53	12.67
513.961	12.94
514.391	13.22
514.822	13.5
515.253	13.77
515.684	14.06
516.114	14.34
516.545	14.64
516.975	14.93
517.406	15.22
517.836	15.51
518.267	15.81
518.697	16.09
519.127	16.37
519.558	16.66
519.988	16.93
520.418	17.2
520.848	17.46
521.278	17.72
521.708	18.14
522.138	18.39
522.567	18.63
522.997	18.87
523.427	19.12
523.857	19.35
524.286	19.55
524.716	19.77
525.145	19.99
525.575	20.2
526.004	20.4
526.433	20.42
526.863	20.61
527.292	20.8
527.721	20.98
528.15	21.14
528.579	21.3
529.008	21.47
529.437	21.62
529.866	21.75
530.295	21.89
530.724	22.01
531.152	22.14
531.581	22.26
532.01	22.38
532.438	22.5
532.867	22.59
533.295	22.69
533.723	22.78
534.152	22.87
534.58	22.95
535.008	23.01
535.436	23.09
535.865	23.15
536.293	23.21
536.721	23.25
537.149	23.29
537.576	23.34
538.004	23.39
538.432	23.43
538.86	23.47
539.287	23.5
539.715	23.55
540.143	23.57
540.57	23.6
540.998	23.62
541.425	23.66
541.852	23.69
542.28	23.72
542.707	23.74
543.134	23.76
543.561	23.8
543.988	23.83
544.415	23.85
544.842	23.86
545.269	23.88
545.696	23.92
546.123	23.94
546.549	23.97
546.976	24
547.403	24.02
547.829	24.04
548.256	24.04
548.682	24.06
549.108	24.09
549.535	24.12
549.961	24.12
550.387	24.12
550.813	24.12
551.24	24.12
551.666	24.1
552.092	24.09
552.518	24.08
552.943	24.06
553.369	24.03
553.795	23.98
554.221	23.94
554.646	23.92
555.072	23.9
555.498	23.85
555.923	23.8
556.349	23.75
556.774	23.69
557.199	23.63
557.625	23.56
558.05	23.51
558.475	23.45
558.9	23.39
559.325	23.32
559.75	23.24
560.175	23.15
560.6	23.08
561.025	23
561.449	22.91
561.874	22.81
562.299	22.72
562.723	22.62
563.148	22.51
563.572	22.39
563.997	22.27
564.421	22.14
564.846	22.02
565.27	21.89
565.694	21.76
566.118	21.63
566.542	21.52
566.966	21.38
567.39	21.24
567.814	21.1
568.238	20.96
568.662	20.82
569.086	20.7
569.509	20.56
569.933	20.42
570.357	20.27
570.78	20.13
571.204	19.98
571.627	19.84
572.05	19.72
572.474	19.59
572.897	19.46
573.32	19.33
573.743	19.2
574.166	19.09
574.589	18.96
575.012	18.86
575.435	18.75
575.858	18.65
576.281	18.54
576.704	18.44
577.126	18.35
577.549	18.26
577.972	18.15
578.394	18.06
578.817	17.98
579.239	17.9
579.661	17.81
580.084	17.73
580.506	17.65
580.928	17.57
581.35	17.51
581.772	17.42
582.194	17.35
582.616	17.28
583.038	17.22
583.46	17.14
583.882	17.08
584.303	17.01
584.725	16.94
585.147	16.88
585.568	16.82
585.99	16.75
586.411	16.68
586.833	16.62
587.254	16.55
587.675	16.49
588.096	16.43
588.518	16.38
588.939	16.31
589.36	16.27
589.781	16.21
590.202	16.17
590.623	16.13
591.043	16.08
591.464	16.04
591.885	15.99
592.305	15.94
592.726	15.91
593.147	15.86
593.567	15.83
593.987	15.79
594.408	15.75
594.828	15.7
595.248	15.67
595.669	15.65
596.089	15.62
596.509	15.61
596.929	15.58
597.349	15.54
597.769	15.51
598.189	15.48
598.608	15.45
599.028	15.41
599.448	15.37
599.867	15.33
600.287	15.3
600.706	15.26
601.126	15.21
601.545	15.17
601.965	15.14
602.384	15.1
602.803	15.04
603.222	14.99
603.641	14.94
604.061	14.89
604.48	14.82
604.898	14.75
605.317	14.69
605.736	14.63
606.155	14.56
606.574	14.49
606.992	14.41
607.411	14.36
607.829	14.26
608.248	14.18
608.666	14.11
609.085	14.03
609.503	13.96
609.921	13.87
610.339	13.8
610.758	13.72
611.176	13.63
611.594	13.56
612.012	13.48
612.43	13.42
612.847	13.34
613.265	13.26
613.683	13.19
614.101	13.13
614.518	13.06
614.936	12.98
615.353	12.9
615.771	12.84
616.188	12.78
616.606	12.72
617.023	12.68
617.44	12.62
617.857	12.57
618.274	12.52
618.691	12.46
619.108	12.41
619.525	12.37
619.942	12.33
620.359	12.3
620.776	12.26
621.192	12.22
621.609	12.19
622.026	12.16
622.442	12.13
622.859	12.1
623.275	12.08
623.691	12.06
624.108	12.04
624.524	12.02
624.94	12.01
625.356	12
625.772	11.99
626.188	11.98
626.604	11.97
627.02	11.96
627.436	11.95
627.852	11.94
628.268	11.93
628.683	11.91
629.099	11.89
629.514	11.87
629.93	11.86
630.345	11.83
630.761	11.79
631.176	11.76
631.591	11.72
632.007	11.69
632.422	11.65
632.837	11.6
633.252	11.53
633.667	11.48
634.082	11.4
634.497	11.33
634.911	11.24
635.326	11.16
635.741	11.08
636.155	10.98
636.57	10.87
636.984	10.76
637.399	10.65
637.813	10.54
638.228	10.43
638.642	10.32
639.056	10.18
639.47	10.07
639.884	9.95
640.298	9.82
640.712	9.69
641.126	9.56
641.54	9.43
641.954	9.31
642.368	9.18
642.781	9.06
643.195	8.94
643.609	8.83
644.022	8.71
644.436	8.6
644.849	8.5
645.262	8.4
645.676	8.3
646.089	8.21
646.502	8.12
646.915	8.05
647.328	7.97
647.741	7.9
648.154	7.84
648.567	7.78
648.98	7.72
649.393	7.68
649.805	7.64
650.218	7.59
650.631	7.55
651.043	7.51
651.456	7.47
651.868	7.42
652.28	7.38
652.693	7.34
653.105	7.3
653.517	7.24
653.929	7.19
654.341	7.13
654.753	7.07
655.165	7.02
655.577	6.96
655.989	6.88
656.401	6.81
656.813	6.74
657.224	6.65
657.636	6.57
658.047	6.5
658.459	6.41
658.87	6.32
659.282	6.23
659.693	6.15
660.104	6.06
660.515	5.97
660.926	5.88
661.338	5.79
661.749	5.7
662.159	5.62
662.57	5.55
662.981	5.47
663.392	5.4
663.803	5.33
664.213	5.25
664.624	5.19
665.035	5.13
665.445	5.08
665.855	5.03
666.266	4.98
666.676	4.95
667.086	4.89
667.497	4.87
667.907	4.83
668.317	4.81
668.727	4.79
669.137	4.77
669.547	4.77
669.956	4.75
670.366	4.75
670.776	4.74
671.186	4.74
671.595	4.74
672.005	4.73
672.414	4.74
672.824	4.74
673.233	4.75
673.642	4.75
674.052	4.76
674.461	4.78
674.87	4.8
675.279	4.82
675.688	4.85
676.097	4.88
676.506	4.91
676.915	4.94
677.323	4.98
677.732	5.02
678.141	5.06
678.549	5.1
678.958	5.15
679.366	5.21
679.775	5.27
680.183	5.33
680.592	5.42
681	5.51
681.408	5.6
681.816	5.72
682.224	5.83
682.632	5.97
683.04	6.11
683.448	6.27
683.856	6.43
684.264	6.62
684.671	6.83
685.079	7.06
685.487	7.31
685.894	7.6
686.302	7.89
686.709	8.21
687.116	8.54
687.524	8.93
687.931	9.33
688.338	9.76
688.745	10.2
689.152	10.65
689.559	11.13
689.966	11.63
690.373	12.13
690.78	12.66
691.187	13.19
691.593	13.75
692	14.29
692.407	14.84
692.813	15.41
693.22	15.97
693.626	16.55
694.032	17.11
694.439	17.67
694.845	18.24
695.251	18.79
695.657	19.35
696.063	19.89
696.469	20.44
696.875	20.99
697.281	21.52
697.687	22.05
698.093	22.56
698.498	23.08
698.904	23.59
699.31	24.08
699.715	24.59
700.12	25.08
700.526	25.57
700.931	26.03
701.337	26.48
701.742	26.92
702.147	27.34
702.552	27.78
702.957	28.17
703.362	28.57
703.767	28.95
704.172	29.31
704.577	29.68
704.981	30.04
705.386	30.42
705.791	30.77
706.195	31.13
706.6	31.49
707.004	31.81
707.408	32.16
707.813	32.49
708.217	32.81
708.621	33.14
709.025	33.43
709.43	33.71
709.834	33.99
710.237	34.27
710.641	34.54
711.045	34.8
711.449	35.08
711.853	35.36
712.256	35.59
712.66	35.83
713.064	36.07
713.467	36.31
713.87	36.57
714.274	36.8
714.677	37.03
715.08	37.23
715.484	37.45
715.887	37.67
716.29	37.85
716.693	38.06
717.096	38.27
717.499	38.48
717.901	38.68
718.304	38.85
718.707	39.03
719.109	39.2
719.512	39.39
719.915	39.55
720.317	39.69
720.719	39.85
721.122	40
721.524	40.15
721.926	40.3
722.328	40.45
722.731	40.57
723.133	40.71
723.535	40.83
723.937	40.95
724.338	41.08
724.74	41.22
725.142	41.43
725.544	41.52
725.945	41.65
726.347	41.71
726.748	41.8
727.15	41.91
727.551	42.02
727.952	42.09
728.354	42.18
728.755	42.24
729.156	42.31
729.557	42.28
729.958	42.35
730.359	42.41
730.76	42.51
731.161	42.57
731.562	42.63
731.962	42.65
732.363	42.75
732.763	42.84
733.164	42.91
733.564	42.99
733.965	43.05
734.365	43.11
734.766	43.16
735.166	43.21
735.566	43.25
735.966	43.33
736.366	43.39
736.766	43.4
737.166	43.4
737.566	43.44
737.966	43.44
738.365	43.47
738.765	43.5
739.165	43.54
739.564	43.57
739.964	43.6
740.363	43.59
740.763	43.62
741.162	43.65
741.561	43.66
741.96	43.68
742.36	43.72
742.759	43.74
743.158	43.77
743.557	43.76
743.955	43.78
744.354	43.78
744.753	43.82
745.152	43.86
745.55	43.88
745.949	43.92
746.348	43.95
746.746	43.96
747.144	44
747.543	44.02
747.941	44.04
748.339	44.04
748.737	44.06
749.136	44.06
749.534	44.02
749.932	44.04
750.33	44.04
750.727	44.05
751.125	44.09
751.523	44.07
751.921	44.08
752.318	44.11
752.716	44.13
753.113	44.15
753.511	44.15
753.908	44.19
754.305	44.19
754.703	44.18
755.1	44.19
755.497	44.17
755.894	44.16
756.291	44.15
756.688	44.14
757.085	44.12
757.482	44.1
757.878	44.13
758.275	44.12
758.672	44.12
759.068	44.14
759.465	44.13
759.861	44.12
760.258	44.14
760.654	44.15
761.05	44.17
761.447	44.18
761.843	44.21
762.239	44.18
762.635	44.2
763.031	44.21
763.427	44.18
763.822	44.18
764.218	44.18
764.614	44.18
765.01	44.18
765.405	44.15
765.801	44.15
766.196	44.14
766.592	44.14
766.987	44.14
767.382	44.13
767.778	44.13
768.173	44.11
768.568	44.1
768.963	44.07
769.358	44.08
769.753	44.08
770.148	44.08
770.542	44.08
770.937	44.09
771.332	44.09
771.726	44.09
772.121	44.11
772.515	44.11
772.91	44.13
773.304	44.17
773.699	44.17
774.093	44.17
774.487	44.17
774.881	44.19
775.275	44.15
775.669	44.13
776.063	44.1
776.457	44.1
776.851	44.1
777.245	44.06
777.638	44.03
778.032	44.01
778.425	44.01
778.819	44
779.212	44.01
779.606	44.03
779.999	44.01
780.392	44.03
780.786	44.02
781.179	44.05
781.572	44.1
781.965	44.11
782.358	44.1
782.751	44.08
783.143	44.09
