Data from C_2_DEC_CT_2N_Splice17_13-30-06-764.txt Node
Date: Sat Mar 07 13:30:06 EST 2020
User: sa697716
Spectrometer: NQ5500242
Trigger mode: 0
Integration Time (sec): 1.450000E-1
Scans to average: 20
Nonlinearity correction enabled: false
Boxcar width: 5
Storing dark spectrum: false
XAxis mode: Wavelengths
Number of Pixels in Spectrum: 512
>>>>>Begin Spectral Data<<<<<
187.83	100.94
188.298	132.69
188.766	96.63
189.233	86.96
189.701	103.93
190.169	117.49
190.636	110.05
191.104	126.76
191.571	-109.87
192.039	-213.33
192.506	-726.63
192.974	217.22
193.441	331.88
193.908	21.66
194.375	22.24
194.842	58.43
195.31	71.8
195.777	-61.69
196.244	41.13
196.711	47.15
197.177	50.18
197.644	51.46
198.111	51.45
198.578	52.39
199.045	53.26
199.511	53.5
199.978	53.36
200.445	53.8
200.911	54.19
201.378	54.25
201.844	54.09
202.31	53.89
202.777	53.63
203.243	53.7
203.709	53.35
204.176	52.82
204.642	52.36
205.108	52.45
205.574	51.76
206.04	50.99
206.506	50.38
206.972	50.38
207.438	50.1
207.903	49.25
208.369	48.21
208.835	47.22
209.301	46.44
209.766	45.2
210.232	43.96
210.697	42.89
211.163	42.01
211.628	41.19
212.094	39.71
212.559	38.74
213.024	37.98
213.49	37.18
213.955	36.36
214.42	35.42
214.885	34.43
215.35	33.17
215.815	31.63
216.28	29.56
216.745	27.27
217.21	25.37
217.675	23.26
218.14	21.51
218.604	20.04
219.069	18.82
219.534	17.86
219.998	17.03
220.463	16.31
220.927	15.64
221.392	15.14
221.856	14.72
222.32	14.32
222.785	14.04
223.249	13.75
223.713	13.48
224.177	13.23
224.642	12.95
225.106	12.7
225.57	12.46
226.034	12.27
226.497	12.08
226.961	11.87
227.425	11.7
227.889	11.52
228.353	11.35
228.816	11.18
229.28	11
229.744	10.84
230.207	10.69
230.671	10.54
231.134	10.39
231.597	10.27
232.061	10.16
232.524	10.03
232.987	9.91
233.45	9.79
233.914	9.67
234.377	9.56
234.84	9.45
235.303	9.36
235.766	9.27
236.229	9.18
236.691	9.08
237.154	8.97
237.617	8.88
238.08	8.8
238.542	8.69
239.005	8.61
239.468	8.53
239.93	8.45
240.393	8.37
240.855	8.27
241.317	8.2
241.78	8.12
242.242	8.03
242.704	7.96
243.166	7.88
243.629	7.83
244.091	7.75
244.553	7.68
245.015	7.6
245.477	7.52
245.939	7.46
246.4	7.39
246.862	7.33
247.324	7.27
247.786	7.21
248.247	7.14
248.709	7.06
249.17	7
249.632	6.95
250.093	6.9
250.555	6.86
251.016	6.81
251.477	6.76
251.939	6.73
252.4	6.69
252.861	6.65
253.322	6.62
253.783	6.59
254.244	6.55
254.705	6.52
255.166	6.47
255.627	6.43
256.088	6.39
256.549	6.36
257.009	6.3
257.47	6.26
257.931	6.21
258.391	6.16
258.852	6.12
259.312	6.08
259.773	6.04
260.233	6.02
260.694	5.98
261.154	5.94
261.614	5.91
262.074	5.88
262.534	5.84
262.994	5.82
263.455	5.79
263.915	5.77
264.374	5.75
264.834	5.73
265.294	5.7
265.754	5.69
266.214	5.67
266.673	5.65
267.133	5.63
267.593	5.62
268.052	5.6
268.512	5.59
268.971	5.57
269.431	5.55
269.89	5.54
270.349	5.53
270.809	5.51
271.268	5.5
271.727	5.48
272.186	5.47
272.645	5.46
273.104	5.44
273.563	5.43
274.022	5.42
274.481	5.41
274.94	5.4
275.399	5.39
275.857	5.37
276.316	5.36
276.775	5.35
277.233	5.34
277.692	5.33
278.15	5.32
278.609	5.3
279.067	5.29
279.525	5.28
279.984	5.27
280.442	5.25
280.9	5.25
281.358	5.23
281.816	5.23
282.274	5.21
282.732	5.2
283.19	5.18
283.648	5.17
284.106	5.15
284.564	5.14
285.021	5.13
285.479	5.11
285.937	5.1
286.394	5.09
286.852	5.07
287.309	5.05
287.767	5.04
288.224	5.03
288.682	5.01
289.139	4.99
289.596	4.97
290.053	4.95
290.511	4.94
290.968	4.92
291.425	4.9
291.882	4.89
292.339	4.87
292.796	4.86
293.252	4.85
293.709	4.84
294.166	4.84
294.623	4.83
295.079	4.82
295.536	4.81
295.992	4.79
296.449	4.78
296.905	4.77
297.362	4.76
297.818	4.75
298.274	4.74
298.731	4.72
299.187	4.7
299.643	4.69
300.099	4.68
300.555	4.68
301.011	4.67
301.467	4.67
301.923	4.66
302.379	4.64
302.835	4.65
303.291	4.64
303.746	4.64
304.202	4.64
304.658	4.63
305.113	4.62
305.569	4.61
306.024	4.61
306.479	4.6
306.935	4.59
307.39	4.59
307.845	4.58
308.301	4.57
308.756	4.58
309.211	4.57
309.666	4.58
310.121	4.58
310.576	4.58
311.031	4.57
311.486	4.58
311.94	4.58
312.395	4.57
312.85	4.58
313.305	4.57
313.759	4.57
314.214	4.56
314.668	4.55
315.123	4.54
315.577	4.54
316.032	4.53
316.486	4.52
316.94	4.51
317.394	4.5
317.849	4.48
318.303	4.46
318.757	4.44
319.211	4.43
319.665	4.42
320.119	4.41
320.572	4.39
321.026	4.38
321.48	4.37
321.934	4.36
322.387	4.36
322.841	4.36
323.295	4.36
323.748	4.35
324.202	4.34
324.655	4.34
325.108	4.33
325.562	4.33
326.015	4.32
326.468	4.32
326.921	4.3
327.374	4.29
327.827	4.29
328.28	4.27
328.733	4.27
329.186	4.26
329.639	4.26
330.092	4.25
330.545	4.24
330.997	4.24
331.45	4.24
331.903	4.25
332.355	4.26
332.808	4.25
333.26	4.26
333.713	4.25
334.165	4.24
334.617	4.24
335.069	4.23
335.522	4.24
335.974	4.24
336.426	4.23
336.878	4.21
337.33	4.21
337.782	4.21
338.234	4.21
338.686	4.21
339.137	4.22
339.589	4.21
340.041	4.2
340.493	4.19
340.944	4.17
341.396	4.16
341.847	4.16
342.299	4.14
342.75	4.13
343.201	4.11
343.653	4.09
344.104	4.07
344.555	4.06
345.006	4.05
345.457	4.03
345.908	4.02
346.359	4.02
346.81	4
347.261	4
347.712	3.99
348.163	3.98
348.613	3.98
349.064	3.98
349.515	3.98
349.965	3.98
350.416	3.97
350.866	3.96
351.317	3.95
351.767	3.96
352.217	3.95
352.668	3.95
353.118	3.96
353.568	3.95
354.018	3.95
354.468	3.95
354.918	3.96
355.368	3.97
355.818	3.97
356.268	3.97
356.718	3.97
357.168	3.97
357.617	3.97
358.067	3.97
358.517	3.97
358.966	3.96
359.416	3.96
359.865	3.95
360.315	3.96
360.764	3.96
361.213	3.96
361.663	3.95
362.112	3.95
362.561	3.96
363.01	3.96
363.459	3.94
363.908	3.94
364.357	3.95
364.806	3.93
365.255	3.92
365.703	3.93
366.152	3.93
366.601	3.94
367.05	3.95
367.498	3.93
367.947	3.94
368.395	3.95
368.844	3.94
369.292	3.93
369.74	3.94
370.189	3.95
370.637	3.94
371.085	3.93
371.533	3.92
371.981	3.91
372.429	3.91
372.877	3.9
373.325	3.89
373.773	3.89
374.221	3.89
374.669	3.88
375.116	3.87
375.564	3.87
376.012	3.87
376.459	3.86
376.907	3.87
377.354	3.86
377.801	3.86
378.249	3.86
378.696	3.86
379.143	3.86
379.591	3.86
380.038	3.87
380.485	3.88
380.932	3.87
381.379	3.88
381.826	3.88
382.273	3.88
382.72	3.86
383.166	3.87
383.613	3.87
384.06	3.87
384.506	3.86
384.953	3.87
385.4	3.87
385.846	3.87
386.292	3.88
386.739	3.87
387.185	3.88
387.631	3.9
388.078	3.91
388.524	3.92
388.97	3.93
389.416	3.95
389.862	3.96
390.308	3.98
390.754	4
391.2	4.02
391.645	4.04
392.091	4.07
392.537	4.09
392.983	4.1
393.428	4.13
393.874	4.14
394.319	4.17
394.765	4.18
395.21	4.2
395.655	4.21
396.101	4.25
396.546	4.27
396.991	4.29
397.436	4.31
397.881	4.35
398.326	4.39
398.771	4.42
399.216	4.45
399.661	4.49
400.106	4.52
400.551	4.54
400.995	4.56
401.44	4.6
401.885	4.63
402.329	4.65
402.774	4.68
403.218	4.72
403.663	4.75
404.107	4.78
404.551	4.8
404.995	4.83
405.44	4.86
405.884	4.9
406.328	4.92
406.772	4.95
407.216	4.97
407.66	4.99
408.104	5
408.547	5.02
408.991	5.04
409.435	5.07
409.879	5.09
410.322	5.14
410.766	5.16
411.209	5.2
411.653	5.23
412.096	5.27
412.54	5.31
412.983	5.34
413.426	5.39
413.869	5.42
414.312	5.46
414.756	5.5
415.199	5.51
415.642	5.54
416.085	5.55
416.527	5.55
416.97	5.56
417.413	5.56
417.856	5.58
418.298	5.58
418.741	5.6
419.184	5.59
419.626	5.6
420.069	5.62
420.511	5.62
420.953	5.65
421.396	5.68
421.838	5.69
422.28	5.71
422.722	5.73
423.164	5.73
423.606	5.75
424.048	5.76
424.49	5.77
424.932	5.77
425.374	5.76
425.816	5.73
426.258	5.71
426.699	5.69
427.141	5.7
427.582	5.68
428.024	5.69
428.465	5.68
428.907	5.67
429.348	5.66
429.789	5.65
430.231	5.68
430.672	5.72
431.113	5.74
431.554	5.76
431.995	5.77
432.436	5.79
432.877	5.79
433.318	5.8
433.759	5.83
434.2	5.85
434.64	5.88
435.081	5.88
435.522	5.88
435.962	5.88
436.403	5.91
436.843	5.92
437.284	5.92
437.724	5.94
438.164	5.94
438.604	5.96
439.045	5.96
439.485	5.98
439.925	5.98
440.365	6.01
440.805	6.03
441.245	6.06
441.685	6.08
442.125	6.12
442.564	6.15
443.004	6.18
443.444	6.21
443.883	6.25
444.323	6.27
444.762	6.31
445.202	6.33
445.641	6.37
446.081	6.4
446.52	6.43
446.959	6.47
447.398	6.5
447.837	6.52
448.276	6.55
448.716	6.59
449.154	6.64
449.593	6.67
450.032	6.7
450.471	6.71
450.91	6.73
451.349	6.76
451.787	6.77
452.226	6.77
452.664	6.81
453.103	6.82
453.541	6.82
453.98	6.83
454.418	6.81
454.856	6.8
455.295	6.8
455.733	6.78
456.171	6.76
456.609	6.76
457.047	6.75
457.485	6.74
457.923	6.73
458.361	6.72
458.798	6.71
459.236	6.71
459.674	6.7
460.111	6.71
460.549	6.72
460.987	6.73
461.424	6.74
461.862	6.75
462.299	6.75
462.736	6.75
463.173	6.76
463.611	6.76
464.048	6.79
464.485	6.8
464.922	6.8
465.359	6.82
465.796	6.83
466.233	6.83
466.67	6.83
467.106	6.84
467.543	6.84
467.98	6.84
468.416	6.83
468.853	6.82
469.29	6.82
469.726	6.83
470.162	6.82
470.599	6.82
471.035	6.81
471.471	6.81
471.907	6.8
472.344	6.81
472.78	6.81
473.216	6.81
473.652	6.81
474.088	6.8
474.523	6.81
474.959	6.8
475.395	6.79
475.831	6.81
476.266	6.82
476.702	6.82
477.138	6.81
477.573	6.81
478.008	6.82
478.444	6.82
478.879	6.83
479.314	6.82
479.75	6.82
480.185	6.81
480.62	6.81
481.055	6.8
481.49	6.79
481.925	6.81
482.36	6.81
482.795	6.81
483.229	6.81
483.664	6.82
484.099	6.83
484.534	6.85
484.968	6.87
485.403	6.88
485.837	6.91
486.271	6.94
486.706	6.96
487.14	6.98
487.574	7.01
488.009	7.05
488.443	7.08
488.877	7.14
489.311	7.18
489.745	7.23
490.179	7.3
490.613	7.36
491.046	7.41
491.48	7.48
491.914	7.56
492.348	7.64
492.781	7.72
493.215	7.8
493.648	7.89
494.082	7.97
494.515	8.06
494.948	8.14
495.382	8.24
495.815	8.34
496.248	8.45
496.681	8.56
497.114	8.68
497.547	8.8
497.98	8.93
498.413	9.06
498.846	9.2
499.279	9.35
499.711	9.5
500.144	9.65
500.577	9.81
501.009	9.97
501.442	10.14
501.874	10.31
502.306	10.48
502.739	10.68
503.171	10.88
503.603	11.08
504.036	11.29
504.468	11.48
504.9	11.69
505.332	11.92
505.764	12.15
506.196	12.38
506.627	12.61
507.059	12.87
507.491	13.11
507.923	13.36
508.354	13.62
508.786	13.88
509.217	14.16
509.649	14.43
510.08	14.71
510.512	15
510.943	15.28
511.374	15.56
511.805	15.85
512.237	16.14
512.668	16.45
513.099	16.74
513.53	17.03
513.961	17.32
514.391	17.62
514.822	17.92
515.253	18.21
515.684	18.49
516.114	18.78
516.545	19.06
516.975	19.35
517.406	19.64
517.836	19.91
518.267	20.21
518.697	20.5
519.127	20.76
519.558	21.04
519.988	21.3
520.418	21.57
520.848	21.83
521.278	22.08
521.708	22.48
522.138	22.71
522.567	22.94
522.997	23.14
523.427	23.35
523.857	23.55
524.286	23.75
524.716	23.93
525.145	24.13
525.575	24.31
526.004	24.49
526.433	24.49
526.863	24.67
527.292	24.83
527.721	24.97
528.15	25.11
528.579	25.25
529.008	25.39
529.437	25.51
529.866	25.63
530.295	25.76
530.724	25.85
531.152	25.95
531.581	26.04
532.01	26.13
532.438	26.23
532.867	26.32
533.295	26.4
533.723	26.47
534.152	26.56
534.58	26.63
535.008	26.68
535.436	26.74
535.865	26.8
536.293	26.86
536.721	26.91
537.149	26.96
537.576	27.01
538.004	27.05
538.432	27.09
538.86	27.12
539.287	27.13
539.715	27.17
540.143	27.2
540.57	27.23
540.998	27.25
541.425	27.27
541.852	27.3
542.28	27.32
542.707	27.33
543.134	27.36
543.561	27.39
543.988	27.42
544.415	27.43
544.842	27.46
545.269	27.48
545.696	27.52
546.123	27.54
546.549	27.55
546.976	27.57
547.403	27.59
547.829	27.6
548.256	27.61
548.682	27.62
549.108	27.64
549.535	27.66
549.961	27.66
550.387	27.67
550.813	27.66
551.24	27.67
551.666	27.66
552.092	27.67
552.518	27.66
552.943	27.65
553.369	27.64
553.795	27.62
554.221	27.6
554.646	27.57
555.072	27.54
555.498	27.5
555.923	27.47
556.349	27.43
556.774	27.36
557.199	27.33
557.625	27.28
558.05	27.23
558.475	27.18
558.9	27.13
559.325	27.08
559.75	27.02
560.175	26.97
560.6	26.88
561.025	26.81
561.449	26.74
561.874	26.65
562.299	26.56
562.723	26.47
563.148	26.37
563.572	26.26
563.997	26.17
564.421	26.06
564.846	25.95
565.27	25.85
565.694	25.75
566.118	25.63
566.542	25.53
566.966	25.41
567.39	25.29
567.814	25.16
568.238	25.04
568.662	24.91
569.086	24.79
569.509	24.67
569.933	24.57
570.357	24.44
570.78	24.33
571.204	24.2
571.627	24.08
572.05	23.96
572.474	23.86
572.897	23.76
573.32	23.64
573.743	23.53
574.166	23.42
574.589	23.3
575.012	23.2
575.435	23.1
575.858	23.01
576.281	22.91
576.704	22.82
577.126	22.73
577.549	22.64
577.972	22.55
578.394	22.45
578.817	22.37
579.239	22.29
579.661	22.2
580.084	22.13
580.506	22.06
580.928	21.99
581.35	21.91
581.772	21.83
582.194	21.76
582.616	21.69
583.038	21.63
583.46	21.55
583.882	21.49
584.303	21.43
584.725	21.36
585.147	21.3
585.568	21.24
585.99	21.19
586.411	21.12
586.833	21.06
587.254	21.01
587.675	20.95
588.096	20.89
588.518	20.84
588.939	20.81
589.36	20.75
589.781	20.69
590.202	20.65
590.623	20.6
591.043	20.58
591.464	20.55
591.885	20.51
592.305	20.48
592.726	20.46
593.147	20.43
593.567	20.39
593.987	20.35
594.408	20.32
594.828	20.28
595.248	20.26
595.669	20.22
596.089	20.2
596.509	20.17
596.929	20.13
597.349	20.1
597.769	20.07
598.189	20.03
598.608	20
599.028	19.97
599.448	19.94
599.867	19.9
600.287	19.87
600.706	19.82
601.126	19.78
601.545	19.74
601.965	19.7
602.384	19.66
602.803	19.61
603.222	19.56
603.641	19.5
604.061	19.44
604.48	19.36
604.898	19.29
605.317	19.22
605.736	19.14
606.155	19.07
606.574	18.99
606.992	18.9
607.411	18.83
607.829	18.73
608.248	18.64
608.666	18.55
609.085	18.48
609.503	18.4
609.921	18.32
610.339	18.22
610.758	18.15
611.176	18.05
611.594	17.97
612.012	17.88
612.43	17.82
612.847	17.75
613.265	17.67
613.683	17.59
614.101	17.51
614.518	17.43
614.936	17.36
615.353	17.28
615.771	17.21
616.188	17.14
616.606	17.08
617.023	17.01
617.44	16.96
617.857	16.9
618.274	16.83
618.691	16.77
619.108	16.73
619.525	16.67
619.942	16.63
620.359	16.59
620.776	16.55
621.192	16.51
621.609	16.48
622.026	16.43
622.442	16.41
622.859	16.4
623.275	16.36
623.691	16.35
624.108	16.33
624.524	16.3
624.94	16.29
625.356	16.28
625.772	16.27
626.188	16.25
626.604	16.23
627.02	16.19
627.436	16.18
627.852	16.17
628.268	16.16
628.683	16.15
629.099	16.15
629.514	16.13
629.93	16.11
630.345	16.08
630.761	16.05
631.176	16.02
631.591	16
632.007	15.97
632.422	15.92
632.837	15.85
633.252	15.8
633.667	15.73
634.082	15.65
634.497	15.6
634.911	15.52
635.326	15.45
635.741	15.36
636.155	15.27
636.57	15.16
636.984	15.07
637.399	14.97
637.813	14.86
638.228	14.73
638.642	14.61
639.056	14.47
639.47	14.36
639.884	14.22
640.298	14.07
640.712	13.93
641.126	13.8
641.54	13.65
641.954	13.51
642.368	13.36
642.781	13.23
643.195	13.1
643.609	12.97
644.022	12.83
644.436	12.7
644.849	12.58
645.262	12.46
645.676	12.34
646.089	12.23
646.502	12.12
646.915	12.03
647.328	11.92
647.741	11.83
648.154	11.74
648.567	11.66
648.98	11.59
649.393	11.52
649.805	11.46
650.218	11.38
650.631	11.32
651.043	11.26
651.456	11.19
651.868	11.11
652.28	11.04
652.693	10.97
653.105	10.9
653.517	10.82
653.929	10.74
654.341	10.65
654.753	10.57
655.165	10.48
655.577	10.38
655.989	10.28
656.401	10.18
656.813	10.07
657.224	9.95
657.636	9.82
658.047	9.71
658.459	9.57
658.87	9.43
659.282	9.29
659.693	9.15
660.104	9.01
660.515	8.87
660.926	8.74
661.338	8.6
661.749	8.46
662.159	8.33
662.57	8.2
662.981	8.09
663.392	7.98
663.803	7.87
664.213	7.77
664.624	7.67
665.035	7.58
665.445	7.5
665.855	7.42
666.266	7.35
666.676	7.28
667.086	7.2
667.497	7.13
667.907	7.08
668.317	7.02
668.727	6.98
669.137	6.93
669.547	6.9
669.956	6.85
670.366	6.83
670.776	6.8
671.186	6.78
671.595	6.77
672.005	6.74
672.414	6.73
672.824	6.72
673.233	6.72
673.642	6.71
674.052	6.71
674.461	6.72
674.87	6.73
675.279	6.75
675.688	6.77
676.097	6.8
676.506	6.83
676.915	6.87
677.323	6.9
677.732	6.94
678.141	6.99
678.549	7.04
678.958	7.11
679.366	7.19
679.775	7.26
680.183	7.36
680.592	7.47
681	7.6
681.408	7.75
681.816	7.92
682.224	8.1
682.632	8.31
683.04	8.53
683.448	8.77
683.856	9.03
684.264	9.32
684.671	9.62
685.079	9.96
685.487	10.32
685.894	10.71
686.302	11.12
686.709	11.55
687.116	12.01
687.524	12.49
687.931	12.98
688.338	13.5
688.745	14.03
689.152	14.58
689.559	15.14
689.966	15.71
690.373	16.27
690.78	16.85
691.187	17.44
691.593	18.02
692	18.6
692.407	19.18
692.813	19.74
693.22	20.3
693.626	20.86
694.032	21.42
694.439	21.96
694.845	22.48
695.251	23
695.657	23.51
696.063	24.01
696.469	24.5
696.875	24.99
697.281	25.47
697.687	25.94
698.093	26.39
698.498	26.81
698.904	27.22
699.31	27.65
699.715	28.07
700.12	28.46
700.526	28.84
700.931	29.2
701.337	29.53
701.742	29.86
702.147	30.18
702.552	30.5
702.957	30.79
703.362	31.11
703.767	31.38
704.172	31.65
704.577	31.93
704.981	32.19
705.386	32.46
705.791	32.71
706.195	32.99
706.6	33.24
707.004	33.49
707.408	33.74
707.813	33.98
708.217	34.21
708.621	34.43
709.025	34.62
709.43	34.83
709.834	35.02
710.237	35.22
710.641	35.39
711.045	35.56
711.449	35.75
711.853	35.94
712.256	36.09
712.66	36.26
713.064	36.4
713.467	36.57
713.87	36.73
714.274	36.86
714.677	37.02
715.08	37.16
715.484	37.31
715.887	37.45
716.29	37.57
716.693	37.73
717.096	37.85
717.499	37.99
717.901	38.11
718.304	38.23
718.707	38.37
719.109	38.48
719.512	38.6
719.915	38.68
720.317	38.77
720.719	38.84
721.122	38.93
721.524	39.04
721.926	39.15
722.328	39.25
722.731	39.32
723.133	39.42
723.535	39.48
723.937	39.57
724.338	39.66
724.74	39.76
725.142	39.93
725.544	39.99
725.945	40.08
726.347	40.13
726.748	40.18
727.15	40.25
727.551	40.3
727.952	40.35
728.354	40.4
728.755	40.43
729.156	40.45
729.557	40.41
729.958	40.43
730.359	40.46
730.76	40.51
731.161	40.55
731.562	40.61
731.962	40.61
732.363	40.67
732.763	40.7
733.164	40.76
733.564	40.79
733.965	40.85
734.365	40.91
734.766	40.93
735.166	40.98
735.566	41.02
735.966	41.04
736.366	41.07
736.766	41.07
737.166	41.1
737.566	41.1
737.966	41.13
738.365	41.13
738.765	41.15
739.165	41.15
739.564	41.15
739.964	41.14
740.363	41.16
740.763	41.21
741.162	41.24
741.561	41.25
741.96	41.28
742.36	41.31
742.759	41.34
743.158	41.34
743.557	41.35
743.955	41.39
744.354	41.4
744.753	41.43
745.152	41.45
745.55	41.44
745.949	41.45
746.348	41.45
746.746	41.42
747.144	41.43
747.543	41.44
747.941	41.45
748.339	41.43
748.737	41.43
749.136	41.42
749.534	41.38
749.932	41.39
750.33	41.4
750.727	41.41
751.125	41.44
751.523	41.43
751.921	41.43
752.318	41.44
752.716	41.47
753.113	41.49
753.511	41.5
753.908	41.52
754.305	41.54
754.703	41.53
755.1	41.53
755.497	41.53
755.894	41.53
756.291	41.53
756.688	41.51
757.085	41.5
757.482	41.5
757.878	41.51
758.275	41.5
758.672	41.5
759.068	41.52
759.465	41.52
759.861	41.51
760.258	41.5
760.654	41.5
761.05	41.52
761.447	41.52
761.843	41.51
762.239	41.52
762.635	41.51
763.031	41.5
763.427	41.51
763.822	41.52
764.218	41.54
764.614	41.55
765.01	41.53
765.405	41.53
765.801	41.53
766.196	41.52
766.592	41.49
766.987	41.51
767.382	41.5
767.778	41.49
768.173	41.48
768.568	41.47
768.963	41.46
769.358	41.5
769.753	41.49
770.148	41.48
770.542	41.48
770.937	41.49
771.332	41.49
771.726	41.49
772.121	41.48
772.515	41.48
772.91	41.48
773.304	41.49
773.699	41.48
774.093	41.49
774.487	41.51
774.881	41.54
775.275	41.55
775.669	41.54
776.063	41.52
776.457	41.53
776.851	41.52
777.245	41.5
777.638	41.5
778.032	41.5
778.425	41.52
778.819	41.52
779.212	41.51
779.606	41.53
779.999	41.53
780.392	41.6
