Data from C_2_DEC_CT_2N_Splice17_13-30-00-829.txt Node
Date: Sat Mar 07 13:30:00 EST 2020
User: sa697716
Spectrometer: NQ5500242
Trigger mode: 0
Integration Time (sec): 1.450000E-1
Scans to average: 20
Nonlinearity correction enabled: false
Boxcar width: 5
Storing dark spectrum: false
XAxis mode: Wavelengths
Number of Pixels in Spectrum: 512
>>>>>Begin Spectral Data<<<<<
187.83	152.21
188.298	164.91
188.766	137.83
189.233	110.82
189.701	107.45
190.169	141.75
190.636	171.22
191.104	329.16
191.571	490.36
192.039	201.23
192.506	148.7
192.974	-21
193.441	-29.57
193.908	-46.67
194.375	0.21
194.842	-36.67
195.31	6.52
195.777	-11.43
196.244	47.97
196.711	51.79
197.177	52.2
197.644	52.02
198.111	52.89
198.578	53.59
199.045	53.69
199.511	53.38
199.978	53.34
200.445	53.75
200.911	54.02
201.378	54.21
201.844	54.15
202.31	54.06
202.777	53.98
203.243	53.65
203.709	53.31
204.176	52.89
204.642	52.53
205.108	52.25
205.574	51.56
206.04	50.9
206.506	50.4
206.972	50.14
207.438	49.9
207.903	49.42
208.369	48.52
208.835	47.69
209.301	46.7
209.766	45.35
210.232	44.15
210.697	43.07
211.163	41.95
211.628	40.9
212.094	40.01
212.559	39.18
213.024	38.24
213.49	37.58
213.955	36.65
214.42	35.72
214.885	34.87
215.35	33.74
215.815	32.03
216.28	30.02
216.745	27.9
217.21	25.72
217.675	23.53
218.14	21.79
218.604	20.23
219.069	18.93
219.534	17.93
219.998	17.05
220.463	16.25
220.927	15.63
221.392	15.18
221.856	14.73
222.32	14.35
222.785	14.05
223.249	13.74
223.713	13.44
224.177	13.2
224.642	12.96
225.106	12.7
225.57	12.47
226.034	12.26
226.497	12.04
226.961	11.84
227.425	11.64
227.889	11.45
228.353	11.26
228.816	11.09
229.28	10.91
229.744	10.76
230.207	10.63
230.671	10.49
231.134	10.35
231.597	10.23
232.061	10.1
232.524	9.97
232.987	9.85
233.45	9.75
233.914	9.65
234.377	9.54
234.84	9.43
235.303	9.33
235.766	9.23
236.229	9.14
236.691	9.03
237.154	8.94
237.617	8.86
238.08	8.77
238.542	8.67
239.005	8.59
239.468	8.51
239.93	8.43
240.393	8.36
240.855	8.27
241.317	8.18
241.78	8.1
242.242	8.01
242.704	7.94
243.166	7.86
243.629	7.8
244.091	7.71
244.553	7.64
245.015	7.56
245.477	7.48
245.939	7.42
246.4	7.36
246.862	7.3
247.324	7.24
247.786	7.17
248.247	7.11
248.709	7.04
249.17	6.97
249.632	6.92
250.093	6.87
250.555	6.82
251.016	6.78
251.477	6.72
251.939	6.68
252.4	6.64
252.861	6.61
253.322	6.56
253.783	6.53
254.244	6.5
254.705	6.46
255.166	6.42
255.627	6.39
256.088	6.35
256.549	6.32
257.009	6.27
257.47	6.23
257.931	6.18
258.391	6.13
258.852	6.08
259.312	6.04
259.773	6.01
260.233	5.97
260.694	5.92
261.154	5.88
261.614	5.85
262.074	5.81
262.534	5.78
262.994	5.76
263.455	5.73
263.915	5.7
264.374	5.68
264.834	5.65
265.294	5.63
265.754	5.61
266.214	5.59
266.673	5.57
267.133	5.56
267.593	5.55
268.052	5.53
268.512	5.52
268.971	5.51
269.431	5.5
269.89	5.49
270.349	5.48
270.809	5.47
271.268	5.46
271.727	5.44
272.186	5.43
272.645	5.42
273.104	5.41
273.563	5.4
274.022	5.38
274.481	5.37
274.94	5.36
275.399	5.35
275.857	5.34
276.316	5.33
276.775	5.32
277.233	5.31
277.692	5.31
278.15	5.29
278.609	5.28
279.067	5.27
279.525	5.26
279.984	5.24
280.442	5.23
280.9	5.22
281.358	5.21
281.816	5.2
282.274	5.18
282.732	5.16
283.19	5.14
283.648	5.13
284.106	5.11
284.564	5.1
285.021	5.09
285.479	5.08
285.937	5.06
286.394	5.05
286.852	5.03
287.309	5.02
287.767	5
288.224	4.99
288.682	4.97
289.139	4.95
289.596	4.93
290.053	4.9
290.511	4.88
290.968	4.87
291.425	4.85
291.882	4.83
292.339	4.82
292.796	4.8
293.252	4.79
293.709	4.78
294.166	4.77
294.623	4.76
295.079	4.75
295.536	4.75
295.992	4.74
296.449	4.73
296.905	4.72
297.362	4.71
297.818	4.7
298.274	4.7
298.731	4.69
299.187	4.67
299.643	4.67
300.099	4.66
300.555	4.65
301.011	4.64
301.467	4.63
301.923	4.62
302.379	4.61
302.835	4.61
303.291	4.6
303.746	4.6
304.202	4.59
304.658	4.59
305.113	4.58
305.569	4.58
306.024	4.57
306.479	4.56
306.935	4.56
307.39	4.55
307.845	4.55
308.301	4.55
308.756	4.55
309.211	4.54
309.666	4.55
310.121	4.54
310.576	4.54
311.031	4.54
311.486	4.54
311.94	4.54
312.395	4.54
312.85	4.54
313.305	4.53
313.759	4.53
314.214	4.52
314.668	4.5
315.123	4.5
315.577	4.49
316.032	4.48
316.486	4.47
316.94	4.46
317.394	4.44
317.849	4.43
318.303	4.41
318.757	4.39
319.211	4.39
319.665	4.37
320.119	4.37
320.572	4.35
321.026	4.35
321.48	4.35
321.934	4.34
322.387	4.34
322.841	4.34
323.295	4.34
323.748	4.33
324.202	4.33
324.655	4.32
325.108	4.31
325.562	4.3
326.015	4.29
326.468	4.29
326.921	4.28
327.374	4.27
327.827	4.26
328.28	4.25
328.733	4.24
329.186	4.24
329.639	4.24
330.092	4.24
330.545	4.23
330.997	4.22
331.45	4.22
331.903	4.22
332.355	4.23
332.808	4.22
333.26	4.22
333.713	4.21
334.165	4.2
334.617	4.2
335.069	4.19
335.522	4.2
335.974	4.2
336.426	4.19
336.878	4.18
337.33	4.18
337.782	4.17
338.234	4.17
338.686	4.18
339.137	4.17
339.589	4.16
340.041	4.15
340.493	4.14
340.944	4.13
341.396	4.12
341.847	4.11
342.299	4.1
342.75	4.08
343.201	4.07
343.653	4.06
344.104	4.04
344.555	4.04
345.006	4.02
345.457	4.01
345.908	4
346.359	3.99
346.81	3.99
347.261	3.99
347.712	3.98
348.163	3.97
348.613	3.96
349.064	3.96
349.515	3.96
349.965	3.95
350.416	3.94
350.866	3.93
351.317	3.93
351.767	3.92
352.217	3.91
352.668	3.91
353.118	3.91
353.568	3.89
354.018	3.9
354.468	3.91
354.918	3.9
355.368	3.91
355.818	3.92
356.268	3.92
356.718	3.92
357.168	3.91
357.617	3.91
358.067	3.9
358.517	3.92
358.966	3.92
359.416	3.92
359.865	3.91
360.315	3.91
360.764	3.91
361.213	3.9
361.663	3.91
362.112	3.91
362.561	3.91
363.01	3.91
363.459	3.89
363.908	3.88
364.357	3.88
364.806	3.87
365.255	3.88
365.703	3.88
366.152	3.89
366.601	3.89
367.05	3.89
367.498	3.89
367.947	3.9
368.395	3.91
368.844	3.92
369.292	3.92
369.74	3.92
370.189	3.91
370.637	3.91
371.085	3.9
371.533	3.89
371.981	3.88
372.429	3.88
372.877	3.87
373.325	3.87
373.773	3.86
374.221	3.86
374.669	3.85
375.116	3.85
375.564	3.84
376.012	3.84
376.459	3.84
376.907	3.84
377.354	3.84
377.801	3.84
378.249	3.84
378.696	3.84
379.143	3.84
379.591	3.84
380.038	3.84
380.485	3.85
380.932	3.85
381.379	3.86
381.826	3.85
382.273	3.84
382.72	3.84
383.166	3.84
383.613	3.84
384.06	3.84
384.506	3.84
384.953	3.85
385.4	3.85
385.846	3.87
386.292	3.87
386.739	3.88
387.185	3.88
387.631	3.89
388.078	3.89
388.524	3.9
388.97	3.92
389.416	3.92
389.862	3.94
390.308	3.97
390.754	3.99
391.2	4
391.645	4.01
392.091	4.04
392.537	4.06
392.983	4.08
393.428	4.11
393.874	4.13
394.319	4.15
394.765	4.16
395.21	4.17
395.655	4.18
396.101	4.21
396.546	4.24
396.991	4.26
397.436	4.29
397.881	4.32
398.326	4.35
398.771	4.39
399.216	4.42
399.661	4.46
400.106	4.49
400.551	4.52
400.995	4.55
401.44	4.58
401.885	4.61
402.329	4.64
402.774	4.67
403.218	4.7
403.663	4.72
404.107	4.75
404.551	4.79
404.995	4.81
405.44	4.84
405.884	4.88
406.328	4.91
406.772	4.93
407.216	4.96
407.66	4.98
408.104	4.99
408.547	5.02
408.991	5.05
409.435	5.06
409.879	5.1
410.322	5.12
410.766	5.15
411.209	5.17
411.653	5.21
412.096	5.22
412.54	5.25
412.983	5.28
413.426	5.33
413.869	5.35
414.312	5.4
414.756	5.43
415.199	5.47
415.642	5.5
416.085	5.52
416.527	5.52
416.97	5.53
417.413	5.55
417.856	5.57
418.298	5.57
418.741	5.58
419.184	5.57
419.626	5.58
420.069	5.58
420.511	5.59
420.953	5.6
421.396	5.64
421.838	5.66
422.28	5.68
422.722	5.71
423.164	5.71
423.606	5.73
424.048	5.75
424.49	5.76
424.932	5.77
425.374	5.75
425.816	5.74
426.258	5.72
426.699	5.7
427.141	5.7
427.582	5.69
428.024	5.71
428.465	5.71
428.907	5.7
429.348	5.69
429.789	5.68
430.231	5.7
430.672	5.71
431.113	5.73
431.554	5.75
431.995	5.76
432.436	5.77
432.877	5.77
433.318	5.79
433.759	5.81
434.2	5.84
434.64	5.86
435.081	5.87
435.522	5.89
435.962	5.91
436.403	5.94
436.843	5.95
437.284	5.94
437.724	5.96
438.164	5.96
438.604	5.97
439.045	5.97
439.485	5.99
439.925	6
440.365	6.02
440.805	6.02
441.245	6.05
441.685	6.07
442.125	6.13
442.564	6.15
443.004	6.17
443.444	6.19
443.883	6.24
444.323	6.24
444.762	6.28
445.202	6.32
445.641	6.36
446.081	6.4
446.52	6.43
446.959	6.48
447.398	6.51
447.837	6.55
448.276	6.58
448.716	6.62
449.154	6.68
449.593	6.72
450.032	6.73
450.471	6.74
450.91	6.75
451.349	6.77
451.787	6.76
452.226	6.78
452.664	6.78
453.103	6.79
453.541	6.78
453.98	6.79
454.418	6.77
454.856	6.77
455.295	6.77
455.733	6.76
456.171	6.77
456.609	6.76
457.047	6.75
457.485	6.75
457.923	6.74
458.361	6.75
458.798	6.74
459.236	6.74
459.674	6.73
460.111	6.73
460.549	6.75
460.987	6.74
461.424	6.75
461.862	6.76
462.299	6.76
462.736	6.76
463.173	6.76
463.611	6.77
464.048	6.78
464.485	6.79
464.922	6.79
465.359	6.79
465.796	6.8
466.233	6.8
466.67	6.82
467.106	6.83
467.543	6.82
467.98	6.82
468.416	6.8
468.853	6.81
469.29	6.81
469.726	6.83
470.162	6.83
470.599	6.82
471.035	6.81
471.471	6.79
471.907	6.8
472.344	6.81
472.78	6.83
473.216	6.84
473.652	6.83
474.088	6.84
474.523	6.83
474.959	6.83
475.395	6.83
475.831	6.84
476.266	6.86
476.702	6.84
477.138	6.84
477.573	6.83
478.008	6.83
478.444	6.84
478.879	6.84
479.314	6.82
479.75	6.82
480.185	6.81
480.62	6.8
481.055	6.79
481.49	6.79
481.925	6.78
482.36	6.79
482.795	6.79
483.229	6.79
483.664	6.79
484.099	6.81
484.534	6.82
484.968	6.84
485.403	6.87
485.837	6.89
486.271	6.92
486.706	6.95
487.14	6.98
487.574	7.01
488.009	7.05
488.443	7.09
488.877	7.13
489.311	7.18
489.745	7.23
490.179	7.29
490.613	7.34
491.046	7.4
491.48	7.46
491.914	7.53
492.348	7.61
492.781	7.69
493.215	7.77
493.648	7.86
494.082	7.94
494.515	8.03
494.948	8.12
495.382	8.22
495.815	8.33
496.248	8.44
496.681	8.55
497.114	8.67
497.547	8.79
497.98	8.91
498.413	9.04
498.846	9.18
499.279	9.31
499.711	9.46
500.144	9.62
500.577	9.77
501.009	9.93
501.442	10.1
501.874	10.27
502.306	10.45
502.739	10.66
503.171	10.84
503.603	11.04
504.036	11.25
504.468	11.46
504.9	11.65
505.332	11.87
505.764	12.09
506.196	12.32
506.627	12.55
507.059	12.78
507.491	13.01
507.923	13.26
508.354	13.52
508.786	13.78
509.217	14.04
509.649	14.32
510.08	14.59
510.512	14.87
510.943	15.15
511.374	15.42
511.805	15.71
512.237	16
512.668	16.27
513.099	16.54
513.53	16.84
513.961	17.13
514.391	17.42
514.822	17.71
515.253	17.98
515.684	18.26
516.114	18.56
516.545	18.85
516.975	19.15
517.406	19.45
517.836	19.74
518.267	20.03
518.697	20.29
519.127	20.54
519.558	20.81
519.988	21.1
520.418	21.35
520.848	21.6
521.278	21.84
521.708	22.22
522.138	22.46
522.567	22.67
522.997	22.88
523.427	23.09
523.857	23.32
524.286	23.51
524.716	23.68
525.145	23.88
525.575	24.06
526.004	24.22
526.433	24.24
526.863	24.4
527.292	24.57
527.721	24.71
528.15	24.85
528.579	24.97
529.008	25.11
529.437	25.23
529.866	25.35
530.295	25.45
530.724	25.56
531.152	25.67
531.581	25.76
532.01	25.83
532.438	25.92
532.867	26
533.295	26.08
533.723	26.15
534.152	26.22
534.58	26.28
535.008	26.32
535.436	26.37
535.865	26.42
536.293	26.46
536.721	26.52
537.149	26.57
537.576	26.63
538.004	26.67
538.432	26.7
538.86	26.73
539.287	26.75
539.715	26.81
540.143	26.83
540.57	26.87
540.998	26.89
541.425	26.92
541.852	26.94
542.28	26.97
542.707	26.99
543.134	27.02
543.561	27.04
543.988	27.07
544.415	27.08
544.842	27.1
545.269	27.12
545.696	27.16
546.123	27.17
546.549	27.19
546.976	27.21
547.403	27.22
547.829	27.25
548.256	27.26
548.682	27.28
549.108	27.29
549.535	27.31
549.961	27.31
550.387	27.31
550.813	27.31
551.24	27.29
551.666	27.29
552.092	27.29
552.518	27.28
552.943	27.28
553.369	27.27
553.795	27.27
554.221	27.24
554.646	27.23
555.072	27.21
555.498	27.18
555.923	27.16
556.349	27.11
556.774	27.07
557.199	27.03
557.625	26.97
558.05	26.91
558.475	26.83
558.9	26.78
559.325	26.72
559.75	26.66
560.175	26.6
560.6	26.53
561.025	26.47
561.449	26.4
561.874	26.32
562.299	26.25
562.723	26.17
563.148	26.08
563.572	25.98
563.997	25.88
564.421	25.76
564.846	25.66
565.27	25.54
565.694	25.41
566.118	25.31
566.542	25.2
566.966	25.08
567.39	24.97
567.814	24.86
568.238	24.75
568.662	24.64
569.086	24.53
569.509	24.4
569.933	24.31
570.357	24.2
570.78	24.07
571.204	23.96
571.627	23.85
572.05	23.72
572.474	23.62
572.897	23.51
573.32	23.39
573.743	23.29
574.166	23.2
574.589	23.08
575.012	22.98
575.435	22.89
575.858	22.77
576.281	22.67
576.704	22.59
577.126	22.5
577.549	22.4
577.972	22.31
578.394	22.22
578.817	22.13
579.239	22.05
579.661	21.98
580.084	21.89
580.506	21.83
580.928	21.75
581.35	21.67
581.772	21.58
582.194	21.52
582.616	21.46
583.038	21.4
583.46	21.32
583.882	21.25
584.303	21.17
584.725	21.11
585.147	21.05
585.568	20.99
585.99	20.93
586.411	20.88
586.833	20.81
587.254	20.74
587.675	20.69
588.096	20.65
588.518	20.6
588.939	20.57
589.36	20.5
589.781	20.45
590.202	20.44
590.623	20.4
591.043	20.36
591.464	20.33
591.885	20.3
592.305	20.27
592.726	20.25
593.147	20.21
593.567	20.18
593.987	20.15
594.408	20.12
594.828	20.07
595.248	20.04
595.669	20.02
596.089	20
596.509	19.98
596.929	19.95
597.349	19.91
597.769	19.89
598.189	19.85
598.608	19.84
599.028	19.8
599.448	19.77
599.867	19.74
600.287	19.69
600.706	19.64
601.126	19.59
601.545	19.55
601.965	19.51
602.384	19.45
602.803	19.4
603.222	19.33
603.641	19.28
604.061	19.22
604.48	19.15
604.898	19.09
605.317	19.01
605.736	18.94
606.155	18.88
606.574	18.8
606.992	18.73
607.411	18.66
607.829	18.56
608.248	18.46
608.666	18.37
609.085	18.28
609.503	18.21
609.921	18.14
610.339	18.06
610.758	17.98
611.176	17.89
611.594	17.81
612.012	17.72
612.43	17.65
612.847	17.59
613.265	17.52
613.683	17.45
614.101	17.36
614.518	17.29
614.936	17.21
615.353	17.12
615.771	17.06
616.188	16.98
616.606	16.93
617.023	16.88
617.44	16.81
617.857	16.74
618.274	16.69
618.691	16.63
619.108	16.57
619.525	16.52
619.942	16.48
620.359	16.45
620.776	16.41
621.192	16.37
621.609	16.35
622.026	16.31
622.442	16.29
622.859	16.25
623.275	16.24
623.691	16.21
624.108	16.2
624.524	16.18
624.94	16.16
625.356	16.15
625.772	16.12
626.188	16.1
626.604	16.1
627.02	16.09
627.436	16.1
627.852	16.08
628.268	16.07
628.683	16.06
629.099	16.05
629.514	16.03
629.93	16.01
630.345	15.99
630.761	15.95
631.176	15.91
631.591	15.87
632.007	15.84
632.422	15.8
632.837	15.74
633.252	15.67
633.667	15.61
634.082	15.54
634.497	15.46
634.911	15.39
635.326	15.32
635.741	15.24
636.155	15.14
636.57	15.05
636.984	14.94
637.399	14.83
637.813	14.72
638.228	14.61
638.642	14.48
639.056	14.35
639.47	14.23
639.884	14.1
640.298	13.95
640.712	13.81
641.126	13.67
641.54	13.53
641.954	13.39
642.368	13.25
642.781	13.12
643.195	12.98
643.609	12.85
644.022	12.71
644.436	12.59
644.849	12.47
645.262	12.35
645.676	12.24
646.089	12.13
646.502	12.05
646.915	11.96
647.328	11.86
647.741	11.78
648.154	11.69
648.567	11.61
648.98	11.54
649.393	11.47
649.805	11.42
650.218	11.36
650.631	11.3
651.043	11.23
651.456	11.16
651.868	11.1
652.28	11.04
652.693	10.98
653.105	10.91
653.517	10.83
653.929	10.76
654.341	10.68
654.753	10.58
655.165	10.49
655.577	10.39
655.989	10.29
656.401	10.18
656.813	10.08
657.224	9.95
657.636	9.82
658.047	9.69
658.459	9.55
658.87	9.41
659.282	9.27
659.693	9.12
660.104	8.99
660.515	8.85
660.926	8.72
661.338	8.58
661.749	8.46
662.159	8.34
662.57	8.22
662.981	8.11
663.392	8
663.803	7.89
664.213	7.78
664.624	7.68
665.035	7.59
665.445	7.51
665.855	7.42
666.266	7.35
666.676	7.27
667.086	7.19
667.497	7.13
667.907	7.08
668.317	7.03
668.727	6.98
669.137	6.93
669.547	6.89
669.956	6.84
670.366	6.81
670.776	6.78
671.186	6.76
671.595	6.75
672.005	6.72
672.414	6.72
672.824	6.71
673.233	6.71
673.642	6.72
674.052	6.72
674.461	6.73
674.87	6.74
675.279	6.76
675.688	6.79
676.097	6.81
676.506	6.84
676.915	6.86
677.323	6.9
677.732	6.94
678.141	6.99
678.549	7.05
678.958	7.11
679.366	7.19
679.775	7.27
680.183	7.36
680.592	7.49
681	7.61
681.408	7.75
681.816	7.92
682.224	8.1
682.632	8.31
683.04	8.52
683.448	8.76
683.856	9.02
684.264	9.31
684.671	9.62
685.079	9.94
685.487	10.3
685.894	10.69
686.302	11.1
686.709	11.53
687.116	11.97
687.524	12.46
687.931	12.96
688.338	13.46
688.745	13.97
689.152	14.51
689.559	15.07
689.966	15.65
690.373	16.21
690.78	16.78
691.187	17.34
691.593	17.92
692	18.47
692.407	19.03
692.813	19.61
693.22	20.17
693.626	20.72
694.032	21.25
694.439	21.76
694.845	22.28
695.251	22.8
695.657	23.29
696.063	23.78
696.469	24.28
696.875	24.77
697.281	25.21
697.687	25.66
698.093	26.11
698.498	26.53
698.904	26.95
699.31	27.33
699.715	27.72
700.12	28.12
700.526	28.47
700.931	28.81
701.337	29.16
701.742	29.49
702.147	29.81
702.552	30.14
702.957	30.44
703.362	30.74
703.767	31.02
704.172	31.29
704.577	31.55
704.981	31.83
705.386	32.08
705.791	32.31
706.195	32.55
706.6	32.81
707.004	33.01
707.408	33.25
707.813	33.48
708.217	33.72
708.621	33.94
709.025	34.14
709.43	34.33
709.834	34.53
710.237	34.71
710.641	34.89
711.045	35.07
711.449	35.28
711.853	35.44
712.256	35.6
712.66	35.75
713.064	35.91
713.467	36.05
713.87	36.22
714.274	36.35
714.677	36.52
715.08	36.64
715.484	36.77
715.887	36.91
716.29	37.02
716.693	37.15
717.096	37.3
717.499	37.43
717.901	37.57
718.304	37.67
718.707	37.82
719.109	37.93
719.512	38.05
719.915	38.14
720.317	38.22
720.719	38.32
721.122	38.41
721.524	38.49
721.926	38.58
722.328	38.67
722.731	38.76
723.133	38.83
723.535	38.89
723.937	38.99
724.338	39.09
724.74	39.19
725.142	39.35
725.544	39.42
725.945	39.5
726.347	39.55
726.748	39.6
727.15	39.65
727.551	39.73
727.952	39.78
728.354	39.83
728.755	39.87
729.156	39.89
729.557	39.85
729.958	39.88
730.359	39.88
730.76	39.94
731.161	39.99
731.562	40.03
731.962	40.03
732.363	40.08
732.763	40.13
733.164	40.15
733.564	40.19
733.965	40.22
734.365	40.25
734.766	40.29
735.166	40.32
735.566	40.35
735.966	40.39
736.366	40.42
736.766	40.44
737.166	40.48
737.566	40.49
737.966	40.52
738.365	40.55
738.765	40.59
739.165	40.6
739.564	40.63
739.964	40.65
740.363	40.67
740.763	40.7
741.162	40.7
741.561	40.67
741.96	40.68
742.36	40.68
742.759	40.71
743.158	40.71
743.557	40.72
743.955	40.73
744.354	40.72
744.753	40.73
745.152	40.74
745.55	40.76
745.949	40.8
746.348	40.83
746.746	40.85
747.144	40.85
747.543	40.85
747.941	40.89
748.339	40.86
748.737	40.85
749.136	40.85
749.534	40.83
749.932	40.82
750.33	40.82
750.727	40.82
751.125	40.8
751.523	40.79
751.921	40.81
752.318	40.82
752.716	40.84
753.113	40.85
753.511	40.86
753.908	40.91
754.305	40.92
754.703	40.9
755.1	40.91
755.497	40.92
755.894	40.92
756.291	40.92
756.688	40.89
757.085	40.9
757.482	40.91
757.878	40.88
758.275	40.85
758.672	40.85
759.068	40.86
759.465	40.85
759.861	40.83
760.258	40.82
760.654	40.81
761.05	40.83
761.447	40.83
761.843	40.81
762.239	40.82
762.635	40.81
763.031	40.83
763.427	40.82
763.822	40.83
764.218	40.86
764.614	40.87
765.01	40.86
765.405	40.84
765.801	40.83
766.196	40.84
766.592	40.84
766.987	40.83
767.382	40.82
767.778	40.82
768.173	40.82
768.568	40.81
768.963	40.8
769.358	40.82
769.753	40.84
770.148	40.83
770.542	40.84
770.937	40.87
771.332	40.88
771.726	40.88
772.121	40.87
772.515	40.88
772.91	40.89
773.304	40.92
773.699	40.89
774.093	40.88
774.487	40.89
774.881	40.91
775.275	40.89
775.669	40.89
776.063	40.88
776.457	40.89
776.851	40.86
777.245	40.83
777.638	40.8
778.032	40.81
778.425	40.86
778.819	40.87
779.212	40.87
779.606	40.89
