Data from C_2_DIV_WI_4N_Splice17_13-22-05-938.txt Node
Date: Sat Mar 07 13:22:05 EST 2020
User: sa697716
Spectrometer: NQ5500242
Trigger mode: 0
Integration Time (sec): 1.450000E-1
Scans to average: 20
Nonlinearity correction enabled: false
Boxcar width: 5
Storing dark spectrum: false
XAxis mode: Wavelengths
Number of Pixels in Spectrum: 512
>>>>>Begin Spectral Data<<<<<
187.83	158.96
188.298	173.82
188.766	163.23
189.233	129.13
189.701	118.4
190.169	155.03
190.636	191.91
191.104	248.18
191.571	329.72
192.039	17.98
192.506	228.69
192.974	96.62
193.441	169.23
193.908	132.43
194.375	47.67
194.842	-12.65
195.31	73.28
195.777	249.48
196.244	52.61
196.711	49.43
197.177	48.83
197.644	47.64
198.111	46.38
198.578	46.04
199.045	46.37
199.511	46.42
199.978	46.04
200.445	46.17
200.911	46.22
201.378	46.14
201.844	46.1
202.31	45.44
202.777	45.6
203.243	45.7
203.709	45.45
204.176	44.83
204.642	44.64
205.108	44.54
205.574	44
206.04	43.34
206.506	42.98
206.972	42.58
207.438	42.4
207.903	41.5
208.369	40.3
208.835	39.82
209.301	38.95
209.766	37.6
210.232	36.72
210.697	35.66
211.163	34.8
211.628	34.17
212.094	33.27
212.559	32.45
213.024	31.81
213.49	31.22
213.955	30.36
214.42	29.74
214.885	29.07
215.35	27.96
215.815	26.64
216.28	24.9
216.745	22.71
217.21	20.74
217.675	18.89
218.14	17.35
218.604	16
219.069	14.84
219.534	13.85
219.998	12.99
220.463	12.31
220.927	11.68
221.392	11.17
221.856	10.79
222.32	10.44
222.785	10.18
223.249	9.89
223.713	9.64
224.177	9.44
224.642	9.26
225.106	9.07
225.57	8.87
226.034	8.74
226.497	8.6
226.961	8.43
227.425	8.3
227.889	8.15
228.353	8.01
228.816	7.88
229.28	7.75
229.744	7.61
230.207	7.49
230.671	7.38
231.134	7.26
231.597	7.18
232.061	7.1
232.524	7.01
232.987	6.93
233.45	6.86
233.914	6.79
234.377	6.7
234.84	6.63
235.303	6.57
235.766	6.51
236.229	6.45
236.691	6.36
237.154	6.29
237.617	6.23
238.08	6.17
238.542	6.1
239.005	6.05
239.468	5.99
239.93	5.94
240.393	5.9
240.855	5.84
241.317	5.78
241.78	5.73
242.242	5.68
242.704	5.63
243.166	5.58
243.629	5.54
244.091	5.47
244.553	5.42
245.015	5.38
245.477	5.33
245.939	5.28
246.4	5.22
246.862	5.18
247.324	5.13
247.786	5.09
248.247	5.04
248.709	4.98
249.17	4.93
249.632	4.9
250.093	4.86
250.555	4.82
251.016	4.78
251.477	4.75
251.939	4.71
252.4	4.69
252.861	4.65
253.322	4.62
253.783	4.6
254.244	4.57
254.705	4.53
255.166	4.5
255.627	4.47
256.088	4.45
256.549	4.42
257.009	4.39
257.47	4.35
257.931	4.31
258.391	4.28
258.852	4.25
259.312	4.23
259.773	4.2
260.233	4.18
260.694	4.15
261.154	4.12
261.614	4.09
262.074	4.06
262.534	4.03
262.994	4.01
263.455	3.98
263.915	3.95
264.374	3.93
264.834	3.91
265.294	3.88
265.754	3.87
266.214	3.85
266.673	3.83
267.133	3.82
267.593	3.8
268.052	3.79
268.512	3.78
268.971	3.77
269.431	3.76
269.89	3.74
270.349	3.74
270.809	3.72
271.268	3.71
271.727	3.7
272.186	3.69
272.645	3.69
273.104	3.68
273.563	3.67
274.022	3.66
274.481	3.65
274.94	3.64
275.399	3.63
275.857	3.62
276.316	3.61
276.775	3.59
277.233	3.58
277.692	3.57
278.15	3.57
278.609	3.56
279.067	3.56
279.525	3.55
279.984	3.54
280.442	3.53
280.9	3.53
281.358	3.53
281.816	3.54
282.274	3.53
282.732	3.52
283.19	3.51
283.648	3.5
284.106	3.48
284.564	3.47
285.021	3.47
285.479	3.47
285.937	3.45
286.394	3.45
286.852	3.44
287.309	3.44
287.767	3.43
288.224	3.42
288.682	3.41
289.139	3.4
289.596	3.38
290.053	3.36
290.511	3.34
290.968	3.33
291.425	3.3
291.882	3.29
292.339	3.28
292.796	3.26
293.252	3.25
293.709	3.24
294.166	3.23
294.623	3.23
295.079	3.21
295.536	3.21
295.992	3.2
296.449	3.19
296.905	3.19
297.362	3.18
297.818	3.17
298.274	3.16
298.731	3.15
299.187	3.14
299.643	3.13
300.099	3.12
300.555	3.11
301.011	3.1
301.467	3.1
301.923	3.09
302.379	3.08
302.835	3.08
303.291	3.07
303.746	3.07
304.202	3.07
304.658	3.07
305.113	3.07
305.569	3.07
306.024	3.07
306.479	3.06
306.935	3.06
307.39	3.06
307.845	3.07
308.301	3.08
308.756	3.08
309.211	3.08
309.666	3.09
310.121	3.09
310.576	3.09
311.031	3.09
311.486	3.08
311.94	3.09
312.395	3.09
312.85	3.08
313.305	3.08
313.759	3.08
314.214	3.07
314.668	3.06
315.123	3.07
315.577	3.07
316.032	3.07
316.486	3.07
316.94	3.07
317.394	3.06
317.849	3.05
318.303	3.05
318.757	3.05
319.211	3.04
319.665	3.02
320.119	3.01
320.572	2.99
321.026	2.98
321.48	2.97
321.934	2.96
322.387	2.96
322.841	2.96
323.295	2.96
323.748	2.95
324.202	2.95
324.655	2.96
325.108	2.96
325.562	2.97
326.015	2.97
326.468	2.98
326.921	2.98
327.374	2.97
327.827	2.98
328.28	2.97
328.733	2.98
329.186	2.97
329.639	2.97
330.092	2.97
330.545	2.97
330.997	2.97
331.45	2.97
331.903	2.98
332.355	2.98
332.808	2.98
333.26	2.97
333.713	2.96
334.165	2.97
334.617	2.97
335.069	2.97
335.522	2.98
335.974	2.98
336.426	2.97
336.878	2.96
337.33	2.96
337.782	2.97
338.234	2.97
338.686	2.99
339.137	3
339.589	2.98
340.041	2.98
340.493	2.97
340.944	2.95
341.396	2.95
341.847	2.95
342.299	2.94
342.75	2.93
343.201	2.92
343.653	2.9
344.104	2.88
344.555	2.87
345.006	2.86
345.457	2.86
345.908	2.85
346.359	2.85
346.81	2.84
347.261	2.84
347.712	2.84
348.163	2.84
348.613	2.84
349.064	2.85
349.515	2.84
349.965	2.85
350.416	2.85
350.866	2.85
351.317	2.85
351.767	2.85
352.217	2.84
352.668	2.84
353.118	2.84
353.568	2.83
354.018	2.84
354.468	2.84
354.918	2.84
355.368	2.86
355.818	2.86
356.268	2.87
356.718	2.88
357.168	2.87
357.617	2.87
358.067	2.87
358.517	2.89
358.966	2.89
359.416	2.9
359.865	2.9
360.315	2.9
360.764	2.9
361.213	2.9
361.663	2.9
362.112	2.92
362.561	2.93
363.01	2.94
363.459	2.93
363.908	2.93
364.357	2.93
364.806	2.92
365.255	2.92
365.703	2.94
366.152	2.94
366.601	2.94
367.05	2.95
367.498	2.95
367.947	2.96
368.395	2.96
368.844	2.98
369.292	2.98
369.74	2.99
370.189	3
370.637	3
371.085	3
371.533	3.01
371.981	3.01
372.429	3.01
372.877	3.03
373.325	3.04
373.773	3.05
374.221	3.06
374.669	3.08
375.116	3.08
375.564	3.1
376.012	3.12
376.459	3.13
376.907	3.14
377.354	3.16
377.801	3.18
378.249	3.19
378.696	3.21
379.143	3.23
379.591	3.25
380.038	3.28
380.485	3.3
380.932	3.32
381.379	3.36
381.826	3.37
382.273	3.39
382.72	3.4
383.166	3.42
383.613	3.44
384.06	3.45
384.506	3.46
384.953	3.49
385.4	3.51
385.846	3.53
386.292	3.54
386.739	3.56
387.185	3.58
387.631	3.61
388.078	3.64
388.524	3.66
388.97	3.68
389.416	3.72
389.862	3.75
390.308	3.78
390.754	3.81
391.2	3.85
391.645	3.88
392.091	3.92
392.537	3.96
392.983	4
393.428	4.03
393.874	4.06
394.319	4.09
394.765	4.12
395.21	4.13
395.655	4.16
396.101	4.2
396.546	4.21
396.991	4.23
397.436	4.26
397.881	4.3
398.326	4.33
398.771	4.37
399.216	4.4
399.661	4.43
400.106	4.46
400.551	4.48
400.995	4.5
401.44	4.52
401.885	4.55
402.329	4.58
402.774	4.59
403.218	4.63
403.663	4.66
404.107	4.68
404.551	4.7
404.995	4.72
405.44	4.74
405.884	4.76
406.328	4.78
406.772	4.79
407.216	4.8
407.66	4.81
408.104	4.79
408.547	4.79
408.991	4.8
409.435	4.81
409.879	4.82
410.322	4.84
410.766	4.87
411.209	4.89
411.653	4.91
412.096	4.93
412.54	4.94
412.983	4.97
413.426	5.01
413.869	5.04
414.312	5.07
414.756	5.09
415.199	5.1
415.642	5.1
416.085	5.11
416.527	5.11
416.97	5.1
417.413	5.12
417.856	5.13
418.298	5.11
418.741	5.11
419.184	5.1
419.626	5.11
420.069	5.13
420.511	5.13
420.953	5.13
421.396	5.14
421.838	5.15
422.28	5.16
422.722	5.17
423.164	5.16
423.606	5.18
424.048	5.17
424.49	5.18
424.932	5.16
425.374	5.14
425.816	5.12
426.258	5.1
426.699	5.08
427.141	5.07
427.582	5.07
428.024	5.07
428.465	5.07
428.907	5.06
429.348	5.04
429.789	5.05
430.231	5.08
430.672	5.11
431.113	5.12
431.554	5.14
431.995	5.15
432.436	5.15
432.877	5.16
433.318	5.18
433.759	5.2
434.2	5.24
434.64	5.25
435.081	5.26
435.522	5.26
435.962	5.28
436.403	5.31
436.843	5.32
437.284	5.32
437.724	5.33
438.164	5.32
438.604	5.33
439.045	5.33
439.485	5.34
439.925	5.34
440.365	5.36
440.805	5.36
441.245	5.38
441.685	5.39
442.125	5.42
442.564	5.43
443.004	5.47
443.444	5.5
443.883	5.53
444.323	5.55
444.762	5.57
445.202	5.59
445.641	5.64
446.081	5.67
446.52	5.7
446.959	5.74
447.398	5.77
447.837	5.79
448.276	5.81
448.716	5.82
449.154	5.86
449.593	5.9
450.032	5.92
450.471	5.91
450.91	5.91
451.349	5.93
451.787	5.92
452.226	5.91
452.664	5.93
453.103	5.92
453.541	5.93
453.98	5.94
454.418	5.92
454.856	5.92
455.295	5.93
455.733	5.92
456.171	5.91
456.609	5.92
457.047	5.92
457.485	5.9
457.923	5.9
458.361	5.89
458.798	5.88
459.236	5.88
459.674	5.87
460.111	5.87
460.549	5.88
460.987	5.89
461.424	5.88
461.862	5.91
462.299	5.91
462.736	5.92
463.173	5.93
463.611	5.93
464.048	5.93
464.485	5.94
464.922	5.96
465.359	5.95
465.796	5.96
466.233	5.96
466.67	5.94
467.106	5.94
467.543	5.93
467.98	5.92
468.416	5.92
468.853	5.92
469.29	5.92
469.726	5.91
470.162	5.91
470.599	5.91
471.035	5.89
471.471	5.9
471.907	5.91
472.344	5.92
472.78	5.93
473.216	5.92
473.652	5.91
474.088	5.89
474.523	5.89
474.959	5.89
475.395	5.89
475.831	5.89
476.266	5.9
476.702	5.89
477.138	5.88
477.573	5.89
478.008	5.9
478.444	5.9
478.879	5.92
479.314	5.92
479.75	5.92
480.185	5.9
480.62	5.89
481.055	5.89
481.49	5.89
481.925	5.9
482.36	5.9
482.795	5.9
483.229	5.9
483.664	5.91
484.099	5.91
484.534	5.92
484.968	5.93
485.403	5.93
485.837	5.95
486.271	5.97
486.706	5.98
487.14	5.99
487.574	6.01
488.009	6.04
488.443	6.06
488.877	6.09
489.311	6.13
489.745	6.17
490.179	6.23
490.613	6.27
491.046	6.31
491.48	6.36
491.914	6.41
492.348	6.47
492.781	6.54
493.215	6.61
493.648	6.67
494.082	6.73
494.515	6.8
494.948	6.86
495.382	6.93
495.815	7.01
496.248	7.09
496.681	7.18
497.114	7.27
497.547	7.34
497.98	7.43
498.413	7.53
498.846	7.64
499.279	7.74
499.711	7.85
500.144	7.97
500.577	8.09
501.009	8.22
501.442	8.34
501.874	8.48
502.306	8.63
502.739	8.8
503.171	8.95
503.603	9.1
504.036	9.28
504.468	9.45
504.9	9.61
505.332	9.78
505.764	9.95
506.196	10.13
506.627	10.32
507.059	10.51
507.491	10.69
507.923	10.89
508.354	11.1
508.786	11.3
509.217	11.52
509.649	11.75
510.08	11.99
510.512	12.23
510.943	12.47
511.374	12.71
511.805	12.95
512.237	13.19
512.668	13.44
513.099	13.7
513.53	13.95
513.961	14.21
514.391	14.45
514.822	14.72
515.253	14.99
515.684	15.24
516.114	15.5
516.545	15.76
516.975	16.03
517.406	16.3
517.836	16.55
518.267	16.81
518.697	17.07
519.127	17.33
519.558	17.58
519.988	17.82
520.418	18.07
520.848	18.31
521.278	18.54
521.708	18.93
522.138	19.16
522.567	19.39
522.997	19.59
523.427	19.81
523.857	20
524.286	20.18
524.716	20.38
525.145	20.57
525.575	20.77
526.004	20.95
526.433	20.96
526.863	21.12
527.292	21.29
527.721	21.44
528.15	21.58
528.579	21.73
529.008	21.88
529.437	22.01
529.866	22.13
530.295	22.24
530.724	22.37
531.152	22.48
531.581	22.59
532.01	22.68
532.438	22.78
532.867	22.88
533.295	22.96
533.723	23.04
534.152	23.12
534.58	23.2
535.008	23.24
535.436	23.3
535.865	23.35
536.293	23.4
536.721	23.44
537.149	23.5
537.576	23.53
538.004	23.58
538.432	23.62
538.86	23.64
539.287	23.67
539.715	23.73
540.143	23.75
540.57	23.78
540.998	23.82
541.425	23.85
541.852	23.87
542.28	23.9
542.707	23.92
543.134	23.95
543.561	23.98
543.988	24.01
544.415	24.01
544.842	24.03
545.269	24.06
545.696	24.07
546.123	24.09
546.549	24.09
546.976	24.1
547.403	24.12
547.829	24.12
548.256	24.13
548.682	24.14
549.108	24.17
549.535	24.18
549.961	24.19
550.387	24.2
550.813	24.21
551.24	24.21
551.666	24.21
552.092	24.2
552.518	24.19
552.943	24.18
553.369	24.16
553.795	24.13
554.221	24.09
554.646	24.04
555.072	24.01
555.498	23.97
555.923	23.93
556.349	23.87
556.774	23.83
557.199	23.76
557.625	23.71
558.05	23.66
558.475	23.61
558.9	23.57
559.325	23.53
559.75	23.46
560.175	23.39
560.6	23.29
561.025	23.24
561.449	23.16
561.874	23.09
562.299	23.01
562.723	22.91
563.148	22.8
563.572	22.69
563.997	22.57
564.421	22.45
564.846	22.35
565.27	22.25
565.694	22.12
566.118	22.02
566.542	21.9
566.966	21.77
567.39	21.64
567.814	21.53
568.238	21.4
568.662	21.29
569.086	21.18
569.509	21.05
569.933	20.93
570.357	20.81
570.78	20.67
571.204	20.57
571.627	20.46
572.05	20.34
572.474	20.22
572.897	20.11
573.32	20
573.743	19.89
574.166	19.78
574.589	19.68
575.012	19.56
575.435	19.46
575.858	19.36
576.281	19.27
576.704	19.18
577.126	19.1
577.549	19.02
577.972	18.94
578.394	18.85
578.817	18.77
579.239	18.69
579.661	18.62
580.084	18.56
580.506	18.49
580.928	18.41
581.35	18.34
581.772	18.27
582.194	18.2
582.616	18.13
583.038	18.06
583.46	17.99
583.882	17.93
584.303	17.85
584.725	17.79
585.147	17.73
585.568	17.67
585.99	17.61
586.411	17.55
586.833	17.49
587.254	17.44
587.675	17.38
588.096	17.31
588.518	17.27
588.939	17.24
589.36	17.19
589.781	17.14
590.202	17.1
590.623	17.07
591.043	17.03
591.464	17
591.885	16.96
592.305	16.94
592.726	16.93
593.147	16.88
593.567	16.83
593.987	16.79
594.408	16.74
594.828	16.71
595.248	16.68
595.669	16.64
596.089	16.6
596.509	16.57
596.929	16.54
597.349	16.5
597.769	16.46
598.189	16.45
598.608	16.43
599.028	16.43
599.448	16.4
599.867	16.36
600.287	16.33
600.706	16.29
601.126	16.25
601.545	16.21
601.965	16.18
602.384	16.16
602.803	16.1
603.222	16.05
603.641	15.99
604.061	15.94
604.48	15.88
604.898	15.82
605.317	15.78
605.736	15.73
606.155	15.68
606.574	15.6
606.992	15.52
607.411	15.47
607.829	15.37
608.248	15.3
608.666	15.23
609.085	15.18
609.503	15.12
609.921	15.04
610.339	14.97
610.758	14.9
611.176	14.82
611.594	14.76
612.012	14.68
612.43	14.63
612.847	14.56
613.265	14.48
613.683	14.41
614.101	14.34
614.518	14.27
614.936	14.2
615.353	14.13
615.771	14.06
616.188	14.01
616.606	13.96
617.023	13.91
617.44	13.88
617.857	13.83
618.274	13.77
618.691	13.73
619.108	13.68
619.525	13.64
619.942	13.6
620.359	13.57
620.776	13.53
621.192	13.48
621.609	13.46
622.026	13.42
622.442	13.39
622.859	13.37
623.275	13.34
623.691	13.32
624.108	13.31
624.524	13.3
624.94	13.3
625.356	13.29
625.772	13.28
626.188	13.27
626.604	13.26
627.02	13.25
627.436	13.25
627.852	13.24
628.268	13.23
628.683	13.2
629.099	13.18
629.514	13.16
629.93	13.14
630.345	13.12
630.761	13.09
631.176	13.06
631.591	13.02
632.007	12.98
632.422	12.94
632.837	12.89
633.252	12.84
633.667	12.8
634.082	12.72
634.497	12.66
634.911	12.58
635.326	12.49
635.741	12.41
636.155	12.33
636.57	12.25
636.984	12.16
637.399	12.07
637.813	11.96
638.228	11.83
638.642	11.72
639.056	11.6
639.47	11.5
639.884	11.39
640.298	11.26
640.712	11.14
641.126	11.02
641.54	10.87
641.954	10.74
642.368	10.63
642.781	10.52
643.195	10.41
643.609	10.3
644.022	10.18
644.436	10.07
644.849	9.97
645.262	9.86
645.676	9.76
646.089	9.69
646.502	9.61
646.915	9.55
647.328	9.47
647.741	9.4
648.154	9.35
648.567	9.3
648.98	9.25
649.393	9.19
649.805	9.16
650.218	9.12
650.631	9.09
651.043	9.04
651.456	8.98
651.868	8.93
652.28	8.89
652.693	8.84
653.105	8.78
653.517	8.73
653.929	8.68
654.341	8.62
654.753	8.55
655.165	8.48
655.577	8.42
655.989	8.36
656.401	8.29
656.813	8.21
657.224	8.13
657.636	8.04
658.047	7.94
658.459	7.84
658.87	7.75
659.282	7.65
659.693	7.57
660.104	7.46
660.515	7.37
660.926	7.29
661.338	7.18
661.749	7.1
662.159	7.01
662.57	6.94
662.981	6.86
663.392	6.8
663.803	6.73
664.213	6.65
664.624	6.59
665.035	6.53
665.445	6.46
665.855	6.42
666.266	6.38
666.676	6.34
667.086	6.29
667.497	6.25
667.907	6.22
668.317	6.18
668.727	6.16
669.137	6.14
669.547	6.13
669.956	6.11
670.366	6.09
670.776	6.07
671.186	6.07
671.595	6.07
672.005	6.06
672.414	6.07
672.824	6.08
673.233	6.09
673.642	6.11
674.052	6.11
674.461	6.13
674.87	6.15
675.279	6.19
675.688	6.22
676.097	6.26
676.506	6.31
676.915	6.34
677.323	6.39
677.732	6.44
678.141	6.5
678.549	6.57
678.958	6.63
679.366	6.7
679.775	6.77
680.183	6.86
680.592	6.96
681	7.06
681.408	7.16
681.816	7.29
682.224	7.42
682.632	7.57
683.04	7.74
683.448	7.92
683.856	8.11
684.264	8.33
684.671	8.55
685.079	8.79
685.487	9.06
685.894	9.35
686.302	9.65
686.709	9.98
687.116	10.31
687.524	10.68
687.931	11.06
688.338	11.46
688.745	11.87
689.152	12.3
689.559	12.76
689.966	13.22
690.373	13.69
690.78	14.19
691.187	14.68
691.593	15.18
692	15.68
692.407	16.17
692.813	16.69
693.22	17.19
693.626	17.71
694.032	18.22
694.439	18.71
694.845	19.22
695.251	19.71
695.657	20.19
696.063	20.69
696.469	21.16
696.875	21.64
697.281	22.1
697.687	22.57
698.093	23.04
698.498	23.47
698.904	23.91
699.31	24.34
699.715	24.77
700.12	25.2
700.526	25.61
700.931	26
701.337	26.39
701.742	26.78
702.147	27.14
702.552	27.5
702.957	27.83
703.362	28.18
703.767	28.49
704.172	28.78
704.577	29.1
704.981	29.41
705.386	29.75
705.791	30.04
706.195	30.31
706.6	30.61
707.004	30.88
707.408	31.16
707.813	31.45
708.217	31.72
708.621	32
709.025	32.23
709.43	32.47
709.834	32.7
710.237	32.93
710.641	33.17
711.045	33.38
711.449	33.62
711.853	33.86
712.256	34.05
712.66	34.25
713.064	34.46
713.467	34.68
713.87	34.89
714.274	35.08
714.677	35.29
715.08	35.48
715.484	35.68
715.887	35.87
716.29	36.01
716.693	36.21
717.096	36.39
717.499	36.56
717.901	36.72
718.304	36.88
718.707	37.02
719.109	37.17
719.512	37.31
719.915	37.45
720.317	37.56
720.719	37.68
721.122	37.81
721.524	37.92
721.926	38.06
722.328	38.19
722.731	38.28
723.133	38.41
723.535	38.52
723.937	38.64
724.338	38.75
724.74	38.86
725.142	39.1
725.544	39.18
725.945	39.3
726.347	39.34
726.748	39.41
727.15	39.49
727.551	39.56
727.952	39.63
728.354	39.72
728.755	39.77
729.156	39.82
729.557	39.79
729.958	39.85
730.359	39.88
730.76	39.96
731.161	40.01
731.562	40.07
731.962	40.1
732.363	40.15
732.763	40.19
733.164	40.23
733.564	40.29
733.965	40.33
734.365	40.38
734.766	40.42
735.166	40.45
735.566	40.51
735.966	40.56
736.366	40.61
736.766	40.65
737.166	40.68
737.566	40.72
737.966	40.73
738.365	40.75
738.765	40.78
739.165	40.79
739.564	40.83
739.964	40.84
740.363	40.83
740.763	40.84
741.162	40.86
741.561	40.87
741.96	40.87
742.36	40.9
742.759	40.92
743.158	40.92
743.557	40.94
743.955	40.99
744.354	41
744.753	41.04
745.152	41.09
745.55	41.08
745.949	41.08
746.348	41.11
746.746	41.1
747.144	41.1
747.543	41.12
747.941	41.11
748.339	41.07
748.737	41.07
749.136	41.05
749.534	41.02
749.932	41.03
750.33	41.05
750.727	41.05
751.125	41.06
751.523	41.06
751.921	41.08
752.318	41.1
752.716	41.12
753.113	41.14
753.511	41.16
753.908	41.2
754.305	41.22
754.703	41.21
755.1	41.22
755.497	41.22
755.894	41.22
756.291	41.22
756.688	41.19
757.085	41.2
757.482	41.19
757.878	41.19
758.275	41.18
758.672	41.16
759.068	41.18
759.465	41.17
759.861	41.19
760.258	41.22
760.654	41.2
761.05	41.25
761.447	41.24
761.843	41.24
762.239	41.23
762.635	41.21
763.031	41.21
763.427	41.19
763.822	41.19
764.218	41.2
764.614	41.19
765.01	41.19
765.405	41.16
765.801	41.16
766.196	41.16
766.592	41.17
766.987	41.19
767.382	41.2
767.778	41.22
768.173	41.23
768.568	41.2
768.963	41.2
769.358	41.2
769.753	41.21
770.148	41.21
770.542	41.22
770.937	41.23
771.332	41.22
771.726	41.21
772.121	41.21
772.515	41.17
772.91	41.18
773.304	41.16
773.699	41.18
774.093	41.16
774.487	41.18
774.881	41.18
775.275	41.15
775.669	41.11
776.063	41.09
776.457	41.1
776.851	41.14
777.245	41.13
777.638	41.15
778.032	41.15
778.425	41.17
778.819	41.18
779.212	41.18
779.606	41.21
779.999	41.23
780.392	41.28
780.786	41.25
781.179	41.25
781.572	41.27
781.965	41.27
782.358	41.27
