Data from C_3_DIV_WI_4N_Splice17_13-50-52-876.txt Node
Date: Sat Mar 07 13:50:52 EST 2020
User: sa697716
Spectrometer: NQ5500242
Trigger mode: 0
Integration Time (sec): 1.450000E-1
Scans to average: 20
Nonlinearity correction enabled: false
Boxcar width: 5
Storing dark spectrum: false
XAxis mode: Wavelengths
Number of Pixels in Spectrum: 512
>>>>>Begin Spectral Data<<<<<
187.83	269.32
188.298	278.61
188.766	235.36
189.233	184.93
189.701	198.12
190.169	221
190.636	250.75
191.104	353.86
191.571	144.8
192.039	-207.37
192.506	-558.25
192.974	115.86
193.441	184
193.908	-26.84
194.375	-19.64
194.842	-62.88
195.31	-21.52
195.777	-0.81
196.244	50.21
196.711	45.59
197.177	48.06
197.644	47.2
198.111	46.94
198.578	46.35
199.045	47.42
199.511	47.36
199.978	47.43
200.445	47.64
200.911	47.6
201.378	47.45
201.844	47.48
202.31	47.25
202.777	47.69
203.243	47.63
203.709	47.67
204.176	46.87
204.642	46.37
205.108	46.26
205.574	45.65
206.04	45.08
206.506	44.64
206.972	44.55
207.438	44.24
207.903	43.28
208.369	42.55
208.835	41.99
209.301	41.5
209.766	40.38
210.232	39.42
210.697	38.32
211.163	37.55
211.628	36.82
212.094	35.88
212.559	35.16
213.024	34.28
213.49	33.7
213.955	32.7
214.42	31.9
214.885	31.3
215.35	30.38
215.815	29.18
216.28	27.4
216.745	25.53
217.21	23.71
217.675	21.92
218.14	20.56
218.604	19.21
219.069	18.18
219.534	17.35
219.998	16.58
220.463	15.96
220.927	15.36
221.392	14.94
221.856	14.58
222.32	14.24
222.785	13.98
223.249	13.72
223.713	13.49
224.177	13.29
224.642	13.06
225.106	12.85
225.57	12.61
226.034	12.46
226.497	12.29
226.961	12.11
227.425	11.94
227.889	11.79
228.353	11.63
228.816	11.48
229.28	11.33
229.744	11.18
230.207	11.05
230.671	10.92
231.134	10.77
231.597	10.65
232.061	10.52
232.524	10.39
232.987	10.26
233.45	10.16
233.914	10.04
234.377	9.92
234.84	9.81
235.303	9.72
235.766	9.63
236.229	9.53
236.691	9.44
237.154	9.36
237.617	9.28
238.08	9.19
238.542	9.1
239.005	9.03
239.468	8.95
239.93	8.88
240.393	8.8
240.855	8.71
241.317	8.63
241.78	8.54
242.242	8.46
242.704	8.4
243.166	8.33
243.629	8.26
244.091	8.17
244.553	8.09
245.015	8.01
245.477	7.93
245.939	7.87
246.4	7.8
246.862	7.73
247.324	7.67
247.786	7.59
248.247	7.53
248.709	7.45
249.17	7.4
249.632	7.35
250.093	7.3
250.555	7.25
251.016	7.2
251.477	7.14
251.939	7.1
252.4	7.05
252.861	6.99
253.322	6.95
253.783	6.91
254.244	6.87
254.705	6.82
255.166	6.77
255.627	6.73
256.088	6.69
256.549	6.65
257.009	6.6
257.47	6.56
257.931	6.51
258.391	6.46
258.852	6.41
259.312	6.37
259.773	6.32
260.233	6.29
260.694	6.25
261.154	6.21
261.614	6.18
262.074	6.13
262.534	6.1
262.994	6.07
263.455	6.04
263.915	6.02
264.374	6
264.834	5.97
265.294	5.94
265.754	5.92
266.214	5.9
266.673	5.88
267.133	5.87
267.593	5.86
268.052	5.84
268.512	5.83
268.971	5.81
269.431	5.8
269.89	5.78
270.349	5.78
270.809	5.77
271.268	5.75
271.727	5.73
272.186	5.71
272.645	5.7
273.104	5.68
273.563	5.66
274.022	5.65
274.481	5.64
274.94	5.63
275.399	5.6
275.857	5.58
276.316	5.57
276.775	5.56
277.233	5.55
277.692	5.54
278.15	5.53
278.609	5.52
279.067	5.51
279.525	5.5
279.984	5.48
280.442	5.47
280.9	5.46
281.358	5.45
281.816	5.43
282.274	5.42
282.732	5.4
283.19	5.38
283.648	5.35
284.106	5.33
284.564	5.31
285.021	5.31
285.479	5.3
285.937	5.28
286.394	5.27
286.852	5.25
287.309	5.23
287.767	5.22
288.224	5.21
288.682	5.19
289.139	5.16
289.596	5.15
290.053	5.12
290.511	5.1
290.968	5.07
291.425	5.05
291.882	5.04
292.339	5.01
292.796	4.99
293.252	4.97
293.709	4.97
294.166	4.96
294.623	4.94
295.079	4.92
295.536	4.91
295.992	4.91
296.449	4.9
296.905	4.88
297.362	4.88
297.818	4.86
298.274	4.86
298.731	4.85
299.187	4.83
299.643	4.81
300.099	4.81
300.555	4.8
301.011	4.78
301.467	4.78
301.923	4.77
302.379	4.76
302.835	4.75
303.291	4.74
303.746	4.74
304.202	4.74
304.658	4.73
305.113	4.72
305.569	4.71
306.024	4.7
306.479	4.69
306.935	4.68
307.39	4.68
307.845	4.67
308.301	4.67
308.756	4.66
309.211	4.65
309.666	4.65
310.121	4.65
310.576	4.65
311.031	4.65
311.486	4.65
311.94	4.65
312.395	4.64
312.85	4.64
313.305	4.63
313.759	4.63
314.214	4.63
314.668	4.61
315.123	4.6
315.577	4.59
316.032	4.58
316.486	4.57
316.94	4.56
317.394	4.55
317.849	4.52
318.303	4.51
318.757	4.49
319.211	4.47
319.665	4.46
320.119	4.44
320.572	4.43
321.026	4.42
321.48	4.41
321.934	4.38
322.387	4.36
322.841	4.36
323.295	4.36
323.748	4.36
324.202	4.35
324.655	4.35
325.108	4.35
325.562	4.34
326.015	4.34
326.468	4.33
326.921	4.33
327.374	4.33
327.827	4.33
328.28	4.32
328.733	4.32
329.186	4.32
329.639	4.32
330.092	4.31
330.545	4.31
330.997	4.3
331.45	4.31
331.903	4.32
332.355	4.33
332.808	4.32
333.26	4.31
333.713	4.3
334.165	4.3
334.617	4.3
335.069	4.29
335.522	4.29
335.974	4.29
336.426	4.28
336.878	4.28
337.33	4.27
337.782	4.27
338.234	4.28
338.686	4.28
339.137	4.28
339.589	4.27
340.041	4.26
340.493	4.25
340.944	4.23
341.396	4.22
341.847	4.2
342.299	4.18
342.75	4.16
343.201	4.14
343.653	4.12
344.104	4.1
344.555	4.09
345.006	4.07
345.457	4.07
345.908	4.06
346.359	4.06
346.81	4.05
347.261	4.05
347.712	4.04
348.163	4.04
348.613	4.03
349.064	4.03
349.515	4.03
349.965	4.04
350.416	4.03
350.866	4.02
351.317	4.01
351.767	4.02
352.217	4.02
352.668	4.02
353.118	4.02
353.568	4
354.018	4.01
354.468	4
354.918	4
355.368	4
355.818	4.01
356.268	4.01
356.718	4.01
357.168	4
357.617	3.99
358.067	3.99
358.517	4.01
358.966	4.01
359.416	4.02
359.865	4.02
360.315	4.02
360.764	4.02
361.213	4.02
361.663	4.01
362.112	4.02
362.561	4.03
363.01	4.02
363.459	4.01
363.908	4.01
364.357	4.01
364.806	4
365.255	4
365.703	4
366.152	4
366.601	4.01
367.05	4.02
367.498	4.02
367.947	4.03
368.395	4.04
368.844	4.05
369.292	4.04
369.74	4.06
370.189	4.07
370.637	4.07
371.085	4.07
371.533	4.08
371.981	4.08
372.429	4.09
372.877	4.1
373.325	4.11
373.773	4.12
374.221	4.13
374.669	4.13
375.116	4.14
375.564	4.15
376.012	4.16
376.459	4.18
376.907	4.2
377.354	4.21
377.801	4.23
378.249	4.25
378.696	4.26
379.143	4.28
379.591	4.29
380.038	4.32
380.485	4.34
380.932	4.36
381.379	4.39
381.826	4.4
382.273	4.41
382.72	4.42
383.166	4.45
383.613	4.47
384.06	4.48
384.506	4.51
384.953	4.53
385.4	4.55
385.846	4.57
386.292	4.59
386.739	4.61
387.185	4.63
387.631	4.66
388.078	4.68
388.524	4.7
388.97	4.72
389.416	4.75
389.862	4.77
390.308	4.8
390.754	4.84
391.2	4.87
391.645	4.89
392.091	4.93
392.537	4.95
392.983	4.97
393.428	5
393.874	5.02
394.319	5.05
394.765	5.06
395.21	5.07
395.655	5.08
396.101	5.1
396.546	5.11
396.991	5.14
397.436	5.16
397.881	5.19
398.326	5.21
398.771	5.24
399.216	5.25
399.661	5.28
400.106	5.3
400.551	5.31
400.995	5.31
401.44	5.32
401.885	5.33
402.329	5.34
402.774	5.34
403.218	5.37
403.663	5.38
404.107	5.39
404.551	5.4
404.995	5.41
405.44	5.41
405.884	5.42
406.328	5.43
406.772	5.44
407.216	5.44
407.66	5.44
408.104	5.42
408.547	5.42
408.991	5.41
409.435	5.41
409.879	5.41
410.322	5.42
410.766	5.44
411.209	5.44
411.653	5.46
412.096	5.47
412.54	5.49
412.983	5.51
413.426	5.55
413.869	5.56
414.312	5.59
414.756	5.61
415.199	5.6
415.642	5.61
416.085	5.62
416.527	5.6
416.97	5.59
417.413	5.57
417.856	5.56
418.298	5.55
418.741	5.55
419.184	5.54
419.626	5.53
420.069	5.54
420.511	5.54
420.953	5.54
421.396	5.56
421.838	5.57
422.28	5.57
422.722	5.6
423.164	5.6
423.606	5.59
424.048	5.6
424.49	5.58
424.932	5.57
425.374	5.54
425.816	5.52
426.258	5.51
426.699	5.5
427.141	5.5
427.582	5.49
428.024	5.49
428.465	5.5
428.907	5.49
429.348	5.49
429.789	5.5
430.231	5.54
430.672	5.56
431.113	5.59
431.554	5.59
431.995	5.6
432.436	5.61
432.877	5.62
433.318	5.64
433.759	5.65
434.2	5.67
434.64	5.66
435.081	5.67
435.522	5.68
435.962	5.68
436.403	5.7
436.843	5.71
437.284	5.69
437.724	5.69
438.164	5.68
438.604	5.67
439.045	5.67
439.485	5.69
439.925	5.67
440.365	5.67
440.805	5.67
441.245	5.67
441.685	5.69
442.125	5.71
442.564	5.73
443.004	5.74
443.444	5.76
443.883	5.79
444.323	5.78
444.762	5.82
445.202	5.84
445.641	5.87
446.081	5.89
446.52	5.91
446.959	5.94
447.398	5.95
447.837	5.97
448.276	5.97
448.716	5.99
449.154	6.01
449.593	6.02
450.032	6.03
450.471	6.01
450.91	6.01
451.349	6.02
451.787	6
452.226	5.99
452.664	5.97
453.103	5.98
453.541	5.96
453.98	5.95
454.418	5.93
454.856	5.92
455.295	5.91
455.733	5.88
456.171	5.87
456.609	5.86
457.047	5.86
457.485	5.85
457.923	5.85
458.361	5.84
458.798	5.83
459.236	5.84
459.674	5.83
460.111	5.83
460.549	5.85
460.987	5.84
461.424	5.84
461.862	5.85
462.299	5.87
462.736	5.86
463.173	5.88
463.611	5.89
464.048	5.89
464.485	5.9
464.922	5.9
465.359	5.9
465.796	5.92
466.233	5.92
466.67	5.92
467.106	5.92
467.543	5.92
467.98	5.91
468.416	5.89
468.853	5.88
469.29	5.88
469.726	5.88
470.162	5.87
470.599	5.86
471.035	5.84
471.471	5.83
471.907	5.81
472.344	5.81
472.78	5.81
473.216	5.8
473.652	5.81
474.088	5.78
474.523	5.78
474.959	5.78
475.395	5.76
475.831	5.77
476.266	5.77
476.702	5.76
477.138	5.75
477.573	5.75
478.008	5.75
478.444	5.74
478.879	5.76
479.314	5.75
479.75	5.74
480.185	5.73
480.62	5.72
481.055	5.71
481.49	5.71
481.925	5.71
482.36	5.7
482.795	5.69
483.229	5.69
483.664	5.69
484.099	5.68
484.534	5.67
484.968	5.67
485.403	5.67
485.837	5.66
486.271	5.67
486.706	5.68
487.14	5.68
487.574	5.69
488.009	5.7
488.443	5.71
488.877	5.73
489.311	5.76
489.745	5.78
490.179	5.81
490.613	5.85
491.046	5.87
491.48	5.9
491.914	5.94
492.348	5.96
492.781	6
493.215	6.04
493.648	6.09
494.082	6.13
494.515	6.17
494.948	6.22
495.382	6.25
495.815	6.31
496.248	6.38
496.681	6.43
497.114	6.5
497.547	6.57
497.98	6.64
498.413	6.71
498.846	6.79
499.279	6.87
499.711	6.94
500.144	7.04
500.577	7.13
501.009	7.21
501.442	7.31
501.874	7.42
502.306	7.53
502.739	7.66
503.171	7.79
503.603	7.9
504.036	8.03
504.468	8.17
504.9	8.3
505.332	8.44
505.764	8.59
506.196	8.75
506.627	8.92
507.059	9.08
507.491	9.23
507.923	9.4
508.354	9.6
508.786	9.8
509.217	10
509.649	10.21
510.08	10.44
510.512	10.65
510.943	10.88
511.374	11.1
511.805	11.34
512.237	11.59
512.668	11.83
513.099	12.07
513.53	12.32
513.961	12.59
514.391	12.85
514.822	13.12
515.253	13.4
515.684	13.66
516.114	13.94
516.545	14.22
516.975	14.5
517.406	14.78
517.836	15.07
518.267	15.37
518.697	15.64
519.127	15.93
519.558	16.2
519.988	16.48
520.418	16.74
520.848	17.01
521.278	17.28
521.708	17.76
522.138	18.03
522.567	18.28
522.997	18.53
523.427	18.77
523.857	19.03
524.286	19.27
524.716	19.49
525.145	19.73
525.575	19.96
526.004	20.19
526.433	20.17
526.863	20.36
527.292	20.56
527.721	20.75
528.15	20.93
528.579	21.08
529.008	21.25
529.437	21.41
529.866	21.55
530.295	21.69
530.724	21.82
531.152	21.95
531.581	22.08
532.01	22.2
532.438	22.3
532.867	22.43
533.295	22.54
533.723	22.63
534.152	22.73
534.58	22.83
535.008	22.88
535.436	22.96
535.865	23.02
536.293	23.08
536.721	23.14
537.149	23.2
537.576	23.23
538.004	23.27
538.432	23.3
538.86	23.34
539.287	23.37
539.715	23.43
540.143	23.45
540.57	23.49
540.998	23.51
541.425	23.54
541.852	23.57
542.28	23.61
542.707	23.62
543.134	23.67
543.561	23.7
543.988	23.74
544.415	23.75
544.842	23.76
545.269	23.78
545.696	23.81
546.123	23.84
546.549	23.87
546.976	23.91
547.403	23.93
547.829	23.94
548.256	23.95
548.682	23.96
549.108	24
549.535	24.05
549.961	24.06
550.387	24.06
550.813	24.08
551.24	24.07
551.666	24.06
552.092	24.05
552.518	24.06
552.943	24.04
553.369	24.01
553.795	23.96
554.221	23.93
554.646	23.9
555.072	23.88
555.498	23.84
555.923	23.78
556.349	23.72
556.774	23.67
557.199	23.6
557.625	23.53
558.05	23.47
558.475	23.41
558.9	23.34
559.325	23.26
559.75	23.16
560.175	23.06
560.6	22.97
561.025	22.87
561.449	22.76
561.874	22.64
562.299	22.53
562.723	22.41
563.148	22.27
563.572	22.11
563.997	21.97
564.421	21.81
564.846	21.65
565.27	21.5
565.694	21.35
566.118	21.2
566.542	21.05
566.966	20.88
567.39	20.72
567.814	20.57
568.238	20.41
568.662	20.26
569.086	20.11
569.509	19.95
569.933	19.81
570.357	19.67
570.78	19.49
571.204	19.35
571.627	19.22
572.05	19.08
572.474	18.95
572.897	18.82
573.32	18.69
573.743	18.55
574.166	18.43
574.589	18.31
575.012	18.18
575.435	18.09
575.858	17.96
576.281	17.85
576.704	17.74
577.126	17.62
577.549	17.52
577.972	17.42
578.394	17.33
578.817	17.24
579.239	17.14
579.661	17.05
580.084	16.97
580.506	16.89
580.928	16.81
581.35	16.73
581.772	16.65
582.194	16.57
582.616	16.48
583.038	16.4
583.46	16.33
583.882	16.27
584.303	16.2
584.725	16.12
585.147	16.08
585.568	16.02
585.99	15.95
586.411	15.89
586.833	15.84
587.254	15.78
587.675	15.73
588.096	15.68
588.518	15.61
588.939	15.56
589.36	15.5
589.781	15.43
590.202	15.39
590.623	15.36
591.043	15.3
591.464	15.26
591.885	15.21
592.305	15.18
592.726	15.15
593.147	15.12
593.567	15.08
593.987	15.04
594.408	15
594.828	14.95
595.248	14.91
595.669	14.88
596.089	14.85
596.509	14.82
596.929	14.78
597.349	14.74
597.769	14.71
598.189	14.67
598.608	14.65
599.028	14.62
599.448	14.58
599.867	14.53
600.287	14.5
600.706	14.46
601.126	14.43
601.545	14.39
601.965	14.34
602.384	14.29
602.803	14.23
603.222	14.18
603.641	14.13
604.061	14.08
604.48	14.02
604.898	13.95
605.317	13.87
605.736	13.8
606.155	13.75
606.574	13.67
606.992	13.58
607.411	13.52
607.829	13.42
608.248	13.34
608.666	13.26
609.085	13.19
609.503	13.13
609.921	13.06
610.339	12.99
610.758	12.9
611.176	12.82
611.594	12.75
612.012	12.68
612.43	12.64
612.847	12.56
613.265	12.5
613.683	12.43
614.101	12.35
614.518	12.28
614.936	12.22
615.353	12.15
615.771	12.1
616.188	12.03
616.606	11.97
617.023	11.9
617.44	11.85
617.857	11.79
618.274	11.74
618.691	11.69
619.108	11.65
619.525	11.6
619.942	11.56
620.359	11.52
620.776	11.49
621.192	11.46
621.609	11.43
622.026	11.4
622.442	11.39
622.859	11.36
623.275	11.34
623.691	11.32
624.108	11.31
624.524	11.29
624.94	11.27
625.356	11.26
625.772	11.25
626.188	11.24
626.604	11.23
627.02	11.2
627.436	11.2
627.852	11.19
628.268	11.17
628.683	11.15
629.099	11.14
629.514	11.12
629.93	11.1
630.345	11.09
630.761	11.04
631.176	11.02
631.591	11
632.007	10.97
632.422	10.92
632.837	10.88
633.252	10.83
633.667	10.77
634.082	10.71
634.497	10.65
634.911	10.56
635.326	10.49
635.741	10.43
636.155	10.35
636.57	10.27
636.984	10.19
637.399	10.1
637.813	10
638.228	9.91
638.642	9.81
639.056	9.7
639.47	9.62
639.884	9.53
640.298	9.41
640.712	9.31
641.126	9.2
641.54	9.09
641.954	8.98
642.368	8.89
642.781	8.8
643.195	8.7
643.609	8.61
644.022	8.51
644.436	8.43
644.849	8.34
645.262	8.25
645.676	8.16
646.089	8.08
646.502	8.02
646.915	7.95
647.328	7.89
647.741	7.83
648.154	7.78
648.567	7.73
648.98	7.67
649.393	7.64
649.805	7.6
650.218	7.56
650.631	7.53
651.043	7.5
651.456	7.45
651.868	7.4
652.28	7.37
652.693	7.33
653.105	7.3
653.517	7.25
653.929	7.21
654.341	7.16
654.753	7.11
655.165	7.05
655.577	7
655.989	6.94
656.401	6.88
656.813	6.83
657.224	6.76
657.636	6.68
658.047	6.63
658.459	6.56
658.87	6.49
659.282	6.42
659.693	6.35
660.104	6.28
660.515	6.22
660.926	6.15
661.338	6.08
661.749	6.01
662.159	5.95
662.57	5.89
662.981	5.84
663.392	5.79
663.803	5.74
664.213	5.69
664.624	5.64
665.035	5.59
665.445	5.55
665.855	5.52
666.266	5.49
666.676	5.47
667.086	5.43
667.497	5.41
667.907	5.4
668.317	5.38
668.727	5.38
669.137	5.37
669.547	5.37
669.956	5.36
670.366	5.36
670.776	5.36
671.186	5.35
671.595	5.35
672.005	5.34
672.414	5.34
672.824	5.35
673.233	5.36
673.642	5.36
674.052	5.37
674.461	5.39
674.87	5.39
675.279	5.41
675.688	5.44
676.097	5.46
676.506	5.49
676.915	5.51
677.323	5.55
677.732	5.57
678.141	5.6
678.549	5.63
678.958	5.67
679.366	5.72
679.775	5.76
680.183	5.82
680.592	5.87
681	5.94
681.408	6.01
681.816	6.08
682.224	6.17
682.632	6.27
683.04	6.38
683.448	6.5
683.856	6.61
684.264	6.75
684.671	6.9
685.079	7.07
685.487	7.26
685.894	7.46
686.302	7.69
686.709	7.94
687.116	8.2
687.524	8.5
687.931	8.83
688.338	9.18
688.745	9.54
689.152	9.92
689.559	10.34
689.966	10.77
690.373	11.23
690.78	11.7
691.187	12.19
691.593	12.69
692	13.22
692.407	13.74
692.813	14.29
693.22	14.84
693.626	15.41
694.032	15.98
694.439	16.55
694.845	17.15
695.251	17.74
695.657	18.31
696.063	18.91
696.469	19.5
696.875	20.1
697.281	20.69
697.687	21.31
698.093	21.9
698.498	22.47
698.904	23.06
699.31	23.61
699.715	24.21
700.12	24.78
700.526	25.33
700.931	25.89
701.337	26.44
701.742	26.97
702.147	27.49
702.552	28.01
702.957	28.52
703.362	29.03
703.767	29.51
704.172	29.98
704.577	30.47
704.981	30.96
705.386	31.41
705.791	31.86
706.195	32.33
706.6	32.78
707.004	33.22
707.408	33.66
707.813	34.11
708.217	34.55
708.621	34.97
709.025	35.38
709.43	35.78
709.834	36.2
710.237	36.59
710.641	36.96
711.045	37.34
711.449	37.71
711.853	38.12
712.256	38.46
712.66	38.82
713.064	39.17
713.467	39.53
713.87	39.87
714.274	40.19
714.677	40.51
715.08	40.84
715.484	41.17
715.887	41.51
716.29	41.79
716.693	42.08
717.096	42.38
717.499	42.68
717.901	42.95
718.304	43.24
718.707	43.5
719.109	43.79
719.512	44.07
719.915	44.33
720.317	44.54
720.719	44.74
721.122	44.99
721.524	45.21
721.926	45.44
722.328	45.69
722.731	45.91
723.133	46.13
723.535	46.32
723.937	46.5
724.338	46.67
724.74	46.88
725.142	47.26
725.544	47.44
725.945	47.64
726.347	47.78
726.748	47.93
727.15	48.07
727.551	48.23
727.952	48.37
728.354	48.5
728.755	48.65
729.156	48.74
729.557	48.71
729.958	48.82
730.359	48.91
730.76	49.04
731.161	49.13
731.562	49.27
731.962	49.34
732.363	49.44
732.763	49.56
733.164	49.65
733.564	49.78
733.965	49.87
734.365	49.96
734.766	50.04
735.166	50.1
735.566	50.2
735.966	50.28
736.366	50.33
736.766	50.41
737.166	50.48
737.566	50.54
737.966	50.59
738.365	50.65
738.765	50.72
739.165	50.78
739.564	50.84
739.964	50.88
740.363	50.9
740.763	50.95
741.162	50.99
741.561	51
741.96	51.03
742.36	51.06
742.759	51.07
743.158	51.09
743.557	51.12
743.955	51.15
744.354	51.18
744.753	51.25
745.152	51.32
745.55	51.32
745.949	51.37
746.348	51.42
746.746	51.43
747.144	51.47
747.543	51.48
747.941	51.49
748.339	51.48
748.737	51.48
749.136	51.46
749.534	51.44
749.932	51.47
750.33	51.47
750.727	51.48
751.125	51.52
751.523	51.54
751.921	51.56
752.318	51.6
752.716	51.62
753.113	51.63
753.511	51.65
753.908	51.7
754.305	51.75
754.703	51.77
755.1	51.77
755.497	51.78
755.894	51.77
756.291	51.8
756.688	51.8
757.085	51.82
757.482	51.85
757.878	51.87
758.275	51.87
758.672	51.85
759.068	51.88
759.465	51.88
759.861	51.87
760.258	51.89
760.654	51.88
761.05	51.89
761.447	51.9
761.843	51.9
762.239	51.87
762.635	51.86
763.031	51.85
763.427	51.82
763.822	51.82
764.218	51.85
764.614	51.87
765.01	51.86
765.405	51.84
765.801	51.83
766.196	51.83
766.592	51.83
766.987	51.83
767.382	51.83
767.778	51.84
768.173	51.87
768.568	51.83
768.963	51.79
769.358	51.8
769.753	51.8
770.148	51.8
770.542	51.79
770.937	51.79
771.332	51.79
771.726	51.79
772.121	51.77
772.515	51.75
772.91	51.74
773.304	51.79
773.699	51.75
774.093	51.73
774.487	51.71
774.881	51.74
775.275	51.74
775.669	51.75
776.063	51.73
776.457	51.74
776.851	51.72
777.245	51.7
777.638	51.68
778.032	51.72
778.425	51.77
778.819	51.78
779.212	51.78
779.606	51.8
779.999	51.78
780.392	51.83
780.786	51.87
781.179	51.91
781.572	51.96
781.965	51.97
782.358	51.97
782.751	51.98
783.143	51.98
