Data from C_3_DIV_WI_4N_Splice17_13-51-11-123.txt Node
Date: Sat Mar 07 13:51:11 EST 2020
User: sa697716
Spectrometer: NQ5500242
Trigger mode: 0
Integration Time (sec): 1.450000E-1
Scans to average: 20
Nonlinearity correction enabled: false
Boxcar width: 5
Storing dark spectrum: false
XAxis mode: Wavelengths
Number of Pixels in Spectrum: 512
>>>>>Begin Spectral Data<<<<<
187.83	193.41
188.298	235.41
188.766	197.93
189.233	168.09
189.701	173.01
190.169	194.42
190.636	239.04
191.104	365.74
191.571	364.26
192.039	241.7
192.506	-223.63
192.974	80.7
193.441	262.31
193.908	65.4
194.375	70.06
194.842	17.52
195.31	40.55
195.777	161.17
196.244	49.46
196.711	43.06
197.177	45.24
197.644	42.92
198.111	42.31
198.578	42.47
199.045	43.03
199.511	43.22
199.978	43.24
200.445	43.43
200.911	43.36
201.378	43.08
201.844	43.03
202.31	42.81
202.777	42.85
203.243	42.9
203.709	42.87
204.176	42.45
204.642	42.3
205.108	42.28
205.574	41.89
206.04	41.47
206.506	41.56
206.972	41.66
207.438	41.21
207.903	40.61
208.369	39.69
208.835	39.04
209.301	38.36
209.766	37
210.232	35.87
210.697	35.01
211.163	34.39
211.628	33.27
212.094	32.22
212.559	31.73
213.024	31.05
213.49	30.58
213.955	29.67
214.42	28.81
214.885	28.2
215.35	27.4
215.815	26.36
216.28	24.67
216.745	22.96
217.21	21.27
217.675	19.54
218.14	18.12
218.604	16.86
219.069	15.88
219.534	15.09
219.998	14.38
220.463	13.79
220.927	13.2
221.392	12.77
221.856	12.42
222.32	12.08
222.785	11.83
223.249	11.59
223.713	11.36
224.177	11.19
224.642	11
225.106	10.8
225.57	10.59
226.034	10.43
226.497	10.29
226.961	10.15
227.425	10.01
227.889	9.88
228.353	9.74
228.816	9.59
229.28	9.44
229.744	9.3
230.207	9.17
230.671	9.07
231.134	8.94
231.597	8.84
232.061	8.73
232.524	8.62
232.987	8.5
233.45	8.43
233.914	8.34
234.377	8.26
234.84	8.17
235.303	8.09
235.766	8.01
236.229	7.92
236.691	7.84
237.154	7.76
237.617	7.69
238.08	7.62
238.542	7.54
239.005	7.48
239.468	7.4
239.93	7.35
240.393	7.28
240.855	7.21
241.317	7.14
241.78	7.07
242.242	7.01
242.704	6.96
243.166	6.9
243.629	6.85
244.091	6.78
244.553	6.72
245.015	6.66
245.477	6.6
245.939	6.53
246.4	6.48
246.862	6.43
247.324	6.38
247.786	6.32
248.247	6.26
248.709	6.19
249.17	6.14
249.632	6.1
250.093	6.07
250.555	6.03
251.016	6
251.477	5.96
251.939	5.93
252.4	5.9
252.861	5.86
253.322	5.83
253.783	5.81
254.244	5.78
254.705	5.73
255.166	5.69
255.627	5.66
256.088	5.64
256.549	5.6
257.009	5.57
257.47	5.53
257.931	5.5
258.391	5.45
258.852	5.42
259.312	5.38
259.773	5.35
260.233	5.32
260.694	5.29
261.154	5.25
261.614	5.22
262.074	5.18
262.534	5.15
262.994	5.13
263.455	5.1
263.915	5.08
264.374	5.06
264.834	5.04
265.294	5
265.754	4.99
266.214	4.98
266.673	4.96
267.133	4.95
267.593	4.94
268.052	4.93
268.512	4.92
268.971	4.91
269.431	4.9
269.89	4.89
270.349	4.89
270.809	4.87
271.268	4.87
271.727	4.86
272.186	4.84
272.645	4.83
273.104	4.81
273.563	4.8
274.022	4.78
274.481	4.78
274.94	4.77
275.399	4.75
275.857	4.73
276.316	4.71
276.775	4.7
277.233	4.69
277.692	4.68
278.15	4.67
278.609	4.66
279.067	4.65
279.525	4.65
279.984	4.64
280.442	4.63
280.9	4.63
281.358	4.63
281.816	4.63
282.274	4.62
282.732	4.6
283.19	4.59
283.648	4.57
284.106	4.56
284.564	4.54
285.021	4.53
285.479	4.51
285.937	4.49
286.394	4.48
286.852	4.46
287.309	4.44
287.767	4.43
288.224	4.41
288.682	4.4
289.139	4.38
289.596	4.36
290.053	4.33
290.511	4.32
290.968	4.31
291.425	4.28
291.882	4.27
292.339	4.26
292.796	4.24
293.252	4.23
293.709	4.21
294.166	4.2
294.623	4.19
295.079	4.18
295.536	4.17
295.992	4.16
296.449	4.15
296.905	4.14
297.362	4.13
297.818	4.12
298.274	4.12
298.731	4.1
299.187	4.09
299.643	4.08
300.099	4.08
300.555	4.07
301.011	4.06
301.467	4.05
301.923	4.04
302.379	4.03
302.835	4.02
303.291	4.02
303.746	4.01
304.202	4.01
304.658	4
305.113	3.99
305.569	3.98
306.024	3.97
306.479	3.96
306.935	3.96
307.39	3.95
307.845	3.95
308.301	3.95
308.756	3.94
309.211	3.94
309.666	3.94
310.121	3.94
310.576	3.94
311.031	3.95
311.486	3.94
311.94	3.94
312.395	3.94
312.85	3.93
313.305	3.92
313.759	3.92
314.214	3.91
314.668	3.9
315.123	3.89
315.577	3.88
316.032	3.87
316.486	3.86
316.94	3.85
317.394	3.84
317.849	3.83
318.303	3.82
318.757	3.8
319.211	3.79
319.665	3.78
320.119	3.76
320.572	3.75
321.026	3.74
321.48	3.73
321.934	3.71
322.387	3.7
322.841	3.7
323.295	3.7
323.748	3.69
324.202	3.69
324.655	3.68
325.108	3.68
325.562	3.68
326.015	3.68
326.468	3.68
326.921	3.68
327.374	3.67
327.827	3.67
328.28	3.66
328.733	3.66
329.186	3.66
329.639	3.65
330.092	3.65
330.545	3.65
330.997	3.65
331.45	3.65
331.903	3.66
332.355	3.66
332.808	3.65
333.26	3.65
333.713	3.65
334.165	3.65
334.617	3.66
335.069	3.64
335.522	3.64
335.974	3.64
336.426	3.63
336.878	3.62
337.33	3.61
337.782	3.61
338.234	3.61
338.686	3.61
339.137	3.61
339.589	3.6
340.041	3.6
340.493	3.58
340.944	3.57
341.396	3.55
341.847	3.55
342.299	3.54
342.75	3.53
343.201	3.51
343.653	3.5
344.104	3.48
344.555	3.46
345.006	3.45
345.457	3.44
345.908	3.44
346.359	3.44
346.81	3.42
347.261	3.42
347.712	3.41
348.163	3.4
348.613	3.4
349.064	3.4
349.515	3.4
349.965	3.4
350.416	3.39
350.866	3.39
351.317	3.38
351.767	3.38
352.217	3.38
352.668	3.38
353.118	3.38
353.568	3.38
354.018	3.38
354.468	3.38
354.918	3.38
355.368	3.38
355.818	3.39
356.268	3.39
356.718	3.39
357.168	3.39
357.617	3.38
358.067	3.38
358.517	3.38
358.966	3.38
359.416	3.38
359.865	3.38
360.315	3.38
360.764	3.38
361.213	3.38
361.663	3.37
362.112	3.37
362.561	3.38
363.01	3.38
363.459	3.37
363.908	3.37
364.357	3.38
364.806	3.38
365.255	3.38
365.703	3.39
366.152	3.4
366.601	3.41
367.05	3.42
367.498	3.42
367.947	3.44
368.395	3.44
368.844	3.45
369.292	3.45
369.74	3.47
370.189	3.47
370.637	3.47
371.085	3.47
371.533	3.47
371.981	3.48
372.429	3.49
372.877	3.5
373.325	3.51
373.773	3.52
374.221	3.53
374.669	3.54
375.116	3.55
375.564	3.57
376.012	3.59
376.459	3.61
376.907	3.63
377.354	3.65
377.801	3.68
378.249	3.69
378.696	3.71
379.143	3.73
379.591	3.75
380.038	3.77
380.485	3.78
380.932	3.8
381.379	3.82
381.826	3.84
382.273	3.85
382.72	3.85
383.166	3.88
383.613	3.9
384.06	3.91
384.506	3.93
384.953	3.95
385.4	3.98
385.846	4.01
386.292	4.03
386.739	4.05
387.185	4.07
387.631	4.1
388.078	4.13
388.524	4.16
388.97	4.18
389.416	4.22
389.862	4.25
390.308	4.28
390.754	4.3
391.2	4.33
391.645	4.36
392.091	4.4
392.537	4.43
392.983	4.45
393.428	4.49
393.874	4.52
394.319	4.55
394.765	4.57
395.21	4.6
395.655	4.63
396.101	4.66
396.546	4.69
396.991	4.7
397.436	4.74
397.881	4.78
398.326	4.79
398.771	4.81
399.216	4.83
399.661	4.86
400.106	4.88
400.551	4.89
400.995	4.9
401.44	4.91
401.885	4.93
402.329	4.94
402.774	4.95
403.218	4.99
403.663	5.01
404.107	5.02
404.551	5.01
404.995	5.03
405.44	5.03
405.884	5.05
406.328	5.07
406.772	5.07
407.216	5.08
407.66	5.09
408.104	5.06
408.547	5.07
408.991	5.08
409.435	5.1
409.879	5.1
410.322	5.11
410.766	5.14
411.209	5.15
411.653	5.17
412.096	5.19
412.54	5.19
412.983	5.21
413.426	5.25
413.869	5.25
414.312	5.28
414.756	5.3
415.199	5.3
415.642	5.3
416.085	5.31
416.527	5.3
416.97	5.27
417.413	5.27
417.856	5.27
418.298	5.24
418.741	5.24
419.184	5.24
419.626	5.23
420.069	5.25
420.511	5.26
420.953	5.26
421.396	5.29
421.838	5.31
422.28	5.32
422.722	5.35
423.164	5.36
423.606	5.37
424.048	5.37
424.49	5.37
424.932	5.35
425.374	5.32
425.816	5.3
426.258	5.29
426.699	5.27
427.141	5.25
427.582	5.24
428.024	5.25
428.465	5.25
428.907	5.24
429.348	5.22
429.789	5.23
430.231	5.26
430.672	5.27
431.113	5.29
431.554	5.29
431.995	5.31
432.436	5.32
432.877	5.34
433.318	5.35
433.759	5.37
434.2	5.4
434.64	5.41
435.081	5.42
435.522	5.44
435.962	5.45
436.403	5.47
436.843	5.49
437.284	5.47
437.724	5.47
438.164	5.46
438.604	5.46
439.045	5.47
439.485	5.48
439.925	5.47
440.365	5.47
440.805	5.46
441.245	5.47
441.685	5.48
442.125	5.51
442.564	5.51
443.004	5.53
443.444	5.54
443.883	5.55
444.323	5.54
444.762	5.56
445.202	5.55
445.641	5.6
446.081	5.61
446.52	5.62
446.959	5.64
447.398	5.66
447.837	5.69
448.276	5.7
448.716	5.72
449.154	5.76
449.593	5.78
450.032	5.79
450.471	5.77
450.91	5.77
451.349	5.79
451.787	5.77
452.226	5.76
452.664	5.76
453.103	5.75
453.541	5.75
453.98	5.74
454.418	5.72
454.856	5.73
455.295	5.73
455.733	5.72
456.171	5.7
456.609	5.71
457.047	5.69
457.485	5.68
457.923	5.69
458.361	5.67
458.798	5.65
459.236	5.64
459.674	5.63
460.111	5.62
460.549	5.62
460.987	5.63
461.424	5.63
461.862	5.63
462.299	5.63
462.736	5.63
463.173	5.64
463.611	5.65
464.048	5.66
464.485	5.68
464.922	5.68
465.359	5.68
465.796	5.7
466.233	5.7
466.67	5.71
467.106	5.72
467.543	5.7
467.98	5.69
468.416	5.67
468.853	5.67
469.29	5.66
469.726	5.65
470.162	5.64
470.599	5.62
471.035	5.61
471.471	5.59
471.907	5.57
472.344	5.58
472.78	5.59
473.216	5.59
473.652	5.58
474.088	5.56
474.523	5.56
474.959	5.56
475.395	5.55
475.831	5.55
476.266	5.56
476.702	5.55
477.138	5.55
477.573	5.54
478.008	5.54
478.444	5.54
478.879	5.56
479.314	5.55
479.75	5.56
480.185	5.54
480.62	5.54
481.055	5.54
481.49	5.54
481.925	5.54
482.36	5.55
482.795	5.54
483.229	5.54
483.664	5.55
484.099	5.54
484.534	5.54
484.968	5.55
485.403	5.55
485.837	5.55
486.271	5.56
486.706	5.56
487.14	5.56
487.574	5.58
488.009	5.59
488.443	5.6
488.877	5.62
489.311	5.64
489.745	5.66
490.179	5.69
490.613	5.72
491.046	5.74
491.48	5.76
491.914	5.8
492.348	5.83
492.781	5.88
493.215	5.92
493.648	5.95
494.082	6
494.515	6.04
494.948	6.08
495.382	6.12
495.815	6.19
496.248	6.25
496.681	6.31
497.114	6.37
497.547	6.43
497.98	6.49
498.413	6.57
498.846	6.64
499.279	6.72
499.711	6.79
500.144	6.88
500.577	6.97
501.009	7.04
501.442	7.14
501.874	7.24
502.306	7.34
502.739	7.47
503.171	7.58
503.603	7.7
504.036	7.82
504.468	7.95
504.9	8.08
505.332	8.2
505.764	8.35
506.196	8.5
506.627	8.65
507.059	8.81
507.491	8.96
507.923	9.13
508.354	9.31
508.786	9.49
509.217	9.69
509.649	9.89
510.08	10.1
510.512	10.31
510.943	10.52
511.374	10.73
511.805	10.96
512.237	11.17
512.668	11.4
513.099	11.61
513.53	11.85
513.961	12.08
514.391	12.32
514.822	12.57
515.253	12.81
515.684	13.06
516.114	13.33
516.545	13.59
516.975	13.85
517.406	14.11
517.836	14.38
518.267	14.66
518.697	14.91
519.127	15.16
519.558	15.41
519.988	15.67
520.418	15.92
520.848	16.15
521.278	16.41
521.708	16.89
522.138	17.13
522.567	17.35
522.997	17.57
523.427	17.79
523.857	18.02
524.286	18.24
524.716	18.45
525.145	18.66
525.575	18.87
526.004	19.05
526.433	18.98
526.863	19.17
527.292	19.35
527.721	19.52
528.15	19.67
528.579	19.81
529.008	19.96
529.437	20.08
529.866	20.22
530.295	20.34
530.724	20.46
531.152	20.59
531.581	20.7
532.01	20.81
532.438	20.91
532.867	21.01
533.295	21.11
533.723	21.2
534.152	21.29
534.58	21.37
535.008	21.43
535.436	21.51
535.865	21.57
536.293	21.62
536.721	21.66
537.149	21.72
537.576	21.75
538.004	21.81
538.432	21.84
538.86	21.87
539.287	21.88
539.715	21.94
540.143	21.96
540.57	21.98
540.998	21.99
541.425	22.02
541.852	22.05
542.28	22.08
542.707	22.1
543.134	22.12
543.561	22.15
543.988	22.18
544.415	22.19
544.842	22.22
545.269	22.26
545.696	22.3
546.123	22.33
546.549	22.35
546.976	22.38
547.403	22.41
547.829	22.43
548.256	22.45
548.682	22.47
549.108	22.5
549.535	22.51
549.961	22.5
550.387	22.51
550.813	22.51
551.24	22.51
551.666	22.5
552.092	22.49
552.518	22.49
552.943	22.49
553.369	22.47
553.795	22.44
554.221	22.42
554.646	22.4
555.072	22.37
555.498	22.32
555.923	22.28
556.349	22.23
556.774	22.17
557.199	22.1
557.625	22.03
558.05	21.96
558.475	21.88
558.9	21.81
559.325	21.74
559.75	21.67
560.175	21.59
560.6	21.51
561.025	21.4
561.449	21.32
561.874	21.21
562.299	21.11
562.723	20.99
563.148	20.88
563.572	20.75
563.997	20.61
564.421	20.47
564.846	20.35
565.27	20.21
565.694	20.09
566.118	19.94
566.542	19.82
566.966	19.67
567.39	19.55
567.814	19.41
568.238	19.26
568.662	19.11
569.086	18.97
569.509	18.84
569.933	18.71
570.357	18.57
570.78	18.43
571.204	18.3
571.627	18.18
572.05	18.05
572.474	17.95
572.897	17.85
573.32	17.74
573.743	17.63
574.166	17.52
574.589	17.4
575.012	17.29
575.435	17.2
575.858	17.1
576.281	16.99
576.704	16.88
577.126	16.78
577.549	16.67
577.972	16.58
578.394	16.5
578.817	16.42
579.239	16.33
579.661	16.26
580.084	16.17
580.506	16.09
580.928	16.02
581.35	15.94
581.772	15.87
582.194	15.8
582.616	15.74
583.038	15.67
583.46	15.58
583.882	15.51
584.303	15.44
584.725	15.37
585.147	15.32
585.568	15.28
585.99	15.23
586.411	15.17
586.833	15.13
587.254	15.06
587.675	15
588.096	14.95
588.518	14.9
588.939	14.87
589.36	14.82
589.781	14.75
590.202	14.72
590.623	14.68
591.043	14.64
591.464	14.61
591.885	14.57
592.305	14.54
592.726	14.52
593.147	14.48
593.567	14.45
593.987	14.41
594.408	14.38
594.828	14.33
595.248	14.3
595.669	14.26
596.089	14.22
596.509	14.2
596.929	14.16
597.349	14.12
597.769	14.09
598.189	14.05
598.608	14.04
599.028	14
599.448	13.97
599.867	13.93
600.287	13.9
600.706	13.88
601.126	13.84
601.545	13.81
601.965	13.78
602.384	13.74
602.803	13.69
603.222	13.64
603.641	13.59
604.061	13.55
604.48	13.49
604.898	13.43
605.317	13.36
605.736	13.3
606.155	13.24
606.574	13.18
606.992	13.11
607.411	13.05
607.829	12.95
608.248	12.87
608.666	12.79
609.085	12.73
609.503	12.66
609.921	12.59
610.339	12.53
610.758	12.47
611.176	12.39
611.594	12.33
612.012	12.26
612.43	12.22
612.847	12.17
613.265	12.09
613.683	12.04
614.101	11.97
614.518	11.91
614.936	11.84
615.353	11.77
615.771	11.71
616.188	11.65
616.606	11.59
617.023	11.53
617.44	11.49
617.857	11.43
618.274	11.38
618.691	11.34
619.108	11.29
619.525	11.25
619.942	11.21
620.359	11.17
620.776	11.12
621.192	11.11
621.609	11.09
622.026	11.06
622.442	11.05
622.859	11.03
623.275	11.01
623.691	11
624.108	10.98
624.524	10.97
624.94	10.95
625.356	10.96
625.772	10.93
626.188	10.91
626.604	10.89
627.02	10.87
627.436	10.86
627.852	10.85
628.268	10.83
628.683	10.81
629.099	10.81
629.514	10.79
629.93	10.78
630.345	10.76
630.761	10.73
631.176	10.72
631.591	10.7
632.007	10.68
632.422	10.65
632.837	10.61
633.252	10.58
633.667	10.53
634.082	10.48
634.497	10.43
634.911	10.38
635.326	10.32
635.741	10.25
636.155	10.17
636.57	10.1
636.984	10.02
637.399	9.94
637.813	9.84
638.228	9.75
638.642	9.65
639.056	9.55
639.47	9.46
639.884	9.36
640.298	9.26
640.712	9.16
641.126	9.06
641.54	8.95
641.954	8.84
642.368	8.75
642.781	8.66
643.195	8.58
643.609	8.5
644.022	8.4
644.436	8.33
644.849	8.24
645.262	8.17
645.676	8.09
646.089	8.03
646.502	7.97
646.915	7.91
647.328	7.86
647.741	7.8
648.154	7.75
648.567	7.7
648.98	7.65
649.393	7.62
649.805	7.58
650.218	7.55
650.631	7.52
651.043	7.47
651.456	7.44
651.868	7.39
652.28	7.36
652.693	7.32
653.105	7.29
653.517	7.24
653.929	7.2
654.341	7.15
654.753	7.1
655.165	7.05
655.577	7.01
655.989	6.95
656.401	6.89
656.813	6.83
657.224	6.77
657.636	6.69
658.047	6.64
658.459	6.57
658.87	6.49
659.282	6.43
659.693	6.36
660.104	6.28
660.515	6.22
660.926	6.16
661.338	6.09
661.749	6.03
662.159	5.97
662.57	5.91
662.981	5.85
663.392	5.8
663.803	5.75
664.213	5.7
664.624	5.67
665.035	5.63
665.445	5.6
665.855	5.57
666.266	5.56
666.676	5.54
667.086	5.51
667.497	5.49
667.907	5.48
668.317	5.46
668.727	5.46
669.137	5.44
669.547	5.44
669.956	5.42
670.366	5.43
670.776	5.42
671.186	5.42
671.595	5.42
672.005	5.43
672.414	5.44
672.824	5.45
673.233	5.46
673.642	5.48
674.052	5.5
674.461	5.51
674.87	5.52
675.279	5.54
675.688	5.57
676.097	5.59
676.506	5.62
676.915	5.64
677.323	5.66
677.732	5.67
678.141	5.7
678.549	5.73
678.958	5.78
679.366	5.83
679.775	5.86
680.183	5.91
680.592	5.98
681	6.04
681.408	6.12
681.816	6.2
682.224	6.29
682.632	6.4
683.04	6.5
683.448	6.6
683.856	6.71
684.264	6.85
684.671	6.98
685.079	7.13
685.487	7.31
685.894	7.5
686.302	7.71
686.709	7.96
687.116	8.2
687.524	8.48
687.931	8.79
688.338	9.12
688.745	9.46
689.152	9.82
689.559	10.22
689.966	10.62
690.373	11.05
690.78	11.49
691.187	11.94
691.593	12.4
692	12.87
692.407	13.35
692.813	13.86
693.22	14.35
693.626	14.86
694.032	15.39
694.439	15.91
694.845	16.45
695.251	16.98
695.657	17.5
696.063	18.04
696.469	18.58
696.875	19.12
697.281	19.64
697.687	20.2
698.093	20.73
698.498	21.23
698.904	21.74
699.31	22.24
699.715	22.75
700.12	23.25
700.526	23.75
700.931	24.23
701.337	24.72
701.742	25.19
702.147	25.65
702.552	26.12
702.957	26.57
703.362	27.02
703.767	27.43
704.172	27.86
704.577	28.28
704.981	28.71
705.386	29.13
705.791	29.52
706.195	29.92
706.6	30.3
707.004	30.67
707.408	31.05
707.813	31.44
708.217	31.84
708.621	32.21
709.025	32.56
709.43	32.92
709.834	33.27
710.237	33.61
710.641	33.95
711.045	34.29
711.449	34.64
711.853	35.01
712.256	35.3
712.66	35.6
713.064	35.89
713.467	36.2
713.87	36.49
714.274	36.74
714.677	37.02
715.08	37.28
715.484	37.57
715.887	37.84
716.29	38.06
716.693	38.33
717.096	38.6
717.499	38.86
717.901	39.1
718.304	39.34
718.707	39.59
719.109	39.84
719.512	40.07
719.915	40.29
720.317	40.46
720.719	40.66
721.122	40.86
721.524	41.04
721.926	41.26
722.328	41.43
722.731	41.61
723.133	41.81
723.535	41.99
723.937	42.16
724.338	42.31
724.74	42.5
725.142	42.81
725.544	42.95
725.945	43.14
726.347	43.26
726.748	43.41
727.15	43.54
727.551	43.68
727.952	43.76
728.354	43.88
728.755	43.99
729.156	44.1
729.557	44.03
729.958	44.13
730.359	44.18
730.76	44.29
731.161	44.38
731.562	44.48
731.962	44.52
732.363	44.65
732.763	44.71
733.164	44.81
733.564	44.89
733.965	44.98
734.365	45.07
734.766	45.15
735.166	45.2
735.566	45.27
735.966	45.34
736.366	45.42
736.766	45.43
737.166	45.52
737.566	45.57
737.966	45.6
738.365	45.66
738.765	45.74
739.165	45.77
739.564	45.85
739.964	45.88
740.363	45.92
740.763	45.97
741.162	46.03
741.561	46.04
741.96	46.05
742.36	46.09
742.759	46.11
743.158	46.09
743.557	46.13
743.955	46.13
744.354	46.15
744.753	46.18
745.152	46.21
745.55	46.24
745.949	46.29
746.348	46.35
746.746	46.34
747.144	46.37
747.543	46.39
747.941	46.42
748.339	46.41
748.737	46.41
749.136	46.43
749.534	46.41
749.932	46.4
750.33	46.4
750.727	46.39
751.125	46.39
751.523	46.38
751.921	46.41
752.318	46.44
752.716	46.46
753.113	46.49
753.511	46.49
753.908	46.52
754.305	46.57
754.703	46.57
755.1	46.59
755.497	46.61
755.894	46.61
756.291	46.6
756.688	46.58
757.085	46.59
757.482	46.59
757.878	46.62
758.275	46.63
758.672	46.59
759.068	46.62
759.465	46.62
759.861	46.61
760.258	46.65
760.654	46.67
761.05	46.69
761.447	46.7
761.843	46.68
762.239	46.67
762.635	46.66
763.031	46.68
763.427	46.66
763.822	46.66
764.218	46.69
764.614	46.68
765.01	46.65
765.405	46.62
765.801	46.61
766.196	46.63
766.592	46.62
766.987	46.6
767.382	46.58
767.778	46.6
768.173	46.59
768.568	46.56
768.963	46.56
769.358	46.59
769.753	46.59
770.148	46.58
770.542	46.56
770.937	46.57
771.332	46.6
771.726	46.59
772.121	46.57
772.515	46.6
772.91	46.59
773.304	46.58
773.699	46.57
774.093	46.56
774.487	46.58
774.881	46.61
775.275	46.6
775.669	46.59
776.063	46.6
776.457	46.59
776.851	46.57
777.245	46.57
777.638	46.58
778.032	46.59
778.425	46.63
778.819	46.62
779.212	46.61
779.606	46.61
779.999	46.58
780.392	46.62
780.786	46.61
781.179	46.62
781.572	46.65
781.965	46.66
782.358	46.67
782.751	46.66
