Data from C_3_DEC_VA_2N_Splice17_14-18-38-689.txt Node
Date: Sat Mar 07 14:18:38 EST 2020
User: sa697716
Spectrometer: NQ5500242
Trigger mode: 0
Integration Time (sec): 1.450000E-1
Scans to average: 20
Nonlinearity correction enabled: false
Boxcar width: 5
Storing dark spectrum: false
XAxis mode: Wavelengths
Number of Pixels in Spectrum: 512
>>>>>Begin Spectral Data<<<<<
187.83	128.38
188.298	129.36
188.766	112.07
189.233	101.92
189.701	105.31
190.169	108.28
190.636	111.62
191.104	48.98
191.571	-94.84
192.039	151.91
192.506	185.98
192.974	188.13
193.441	275.62
193.908	142.3
194.375	116.48
194.842	80.44
195.31	57.49
195.777	43.54
196.244	60.6
196.711	71.04
197.177	75.53
197.644	74.97
198.111	74.8
198.578	74.91
199.045	75.37
199.511	75.31
199.978	75.63
200.445	75.56
200.911	75.52
201.378	75.62
201.844	75.67
202.31	75.05
202.777	74.91
203.243	74.79
203.709	74.05
204.176	73.24
204.642	72.74
205.108	72.42
205.574	72.06
206.04	71.39
206.506	70.56
206.972	69.85
207.438	69.38
207.903	68.52
208.369	67.08
208.835	65.87
209.301	64.28
209.766	62.32
210.232	60.17
210.697	58.21
211.163	56.66
211.628	55.16
212.094	53.48
212.559	52.03
213.024	50.48
213.49	49.24
213.955	48.05
214.42	46.94
214.885	45.4
215.35	43.52
215.815	41.07
216.28	37.86
216.745	34.38
217.21	30.92
217.675	27.72
218.14	24.82
218.604	22.2
219.069	20.01
219.534	18.21
219.998	16.78
220.463	15.56
220.927	14.56
221.392	13.75
221.856	13.04
222.32	12.47
222.785	11.96
223.249	11.53
223.713	11.16
224.177	10.85
224.642	10.54
225.106	10.23
225.57	9.96
226.034	9.68
226.497	9.42
226.961	9.19
227.425	8.97
227.889	8.75
228.353	8.56
228.816	8.38
229.28	8.2
229.744	8.04
230.207	7.88
230.671	7.73
231.134	7.61
231.597	7.5
232.061	7.38
232.524	7.27
232.987	7.16
233.45	7.07
233.914	6.95
234.377	6.85
234.84	6.75
235.303	6.68
235.766	6.6
236.229	6.52
236.691	6.45
237.154	6.38
237.617	6.33
238.08	6.26
238.542	6.19
239.005	6.15
239.468	6.1
239.93	6.04
240.393	5.99
240.855	5.93
241.317	5.87
241.78	5.8
242.242	5.73
242.704	5.68
243.166	5.63
243.629	5.59
244.091	5.53
244.553	5.48
245.015	5.43
245.477	5.37
245.939	5.32
246.4	5.28
246.862	5.24
247.324	5.2
247.786	5.15
248.247	5.11
248.709	5.05
249.17	5.01
249.632	4.98
250.093	4.95
250.555	4.91
251.016	4.88
251.477	4.84
251.939	4.81
252.4	4.79
252.861	4.76
253.322	4.73
253.783	4.71
254.244	4.7
254.705	4.67
255.166	4.64
255.627	4.61
256.088	4.6
256.549	4.58
257.009	4.55
257.47	4.53
257.931	4.49
258.391	4.47
258.852	4.43
259.312	4.39
259.773	4.36
260.233	4.32
260.694	4.29
261.154	4.26
261.614	4.23
262.074	4.19
262.534	4.16
262.994	4.14
263.455	4.11
263.915	4.1
264.374	4.08
264.834	4.07
265.294	4.04
265.754	4.03
266.214	4.02
266.673	4
267.133	3.99
267.593	3.98
268.052	3.97
268.512	3.96
268.971	3.95
269.431	3.93
269.89	3.92
270.349	3.92
270.809	3.91
271.268	3.9
271.727	3.9
272.186	3.9
272.645	3.89
273.104	3.88
273.563	3.87
274.022	3.87
274.481	3.87
274.94	3.86
275.399	3.86
275.857	3.86
276.316	3.86
276.775	3.85
277.233	3.85
277.692	3.85
278.15	3.86
278.609	3.86
279.067	3.86
279.525	3.86
279.984	3.86
280.442	3.86
280.9	3.86
281.358	3.86
281.816	3.86
282.274	3.86
282.732	3.86
283.19	3.85
283.648	3.86
284.106	3.86
284.564	3.85
285.021	3.85
285.479	3.86
285.937	3.86
286.394	3.86
286.852	3.86
287.309	3.87
287.767	3.86
288.224	3.85
288.682	3.84
289.139	3.82
289.596	3.81
290.053	3.79
290.511	3.78
290.968	3.76
291.425	3.74
291.882	3.72
292.339	3.7
292.796	3.69
293.252	3.68
293.709	3.68
294.166	3.67
294.623	3.66
295.079	3.65
295.536	3.65
295.992	3.64
296.449	3.63
296.905	3.63
297.362	3.62
297.818	3.6
298.274	3.6
298.731	3.58
299.187	3.58
299.643	3.57
300.099	3.56
300.555	3.55
301.011	3.54
301.467	3.54
301.923	3.53
302.379	3.54
302.835	3.55
303.291	3.54
303.746	3.55
304.202	3.55
304.658	3.55
305.113	3.55
305.569	3.55
306.024	3.55
306.479	3.55
306.935	3.56
307.39	3.56
307.845	3.56
308.301	3.56
308.756	3.56
309.211	3.57
309.666	3.58
310.121	3.58
310.576	3.59
311.031	3.59
311.486	3.59
311.94	3.6
312.395	3.59
312.85	3.59
313.305	3.6
313.759	3.6
314.214	3.6
314.668	3.59
315.123	3.59
315.577	3.6
316.032	3.6
316.486	3.59
316.94	3.59
317.394	3.59
317.849	3.59
318.303	3.58
318.757	3.56
319.211	3.55
319.665	3.53
320.119	3.53
320.572	3.51
321.026	3.5
321.48	3.49
321.934	3.48
322.387	3.47
322.841	3.46
323.295	3.46
323.748	3.46
324.202	3.46
324.655	3.46
325.108	3.46
325.562	3.46
326.015	3.47
326.468	3.47
326.921	3.47
327.374	3.47
327.827	3.48
328.28	3.47
328.733	3.47
329.186	3.47
329.639	3.47
330.092	3.47
330.545	3.47
330.997	3.47
331.45	3.48
331.903	3.49
332.355	3.5
332.808	3.49
333.26	3.5
333.713	3.51
334.165	3.5
334.617	3.52
335.069	3.52
335.522	3.52
335.974	3.53
336.426	3.53
336.878	3.53
337.33	3.53
337.782	3.54
338.234	3.55
338.686	3.55
339.137	3.56
339.589	3.54
340.041	3.54
340.493	3.53
340.944	3.52
341.396	3.51
341.847	3.5
342.299	3.48
342.75	3.46
343.201	3.44
343.653	3.42
344.104	3.4
344.555	3.39
345.006	3.37
345.457	3.36
345.908	3.34
346.359	3.33
346.81	3.33
347.261	3.33
347.712	3.32
348.163	3.32
348.613	3.32
349.064	3.32
349.515	3.32
349.965	3.31
350.416	3.31
350.866	3.32
351.317	3.31
351.767	3.32
352.217	3.32
352.668	3.31
353.118	3.32
353.568	3.32
354.018	3.33
354.468	3.34
354.918	3.34
355.368	3.35
355.818	3.36
356.268	3.37
356.718	3.37
357.168	3.37
357.617	3.37
358.067	3.37
358.517	3.38
358.966	3.38
359.416	3.38
359.865	3.38
360.315	3.38
360.764	3.39
361.213	3.37
361.663	3.37
362.112	3.38
362.561	3.39
363.01	3.38
363.459	3.36
363.908	3.36
364.357	3.36
364.806	3.36
365.255	3.35
365.703	3.35
366.152	3.37
366.601	3.37
367.05	3.37
367.498	3.36
367.947	3.37
368.395	3.38
368.844	3.38
369.292	3.38
369.74	3.38
370.189	3.39
370.637	3.38
371.085	3.38
371.533	3.37
371.981	3.37
372.429	3.38
372.877	3.37
373.325	3.36
373.773	3.36
374.221	3.36
374.669	3.36
375.116	3.35
375.564	3.35
376.012	3.35
376.459	3.35
376.907	3.36
377.354	3.37
377.801	3.38
378.249	3.38
378.696	3.39
379.143	3.4
379.591	3.41
380.038	3.42
380.485	3.42
380.932	3.44
381.379	3.44
381.826	3.45
382.273	3.46
382.72	3.46
383.166	3.47
383.613	3.47
384.06	3.48
384.506	3.48
384.953	3.49
385.4	3.5
385.846	3.51
386.292	3.53
386.739	3.54
387.185	3.56
387.631	3.59
388.078	3.61
388.524	3.64
388.97	3.65
389.416	3.68
389.862	3.7
390.308	3.74
390.754	3.77
391.2	3.8
391.645	3.83
392.091	3.88
392.537	3.91
392.983	3.94
393.428	3.97
393.874	4
394.319	4.05
394.765	4.08
395.21	4.09
395.655	4.13
396.101	4.16
396.546	4.19
396.991	4.23
397.436	4.26
397.881	4.31
398.326	4.35
398.771	4.39
399.216	4.43
399.661	4.47
400.106	4.51
400.551	4.53
400.995	4.55
401.44	4.56
401.885	4.58
402.329	4.59
402.774	4.61
403.218	4.65
403.663	4.67
404.107	4.69
404.551	4.71
404.995	4.73
405.44	4.76
405.884	4.79
406.328	4.83
406.772	4.84
407.216	4.86
407.66	4.87
408.104	4.86
408.547	4.87
408.991	4.9
409.435	4.91
409.879	4.92
410.322	4.95
410.766	4.96
411.209	4.98
411.653	5.01
412.096	5.04
412.54	5.06
412.983	5.08
413.426	5.12
413.869	5.14
414.312	5.17
414.756	5.2
415.199	5.21
415.642	5.24
416.085	5.26
416.527	5.26
416.97	5.26
417.413	5.27
417.856	5.28
418.298	5.26
418.741	5.25
419.184	5.26
419.626	5.26
420.069	5.26
420.511	5.26
420.953	5.25
421.396	5.26
421.838	5.27
422.28	5.28
422.722	5.31
423.164	5.33
423.606	5.34
424.048	5.33
424.49	5.33
424.932	5.32
425.374	5.31
425.816	5.29
426.258	5.27
426.699	5.24
427.141	5.22
427.582	5.21
428.024	5.19
428.465	5.19
428.907	5.19
429.348	5.18
429.789	5.18
430.231	5.19
430.672	5.21
431.113	5.24
431.554	5.27
431.995	5.29
432.436	5.29
432.877	5.3
433.318	5.31
433.759	5.33
434.2	5.36
434.64	5.37
435.081	5.39
435.522	5.4
435.962	5.41
436.403	5.44
436.843	5.46
437.284	5.46
437.724	5.48
438.164	5.5
438.604	5.52
439.045	5.54
439.485	5.55
439.925	5.57
440.365	5.58
440.805	5.6
441.245	5.63
441.685	5.67
442.125	5.7
442.564	5.74
443.004	5.76
443.444	5.78
443.883	5.81
444.323	5.84
444.762	5.88
445.202	5.91
445.641	5.94
446.081	5.97
446.52	5.99
446.959	6.05
447.398	6.1
447.837	6.15
448.276	6.19
448.716	6.22
449.154	6.27
449.593	6.31
450.032	6.34
450.471	6.35
450.91	6.36
451.349	6.39
451.787	6.38
452.226	6.39
452.664	6.39
453.103	6.4
453.541	6.38
453.98	6.39
454.418	6.37
454.856	6.36
455.295	6.36
455.733	6.33
456.171	6.32
456.609	6.31
457.047	6.27
457.485	6.25
457.923	6.23
458.361	6.21
458.798	6.19
459.236	6.18
459.674	6.17
460.111	6.16
460.549	6.17
460.987	6.17
461.424	6.17
461.862	6.18
462.299	6.17
462.736	6.16
463.173	6.17
463.611	6.18
464.048	6.18
464.485	6.17
464.922	6.17
465.359	6.17
465.796	6.15
466.233	6.16
466.67	6.17
467.106	6.18
467.543	6.18
467.98	6.19
468.416	6.17
468.853	6.18
469.29	6.19
469.726	6.2
470.162	6.2
470.599	6.21
471.035	6.2
471.471	6.19
471.907	6.19
472.344	6.2
472.78	6.21
473.216	6.21
473.652	6.21
474.088	6.21
474.523	6.21
474.959	6.21
475.395	6.19
475.831	6.2
476.266	6.21
476.702	6.2
477.138	6.2
477.573	6.19
478.008	6.2
478.444	6.19
478.879	6.19
479.314	6.19
479.75	6.19
480.185	6.19
480.62	6.18
481.055	6.17
481.49	6.16
481.925	6.16
482.36	6.17
482.795	6.17
483.229	6.18
483.664	6.18
484.099	6.18
484.534	6.2
484.968	6.23
485.403	6.25
485.837	6.28
486.271	6.32
486.706	6.35
487.14	6.38
487.574	6.42
488.009	6.47
488.443	6.51
488.877	6.57
489.311	6.63
489.745	6.68
490.179	6.74
490.613	6.8
491.046	6.87
491.48	6.95
491.914	7.02
492.348	7.1
492.781	7.19
493.215	7.28
493.648	7.38
494.082	7.48
494.515	7.58
494.948	7.69
495.382	7.81
495.815	7.94
496.248	8.07
496.681	8.2
497.114	8.34
497.547	8.47
497.98	8.6
498.413	8.74
498.846	8.9
499.279	9.05
499.711	9.21
500.144	9.38
500.577	9.54
501.009	9.71
501.442	9.88
501.874	10.07
502.306	10.26
502.739	10.47
503.171	10.67
503.603	10.87
504.036	11.08
504.468	11.29
504.9	11.5
505.332	11.72
505.764	11.94
506.196	12.18
506.627	12.42
507.059	12.67
507.491	12.91
507.923	13.16
508.354	13.43
508.786	13.7
509.217	13.98
509.649	14.26
510.08	14.54
510.512	14.83
510.943	15.09
511.374	15.37
511.805	15.66
512.237	15.94
512.668	16.24
513.099	16.53
513.53	16.81
513.961	17.08
514.391	17.37
514.822	17.65
515.253	17.93
515.684	18.22
516.114	18.5
516.545	18.77
516.975	19.05
517.406	19.31
517.836	19.57
518.267	19.84
518.697	20.1
519.127	20.34
519.558	20.6
519.988	20.85
520.418	21.1
520.848	21.34
521.278	21.58
521.708	21.89
522.138	22.11
522.567	22.32
522.997	22.52
523.427	22.72
523.857	22.93
524.286	23.11
524.716	23.29
525.145	23.47
525.575	23.64
526.004	23.82
526.433	23.87
526.863	24.03
527.292	24.19
527.721	24.33
528.15	24.47
528.579	24.6
529.008	24.72
529.437	24.83
529.866	24.93
530.295	25.03
530.724	25.12
531.152	25.21
531.581	25.3
532.01	25.38
532.438	25.46
532.867	25.53
533.295	25.59
533.723	25.65
534.152	25.7
534.58	25.76
535.008	25.79
535.436	25.85
535.865	25.88
536.293	25.92
536.721	25.95
537.149	25.97
537.576	26.01
538.004	26.05
538.432	26.06
538.86	26.08
539.287	26.08
539.715	26.12
540.143	26.14
540.57	26.16
540.998	26.18
541.425	26.2
541.852	26.23
542.28	26.26
542.707	26.28
543.134	26.31
543.561	26.36
543.988	26.39
544.415	26.4
544.842	26.42
545.269	26.45
545.696	26.48
546.123	26.49
546.549	26.51
546.976	26.53
547.403	26.54
547.829	26.55
548.256	26.57
548.682	26.58
549.108	26.61
549.535	26.64
549.961	26.64
550.387	26.65
550.813	26.67
551.24	26.67
551.666	26.66
552.092	26.67
552.518	26.69
552.943	26.69
553.369	26.7
553.795	26.69
554.221	26.67
554.646	26.66
555.072	26.65
555.498	26.63
555.923	26.6
556.349	26.59
556.774	26.54
557.199	26.5
557.625	26.44
558.05	26.41
558.475	26.37
558.9	26.33
559.325	26.28
559.75	26.22
560.175	26.16
560.6	26.1
561.025	26.02
561.449	25.93
561.874	25.86
562.299	25.8
562.723	25.7
563.148	25.59
563.572	25.5
563.997	25.39
564.421	25.28
564.846	25.17
565.27	25.06
565.694	24.97
566.118	24.85
566.542	24.74
566.966	24.61
567.39	24.49
567.814	24.36
568.238	24.21
568.662	24.08
569.086	23.97
569.509	23.84
569.933	23.71
570.357	23.58
570.78	23.45
571.204	23.33
571.627	23.21
572.05	23.1
572.474	23.01
572.897	22.93
573.32	22.84
573.743	22.75
574.166	22.66
574.589	22.56
575.012	22.47
575.435	22.38
575.858	22.29
576.281	22.2
576.704	22.13
577.126	22.04
577.549	21.94
577.972	21.86
578.394	21.78
578.817	21.7
579.239	21.63
579.661	21.56
580.084	21.5
580.506	21.43
580.928	21.37
581.35	21.29
581.772	21.21
582.194	21.16
582.616	21.09
583.038	21.02
583.46	20.95
583.882	20.91
584.303	20.85
584.725	20.8
585.147	20.74
585.568	20.69
585.99	20.64
586.411	20.59
586.833	20.53
587.254	20.49
587.675	20.44
588.096	20.39
588.518	20.34
588.939	20.3
589.36	20.24
589.781	20.21
590.202	20.17
590.623	20.12
591.043	20.08
591.464	20.06
591.885	20.01
592.305	19.99
592.726	19.97
593.147	19.92
593.567	19.88
593.987	19.85
594.408	19.81
594.828	19.76
595.248	19.74
595.669	19.71
596.089	19.66
596.509	19.64
596.929	19.6
597.349	19.55
597.769	19.53
598.189	19.5
598.608	19.47
599.028	19.43
599.448	19.41
599.867	19.36
600.287	19.33
600.706	19.3
601.126	19.25
601.545	19.22
601.965	19.18
602.384	19.13
602.803	19.07
603.222	19.02
603.641	18.98
604.061	18.94
604.48	18.9
604.898	18.85
605.317	18.8
605.736	18.76
606.155	18.69
606.574	18.64
606.992	18.57
607.411	18.52
607.829	18.43
608.248	18.35
608.666	18.28
609.085	18.2
609.503	18.15
609.921	18.09
610.339	18.02
610.758	17.96
611.176	17.9
611.594	17.84
612.012	17.76
612.43	17.72
612.847	17.66
613.265	17.59
613.683	17.53
614.101	17.45
614.518	17.37
614.936	17.3
615.353	17.22
615.771	17.15
616.188	17.09
616.606	17.06
617.023	17.01
617.44	16.96
617.857	16.91
618.274	16.86
618.691	16.82
619.108	16.78
619.525	16.73
619.942	16.71
620.359	16.68
620.776	16.65
621.192	16.61
621.609	16.58
622.026	16.55
622.442	16.52
622.859	16.51
623.275	16.48
623.691	16.46
624.108	16.46
624.524	16.44
624.94	16.43
625.356	16.41
625.772	16.4
626.188	16.4
626.604	16.39
627.02	16.38
627.436	16.37
627.852	16.36
628.268	16.35
628.683	16.33
629.099	16.31
629.514	16.29
629.93	16.26
630.345	16.22
630.761	16.16
631.176	16.12
631.591	16.06
632.007	16
632.422	15.93
632.837	15.85
633.252	15.78
633.667	15.7
634.082	15.6
634.497	15.51
634.911	15.4
635.326	15.29
635.741	15.17
636.155	15.05
636.57	14.92
636.984	14.79
637.399	14.63
637.813	14.47
638.228	14.31
638.642	14.14
639.056	13.98
639.47	13.82
639.884	13.66
640.298	13.5
640.712	13.33
641.126	13.16
641.54	12.98
641.954	12.82
642.368	12.66
642.781	12.51
643.195	12.35
643.609	12.19
644.022	12.04
644.436	11.89
644.849	11.75
645.262	11.61
645.676	11.49
646.089	11.38
646.502	11.27
646.915	11.17
647.328	11.08
647.741	11
648.154	10.93
648.567	10.87
648.98	10.79
649.393	10.74
649.805	10.69
650.218	10.64
650.631	10.6
651.043	10.54
651.456	10.51
651.868	10.46
652.28	10.41
652.693	10.36
653.105	10.31
653.517	10.27
653.929	10.21
654.341	10.14
654.753	10.07
655.165	10
655.577	9.93
655.989	9.85
656.401	9.76
656.813	9.67
657.224	9.56
657.636	9.45
658.047	9.34
658.459	9.23
658.87	9.12
659.282	8.99
659.693	8.87
660.104	8.73
660.515	8.61
660.926	8.49
661.338	8.36
661.749	8.24
662.159	8.12
662.57	8
662.981	7.88
663.392	7.77
663.803	7.66
664.213	7.56
664.624	7.46
665.035	7.36
665.445	7.27
665.855	7.18
666.266	7.11
666.676	7.04
667.086	6.97
667.497	6.91
667.907	6.85
668.317	6.8
668.727	6.75
669.137	6.71
669.547	6.67
669.956	6.64
670.366	6.61
670.776	6.58
671.186	6.56
671.595	6.54
672.005	6.52
672.414	6.51
672.824	6.5
673.233	6.51
673.642	6.52
674.052	6.52
674.461	6.54
674.87	6.56
675.279	6.59
675.688	6.63
676.097	6.66
676.506	6.7
676.915	6.75
677.323	6.8
677.732	6.86
678.141	6.94
678.549	7.02
678.958	7.11
679.366	7.22
679.775	7.33
680.183	7.46
680.592	7.62
681	7.81
681.408	8
681.816	8.22
682.224	8.45
682.632	8.7
683.04	8.99
683.448	9.29
683.856	9.62
684.264	9.96
684.671	10.34
685.079	10.74
685.487	11.16
685.894	11.61
686.302	12.09
686.709	12.57
687.116	13.1
687.524	13.63
687.931	14.18
688.338	14.75
688.745	15.35
689.152	15.94
689.559	16.54
689.966	17.14
690.373	17.74
690.78	18.34
691.187	18.95
691.593	19.54
692	20.15
692.407	20.72
692.813	21.31
693.22	21.85
693.626	22.42
694.032	22.97
694.439	23.53
694.845	24.06
695.251	24.59
695.657	25.1
696.063	25.61
696.469	26.09
696.875	26.57
697.281	27.03
697.687	27.48
698.093	27.91
698.498	28.32
698.904	28.73
699.31	29.11
699.715	29.47
700.12	29.84
700.526	30.18
700.931	30.53
701.337	30.87
701.742	31.18
702.147	31.5
702.552	31.81
702.957	32.09
703.362	32.36
703.767	32.63
704.172	32.91
704.577	33.15
704.981	33.42
705.386	33.65
705.791	33.88
706.195	34.14
706.6	34.38
707.004	34.6
707.408	34.84
707.813	35.06
708.217	35.28
708.621	35.5
709.025	35.7
709.43	35.88
709.834	36.06
710.237	36.25
710.641	36.4
711.045	36.55
711.449	36.74
711.853	36.9
712.256	37.04
712.66	37.21
713.064	37.36
713.467	37.51
713.87	37.65
714.274	37.8
714.677	37.94
715.08	38.06
715.484	38.22
715.887	38.35
716.29	38.44
716.693	38.58
717.096	38.69
717.499	38.8
717.901	38.92
718.304	39.04
718.707	39.17
719.109	39.29
719.512	39.4
719.915	39.5
720.317	39.59
720.719	39.69
721.122	39.8
721.524	39.9
721.926	39.99
722.328	40.09
722.731	40.17
723.133	40.24
723.535	40.32
723.937	40.41
724.338	40.47
724.74	40.52
725.142	40.63
725.544	40.67
725.945	40.72
726.347	40.78
726.748	40.81
727.15	40.86
727.551	40.9
727.952	40.92
728.354	40.98
728.755	41.02
729.156	41.08
729.557	41.1
729.958	41.13
730.359	41.18
730.76	41.23
731.161	41.26
731.562	41.31
731.962	41.35
732.363	41.39
732.763	41.42
733.164	41.44
733.564	41.45
733.965	41.49
734.365	41.55
734.766	41.58
735.166	41.6
735.566	41.63
735.966	41.65
736.366	41.67
736.766	41.69
737.166	41.71
737.566	41.73
737.966	41.76
738.365	41.78
738.765	41.77
739.165	41.78
739.564	41.79
739.964	41.8
740.363	41.81
740.763	41.84
741.162	41.85
741.561	41.86
741.96	41.88
742.36	41.89
742.759	41.89
743.158	41.91
743.557	41.91
743.955	41.93
744.354	41.93
744.753	41.96
745.152	41.97
745.55	42.01
745.949	42.03
746.348	42.07
746.746	42.07
747.144	42.11
747.543	42.11
747.941	42.13
748.339	42.12
748.737	42.15
749.136	42.16
749.534	42.14
749.932	42.12
750.33	42.12
750.727	42.11
751.125	42.11
751.523	42.1
751.921	42.08
752.318	42.08
752.716	42.1
753.113	42.09
753.511	42.09
753.908	42.12
754.305	42.12
754.703	42.11
755.1	42.11
755.497	42.09
755.894	42.08
756.291	42.08
756.688	42.04
757.085	42.02
757.482	41.99
757.878	41.99
758.275	41.95
758.672	41.95
759.068	41.96
759.465	41.92
759.861	41.92
760.258	41.9
760.654	41.9
761.05	41.91
761.447	41.91
761.843	41.92
762.239	41.88
762.635	41.86
763.031	41.86
763.427	41.82
763.822	41.86
764.218	41.86
764.614	41.87
765.01	41.87
765.405	41.89
765.801	41.9
766.196	41.91
766.592	41.94
766.987	41.95
767.382	41.95
767.778	41.98
768.173	41.98
768.568	41.96
768.963	41.96
769.358	41.97
769.753	41.97
770.148	41.96
770.542	41.96
770.937	41.95
771.332	41.94
771.726	41.96
772.121	41.95
772.515	41.95
772.91	41.96
773.304	41.98
773.699	41.95
774.093	41.96
774.487	41.96
774.881	41.96
775.275	41.95
775.669	41.95
776.063	41.92
776.457	41.94
776.851	41.93
777.245	41.92
777.638	41.92
778.032	41.93
778.425	41.95
778.819	41.95
779.212	41.97
779.606	42
779.999	42.01
780.392	42.04
780.786	42
