Data from C_3_HIR_WI_4N_Splice17_14-05-46-927.txt Node
Date: Sat Mar 07 14:05:46 EST 2020
User: sa697716
Spectrometer: NQ5500242
Trigger mode: 0
Integration Time (sec): 1.450000E-1
Scans to average: 20
Nonlinearity correction enabled: false
Boxcar width: 5
Storing dark spectrum: false
XAxis mode: Wavelengths
Number of Pixels in Spectrum: 512
>>>>>Begin Spectral Data<<<<<
187.83	161.98
188.298	189.71
188.766	175.77
189.233	148.84
189.701	155.79
190.169	175.7
190.636	198.46
191.104	319.93
191.571	369.17
192.039	69.34
192.506	-459.17
192.974	234.25
193.441	423.51
193.908	174.79
194.375	126.01
194.842	100.98
195.31	123.52
195.777	141.04
196.244	42.73
196.711	49.35
197.177	50.37
197.644	50.5
198.111	50.1
198.578	50.66
199.045	51.23
199.511	51.21
199.978	51.5
200.445	51.76
200.911	51.7
201.378	51.88
201.844	51.87
202.31	51.52
202.777	51.66
203.243	52
203.709	51.57
204.176	51.15
204.642	50.84
205.108	50.57
205.574	50.4
206.04	49.93
206.506	49.51
206.972	49.22
207.438	48.67
207.903	47.89
208.369	46.47
208.835	45.53
209.301	44.84
209.766	43.63
210.232	42.53
210.697	41.11
211.163	39.91
211.628	38.94
212.094	37.6
212.559	36.89
213.024	35.85
213.49	35.26
213.955	34.25
214.42	33.28
214.885	32.26
215.35	30.86
215.815	29.18
216.28	27.09
216.745	24.71
217.21	22.36
217.675	20.08
218.14	18.17
218.604	16.43
219.069	15.06
219.534	13.89
219.998	12.9
220.463	12.06
220.927	11.28
221.392	10.79
221.856	10.3
222.32	9.9
222.785	9.58
223.249	9.25
223.713	8.98
224.177	8.76
224.642	8.51
225.106	8.28
225.57	8.08
226.034	7.93
226.497	7.73
226.961	7.57
227.425	7.41
227.889	7.25
228.353	7.12
228.816	6.97
229.28	6.82
229.744	6.71
230.207	6.61
230.671	6.5
231.134	6.4
231.597	6.32
232.061	6.22
232.524	6.13
232.987	6.04
233.45	5.96
233.914	5.9
234.377	5.82
234.84	5.75
235.303	5.67
235.766	5.62
236.229	5.55
236.691	5.49
237.154	5.43
237.617	5.39
238.08	5.33
238.542	5.27
239.005	5.23
239.468	5.18
239.93	5.13
240.393	5.09
240.855	5.02
241.317	4.97
241.78	4.92
242.242	4.86
242.704	4.81
243.166	4.76
243.629	4.72
244.091	4.66
244.553	4.61
245.015	4.56
245.477	4.51
245.939	4.47
246.4	4.43
246.862	4.38
247.324	4.35
247.786	4.3
248.247	4.26
248.709	4.22
249.17	4.18
249.632	4.16
250.093	4.12
250.555	4.09
251.016	4.06
251.477	4.03
251.939	4
252.4	3.97
252.861	3.95
253.322	3.92
253.783	3.89
254.244	3.87
254.705	3.84
255.166	3.82
255.627	3.79
256.088	3.76
256.549	3.75
257.009	3.72
257.47	3.7
257.931	3.66
258.391	3.62
258.852	3.59
259.312	3.57
259.773	3.54
260.233	3.51
260.694	3.49
261.154	3.46
261.614	3.43
262.074	3.4
262.534	3.37
262.994	3.36
263.455	3.34
263.915	3.33
264.374	3.31
264.834	3.29
265.294	3.27
265.754	3.26
266.214	3.25
266.673	3.23
267.133	3.22
267.593	3.21
268.052	3.2
268.512	3.19
268.971	3.18
269.431	3.17
269.89	3.16
270.349	3.15
270.809	3.13
271.268	3.13
271.727	3.11
272.186	3.1
272.645	3.09
273.104	3.09
273.563	3.08
274.022	3.07
274.481	3.07
274.94	3.07
275.399	3.06
275.857	3.05
276.316	3.05
276.775	3.05
277.233	3.05
277.692	3.05
278.15	3.04
278.609	3.03
279.067	3.03
279.525	3.03
279.984	3.02
280.442	3.02
280.9	3.02
281.358	3.01
281.816	3.01
282.274	3
282.732	2.99
283.19	2.99
283.648	2.98
284.106	2.98
284.564	2.97
285.021	2.97
285.479	2.97
285.937	2.96
286.394	2.96
286.852	2.95
287.309	2.95
287.767	2.95
288.224	2.93
288.682	2.93
289.139	2.91
289.596	2.9
290.053	2.88
290.511	2.86
290.968	2.85
291.425	2.83
291.882	2.82
292.339	2.8
292.796	2.78
293.252	2.78
293.709	2.77
294.166	2.76
294.623	2.75
295.079	2.75
295.536	2.74
295.992	2.74
296.449	2.74
296.905	2.73
297.362	2.73
297.818	2.71
298.274	2.71
298.731	2.71
299.187	2.7
299.643	2.69
300.099	2.68
300.555	2.67
301.011	2.67
301.467	2.66
301.923	2.65
302.379	2.65
302.835	2.66
303.291	2.65
303.746	2.65
304.202	2.65
304.658	2.65
305.113	2.65
305.569	2.65
306.024	2.65
306.479	2.65
306.935	2.64
307.39	2.65
307.845	2.65
308.301	2.65
308.756	2.64
309.211	2.64
309.666	2.66
310.121	2.66
310.576	2.66
311.031	2.66
311.486	2.67
311.94	2.67
312.395	2.68
312.85	2.68
313.305	2.68
313.759	2.68
314.214	2.68
314.668	2.67
315.123	2.67
315.577	2.67
316.032	2.66
316.486	2.66
316.94	2.66
317.394	2.64
317.849	2.63
318.303	2.62
318.757	2.61
319.211	2.6
319.665	2.58
320.119	2.57
320.572	2.56
321.026	2.55
321.48	2.53
321.934	2.52
322.387	2.51
322.841	2.5
323.295	2.5
323.748	2.5
324.202	2.5
324.655	2.5
325.108	2.5
325.562	2.51
326.015	2.51
326.468	2.51
326.921	2.52
327.374	2.52
327.827	2.52
328.28	2.53
328.733	2.52
329.186	2.52
329.639	2.53
330.092	2.53
330.545	2.52
330.997	2.52
331.45	2.52
331.903	2.53
332.355	2.54
332.808	2.54
333.26	2.54
333.713	2.54
334.165	2.54
334.617	2.54
335.069	2.54
335.522	2.54
335.974	2.55
336.426	2.54
336.878	2.53
337.33	2.53
337.782	2.54
338.234	2.54
338.686	2.54
339.137	2.55
339.589	2.54
340.041	2.53
340.493	2.52
340.944	2.5
341.396	2.5
341.847	2.49
342.299	2.48
342.75	2.45
343.201	2.44
343.653	2.43
344.104	2.41
344.555	2.4
345.006	2.39
345.457	2.39
345.908	2.38
346.359	2.37
346.81	2.37
347.261	2.37
347.712	2.37
348.163	2.36
348.613	2.37
349.064	2.37
349.515	2.37
349.965	2.37
350.416	2.37
350.866	2.36
351.317	2.36
351.767	2.35
352.217	2.35
352.668	2.35
353.118	2.35
353.568	2.35
354.018	2.35
354.468	2.36
354.918	2.36
355.368	2.37
355.818	2.37
356.268	2.38
356.718	2.39
357.168	2.38
357.617	2.38
358.067	2.38
358.517	2.39
358.966	2.39
359.416	2.4
359.865	2.39
360.315	2.4
360.764	2.4
361.213	2.4
361.663	2.39
362.112	2.4
362.561	2.41
363.01	2.42
363.459	2.41
363.908	2.41
364.357	2.42
364.806	2.41
365.255	2.42
365.703	2.43
366.152	2.44
366.601	2.46
367.05	2.46
367.498	2.47
367.947	2.48
368.395	2.5
368.844	2.51
369.292	2.52
369.74	2.54
370.189	2.56
370.637	2.57
371.085	2.58
371.533	2.6
371.981	2.61
372.429	2.62
372.877	2.64
373.325	2.65
373.773	2.67
374.221	2.68
374.669	2.7
375.116	2.7
375.564	2.73
376.012	2.75
376.459	2.77
376.907	2.79
377.354	2.82
377.801	2.84
378.249	2.87
378.696	2.88
379.143	2.9
379.591	2.93
380.038	2.96
380.485	2.98
380.932	3
381.379	3.01
381.826	3.03
382.273	3.05
382.72	3.06
383.166	3.08
383.613	3.1
384.06	3.12
384.506	3.14
384.953	3.16
385.4	3.19
385.846	3.22
386.292	3.25
386.739	3.28
387.185	3.3
387.631	3.34
388.078	3.37
388.524	3.4
388.97	3.43
389.416	3.46
389.862	3.49
390.308	3.53
390.754	3.56
391.2	3.59
391.645	3.63
392.091	3.66
392.537	3.7
392.983	3.73
393.428	3.77
393.874	3.8
394.319	3.83
394.765	3.84
395.21	3.86
395.655	3.87
396.101	3.9
396.546	3.92
396.991	3.94
397.436	3.95
397.881	3.98
398.326	4.01
398.771	4.04
399.216	4.06
399.661	4.09
400.106	4.12
400.551	4.14
400.995	4.15
401.44	4.16
401.885	4.17
402.329	4.19
402.774	4.2
403.218	4.21
403.663	4.23
404.107	4.24
404.551	4.24
404.995	4.26
405.44	4.27
405.884	4.28
406.328	4.29
406.772	4.3
407.216	4.32
407.66	4.32
408.104	4.32
408.547	4.33
408.991	4.33
409.435	4.34
409.879	4.35
410.322	4.37
410.766	4.39
411.209	4.4
411.653	4.43
412.096	4.44
412.54	4.46
412.983	4.46
413.426	4.49
413.869	4.5
414.312	4.52
414.756	4.55
415.199	4.54
415.642	4.54
416.085	4.56
416.527	4.56
416.97	4.56
417.413	4.56
417.856	4.56
418.298	4.55
418.741	4.54
419.184	4.54
419.626	4.53
420.069	4.54
420.511	4.53
420.953	4.52
421.396	4.52
421.838	4.52
422.28	4.53
422.722	4.55
423.164	4.55
423.606	4.56
424.048	4.57
424.49	4.57
424.932	4.57
425.374	4.56
425.816	4.54
426.258	4.53
426.699	4.52
427.141	4.51
427.582	4.51
428.024	4.51
428.465	4.51
428.907	4.5
429.348	4.5
429.789	4.5
430.231	4.52
430.672	4.54
431.113	4.56
431.554	4.58
431.995	4.59
432.436	4.59
432.877	4.6
433.318	4.61
433.759	4.61
434.2	4.64
434.64	4.65
435.081	4.66
435.522	4.67
435.962	4.68
436.403	4.72
436.843	4.75
437.284	4.75
437.724	4.76
438.164	4.77
438.604	4.79
439.045	4.79
439.485	4.8
439.925	4.8
440.365	4.81
440.805	4.82
441.245	4.81
441.685	4.82
442.125	4.85
442.564	4.86
443.004	4.87
443.444	4.89
443.883	4.91
444.323	4.92
444.762	4.96
445.202	4.98
445.641	5
446.081	5.04
446.52	5.05
446.959	5.09
447.398	5.12
447.837	5.15
448.276	5.17
448.716	5.2
449.154	5.24
449.593	5.25
450.032	5.26
450.471	5.26
450.91	5.26
451.349	5.27
451.787	5.27
452.226	5.26
452.664	5.27
453.103	5.25
453.541	5.24
453.98	5.24
454.418	5.23
454.856	5.23
455.295	5.23
455.733	5.2
456.171	5.19
456.609	5.18
457.047	5.16
457.485	5.14
457.923	5.14
458.361	5.12
458.798	5.1
459.236	5.09
459.674	5.1
460.111	5.09
460.549	5.1
460.987	5.1
461.424	5.1
461.862	5.11
462.299	5.13
462.736	5.11
463.173	5.12
463.611	5.12
464.048	5.13
464.485	5.12
464.922	5.13
465.359	5.13
465.796	5.13
466.233	5.13
466.67	5.13
467.106	5.14
467.543	5.13
467.98	5.12
468.416	5.13
468.853	5.13
469.29	5.14
469.726	5.14
470.162	5.14
470.599	5.14
471.035	5.13
471.471	5.14
471.907	5.13
472.344	5.14
472.78	5.16
473.216	5.16
473.652	5.16
474.088	5.15
474.523	5.15
474.959	5.16
475.395	5.15
475.831	5.14
476.266	5.14
476.702	5.14
477.138	5.14
477.573	5.13
478.008	5.12
478.444	5.1
478.879	5.1
479.314	5.11
479.75	5.1
480.185	5.09
480.62	5.08
481.055	5.07
481.49	5.07
481.925	5.06
482.36	5.06
482.795	5.05
483.229	5.05
483.664	5.06
484.099	5.05
484.534	5.04
484.968	5.05
485.403	5.07
485.837	5.09
486.271	5.11
486.706	5.12
487.14	5.14
487.574	5.17
488.009	5.19
488.443	5.21
488.877	5.24
489.311	5.28
489.745	5.32
490.179	5.35
490.613	5.38
491.046	5.42
491.48	5.46
491.914	5.5
492.348	5.55
492.781	5.61
493.215	5.66
493.648	5.71
494.082	5.76
494.515	5.81
494.948	5.87
495.382	5.92
495.815	5.99
496.248	6.06
496.681	6.14
497.114	6.22
497.547	6.3
497.98	6.39
498.413	6.48
498.846	6.57
499.279	6.68
499.711	6.78
500.144	6.9
500.577	7.02
501.009	7.14
501.442	7.26
501.874	7.38
502.306	7.52
502.739	7.66
503.171	7.8
503.603	7.95
504.036	8.09
504.468	8.24
504.9	8.39
505.332	8.55
505.764	8.71
506.196	8.89
506.627	9.06
507.059	9.24
507.491	9.42
507.923	9.61
508.354	9.8
508.786	10
509.217	10.22
509.649	10.44
510.08	10.65
510.512	10.88
510.943	11.1
511.374	11.33
511.805	11.56
512.237	11.79
512.668	12.03
513.099	12.27
513.53	12.51
513.961	12.75
514.391	13
514.822	13.25
515.253	13.49
515.684	13.75
516.114	13.99
516.545	14.25
516.975	14.51
517.406	14.76
517.836	15.01
518.267	15.28
518.697	15.52
519.127	15.76
519.558	16.01
519.988	16.25
520.418	16.48
520.848	16.71
521.278	16.94
521.708	17.3
522.138	17.52
522.567	17.73
522.997	17.94
523.427	18.15
523.857	18.35
524.286	18.53
524.716	18.71
525.145	18.9
525.575	19.08
526.004	19.27
526.433	19.29
526.863	19.45
527.292	19.6
527.721	19.75
528.15	19.88
528.579	20.03
529.008	20.16
529.437	20.27
529.866	20.38
530.295	20.49
530.724	20.59
531.152	20.7
531.581	20.8
532.01	20.9
532.438	21
532.867	21.08
533.295	21.15
533.723	21.23
534.152	21.32
534.58	21.39
535.008	21.45
535.436	21.51
535.865	21.54
536.293	21.59
536.721	21.61
537.149	21.65
537.576	21.67
538.004	21.7
538.432	21.73
538.86	21.76
539.287	21.78
539.715	21.82
540.143	21.84
540.57	21.88
540.998	21.88
541.425	21.91
541.852	21.93
542.28	21.98
542.707	22.01
543.134	22.01
543.561	22.04
543.988	22.06
544.415	22.06
544.842	22.09
545.269	22.11
545.696	22.15
546.123	22.17
546.549	22.21
546.976	22.21
547.403	22.24
547.829	22.26
548.256	22.28
548.682	22.3
549.108	22.33
549.535	22.35
549.961	22.36
550.387	22.37
550.813	22.36
551.24	22.35
551.666	22.35
552.092	22.34
552.518	22.34
552.943	22.32
553.369	22.34
553.795	22.31
554.221	22.29
554.646	22.25
555.072	22.22
555.498	22.2
555.923	22.17
556.349	22.14
556.774	22.09
557.199	22.05
557.625	22.01
558.05	21.93
558.475	21.88
558.9	21.83
559.325	21.78
559.75	21.73
560.175	21.66
560.6	21.59
561.025	21.51
561.449	21.43
561.874	21.34
562.299	21.26
562.723	21.16
563.148	21.06
563.572	20.93
563.997	20.83
564.421	20.69
564.846	20.56
565.27	20.44
565.694	20.32
566.118	20.19
566.542	20.05
566.966	19.92
567.39	19.79
567.814	19.65
568.238	19.52
568.662	19.39
569.086	19.26
569.509	19.15
569.933	19.04
570.357	18.91
570.78	18.8
571.204	18.68
571.627	18.55
572.05	18.44
572.474	18.34
572.897	18.24
573.32	18.13
573.743	18.02
574.166	17.91
574.589	17.81
575.012	17.71
575.435	17.61
575.858	17.52
576.281	17.44
576.704	17.35
577.126	17.25
577.549	17.17
577.972	17.09
578.394	17.02
578.817	16.94
579.239	16.88
579.661	16.81
580.084	16.74
580.506	16.67
580.928	16.58
581.35	16.51
581.772	16.45
582.194	16.38
582.616	16.31
583.038	16.25
583.46	16.19
583.882	16.11
584.303	16.05
584.725	15.98
585.147	15.94
585.568	15.89
585.99	15.84
586.411	15.78
586.833	15.73
587.254	15.69
587.675	15.63
588.096	15.58
588.518	15.54
588.939	15.5
589.36	15.45
589.781	15.41
590.202	15.38
590.623	15.34
591.043	15.32
591.464	15.29
591.885	15.25
592.305	15.22
592.726	15.21
593.147	15.18
593.567	15.15
593.987	15.12
594.408	15.08
594.828	15.06
595.248	15.04
595.669	15.01
596.089	14.99
596.509	14.96
596.929	14.93
597.349	14.9
597.769	14.87
598.189	14.83
598.608	14.81
599.028	14.78
599.448	14.75
599.867	14.71
600.287	14.67
600.706	14.62
601.126	14.58
601.545	14.54
601.965	14.49
602.384	14.44
602.803	14.39
603.222	14.33
603.641	14.29
604.061	14.23
604.48	14.17
604.898	14.09
605.317	14.03
605.736	13.96
606.155	13.89
606.574	13.83
606.992	13.76
607.411	13.71
607.829	13.61
608.248	13.54
608.666	13.47
609.085	13.41
609.503	13.36
609.921	13.3
610.339	13.24
610.758	13.19
611.176	13.12
611.594	13.05
612.012	12.97
612.43	12.92
612.847	12.85
613.265	12.78
613.683	12.72
614.101	12.65
614.518	12.58
614.936	12.51
615.353	12.44
615.771	12.39
616.188	12.34
616.606	12.3
617.023	12.24
617.44	12.19
617.857	12.15
618.274	12.1
618.691	12.04
619.108	12.01
619.525	11.97
619.942	11.94
620.359	11.9
620.776	11.86
621.192	11.83
621.609	11.82
622.026	11.79
622.442	11.76
622.859	11.74
623.275	11.72
623.691	11.7
624.108	11.67
624.524	11.65
624.94	11.62
625.356	11.62
625.772	11.6
626.188	11.58
626.604	11.57
627.02	11.57
627.436	11.55
627.852	11.54
628.268	11.53
628.683	11.52
629.099	11.51
629.514	11.5
629.93	11.48
630.345	11.45
630.761	11.42
631.176	11.39
631.591	11.35
632.007	11.32
632.422	11.29
632.837	11.24
633.252	11.17
633.667	11.12
634.082	11.05
634.497	10.99
634.911	10.93
635.326	10.85
635.741	10.77
636.155	10.69
636.57	10.61
636.984	10.52
637.399	10.42
637.813	10.34
638.228	10.24
638.642	10.13
639.056	10.02
639.47	9.92
639.884	9.81
640.298	9.7
640.712	9.59
641.126	9.47
641.54	9.36
641.954	9.26
642.368	9.16
642.781	9.05
643.195	8.95
643.609	8.85
644.022	8.76
644.436	8.67
644.849	8.58
645.262	8.49
645.676	8.41
646.089	8.33
646.502	8.26
646.915	8.19
647.328	8.13
647.741	8.06
648.154	8
648.567	7.94
648.98	7.88
649.393	7.83
649.805	7.79
650.218	7.74
650.631	7.7
651.043	7.66
651.456	7.62
651.868	7.57
652.28	7.53
652.693	7.5
653.105	7.46
653.517	7.41
653.929	7.36
654.341	7.31
654.753	7.25
655.165	7.2
655.577	7.13
655.989	7.06
656.401	7
656.813	6.93
657.224	6.84
657.636	6.75
658.047	6.68
658.459	6.6
658.87	6.52
659.282	6.43
659.693	6.34
660.104	6.24
660.515	6.15
660.926	6.06
661.338	5.97
661.749	5.9
662.159	5.83
662.57	5.75
662.981	5.68
663.392	5.6
663.803	5.54
664.213	5.47
664.624	5.42
665.035	5.37
665.445	5.32
665.855	5.28
666.266	5.25
666.676	5.21
667.086	5.17
667.497	5.14
667.907	5.11
668.317	5.09
668.727	5.08
669.137	5.06
669.547	5.05
669.956	5.03
670.366	5.02
670.776	5
671.186	5
671.595	4.99
672.005	4.99
672.414	5
672.824	5
673.233	5
673.642	5.02
674.052	5.03
674.461	5.04
674.87	5.07
675.279	5.09
675.688	5.11
676.097	5.14
676.506	5.18
676.915	5.21
677.323	5.24
677.732	5.28
678.141	5.32
678.549	5.37
678.958	5.42
679.366	5.48
679.775	5.54
680.183	5.61
680.592	5.7
681	5.78
681.408	5.88
681.816	5.99
682.224	6.11
682.632	6.24
683.04	6.38
683.448	6.54
683.856	6.71
684.264	6.9
684.671	7.11
685.079	7.32
685.487	7.57
685.894	7.84
686.302	8.12
686.709	8.42
687.116	8.73
687.524	9.06
687.931	9.42
688.338	9.8
688.745	10.2
689.152	10.6
689.559	11.04
689.966	11.48
690.373	11.91
690.78	12.38
691.187	12.84
691.593	13.33
692	13.83
692.407	14.3
692.813	14.8
693.22	15.29
693.626	15.79
694.032	16.27
694.439	16.76
694.845	17.27
695.251	17.76
695.657	18.25
696.063	18.72
696.469	19.18
696.875	19.66
697.281	20.13
697.687	20.59
698.093	21.04
698.498	21.47
698.904	21.91
699.31	22.31
699.715	22.72
700.12	23.13
700.526	23.53
700.931	23.94
701.337	24.34
701.742	24.72
702.147	25.09
702.552	25.46
702.957	25.81
703.362	26.15
703.767	26.5
704.172	26.84
704.577	27.16
704.981	27.49
705.386	27.79
705.791	28.09
706.195	28.4
706.6	28.71
707.004	29
707.408	29.31
707.813	29.61
708.217	29.89
708.621	30.17
709.025	30.43
709.43	30.71
709.834	30.96
710.237	31.2
710.641	31.43
711.045	31.64
711.449	31.89
711.853	32.12
712.256	32.33
712.66	32.54
713.064	32.75
713.467	32.96
713.87	33.15
714.274	33.36
714.677	33.57
715.08	33.78
715.484	33.97
715.887	34.16
716.29	34.31
716.693	34.52
717.096	34.71
717.499	34.9
717.901	35.07
718.304	35.26
718.707	35.44
719.109	35.62
719.512	35.77
719.915	35.92
720.317	36.05
720.719	36.16
721.122	36.27
721.524	36.4
721.926	36.53
722.328	36.67
722.731	36.78
723.133	36.9
723.535	37
723.937	37.12
724.338	37.25
724.74	37.4
725.142	37.59
725.544	37.71
725.945	37.83
726.347	37.9
726.748	37.98
727.15	38.07
727.551	38.15
727.952	38.22
728.354	38.31
728.755	38.37
729.156	38.4
729.557	38.41
729.958	38.47
730.359	38.52
730.76	38.61
731.161	38.66
731.562	38.73
731.962	38.78
732.363	38.84
732.763	38.89
733.164	38.94
733.564	39.02
733.965	39.07
734.365	39.12
734.766	39.15
735.166	39.2
735.566	39.24
735.966	39.29
736.366	39.34
736.766	39.37
737.166	39.41
737.566	39.46
737.966	39.48
738.365	39.52
738.765	39.55
739.165	39.59
739.564	39.62
739.964	39.65
740.363	39.67
740.763	39.71
741.162	39.72
741.561	39.74
741.96	39.74
742.36	39.76
742.759	39.8
743.158	39.83
743.557	39.82
743.955	39.84
744.354	39.84
744.753	39.87
745.152	39.9
745.55	39.93
745.949	39.97
746.348	40.03
746.746	40.05
747.144	40.07
747.543	40.08
747.941	40.11
748.339	40.12
748.737	40.15
749.136	40.13
749.534	40.1
749.932	40.13
750.33	40.12
750.727	40.11
751.125	40.1
751.523	40.08
751.921	40.08
752.318	40.11
752.716	40.12
753.113	40.11
753.511	40.12
753.908	40.12
754.305	40.12
754.703	40.11
755.1	40.11
755.497	40.12
755.894	40.1
756.291	40.08
756.688	40.05
757.085	40.03
757.482	40
757.878	40.01
758.275	40
758.672	39.98
759.068	39.99
759.465	39.98
759.861	40
760.258	40.01
760.654	40.02
761.05	40.04
761.447	40.05
761.843	40.07
762.239	40.07
762.635	40.06
763.031	40.08
763.427	40.08
763.822	40.06
764.218	40.07
764.614	40.07
765.01	40.07
765.405	40.07
765.801	40.05
766.196	40.06
766.592	40.05
766.987	40.07
767.382	40.03
767.778	40.04
768.173	40.05
768.568	40.03
768.963	40.05
769.358	40.06
769.753	40.05
770.148	40.06
770.542	40.06
770.937	40.06
771.332	40.07
771.726	40.11
772.121	40.1
772.515	40.09
772.91	40.1
773.304	40.11
773.699	40.11
774.093	40.12
774.487	40.12
774.881	40.14
775.275	40.14
775.669	40.14
776.063	40.11
776.457	40.13
776.851	40.12
777.245	40.09
777.638	40.09
778.032	40.11
778.425	40.15
778.819	40.16
779.212	40.16
779.606	40.18
779.999	40.17
780.392	40.2
780.786	40.2
781.179	40.22
781.572	40.27
781.965	40.28
782.358	40.29
782.751	40.26
783.143	40.28
