Data from C_3_DIV_OH_2N_Splice17_13-47-46-337.txt Node
Date: Sat Mar 07 13:47:46 EST 2020
User: sa697716
Spectrometer: NQ5500242
Trigger mode: 0
Integration Time (sec): 1.450000E-1
Scans to average: 20
Nonlinearity correction enabled: false
Boxcar width: 5
Storing dark spectrum: false
XAxis mode: Wavelengths
Number of Pixels in Spectrum: 512
>>>>>Begin Spectral Data<<<<<
187.83	244.44
188.298	263.07
188.766	257.94
189.233	202.77
189.701	202.5
190.169	240.31
190.636	298.73
191.104	419.9
191.571	314.5
192.039	-54.72
192.506	-407.82
192.974	-2.52
193.441	40.84
193.908	72.79
194.375	22.85
194.842	-12.3
195.31	56.74
195.777	398.08
196.244	52.4
196.711	37.05
197.177	37.37
197.644	34.89
198.111	35.05
198.578	35.36
199.045	35.74
199.511	36.2
199.978	35.88
200.445	35.8
200.911	35.4
201.378	35.09
201.844	34.99
202.31	34.64
202.777	34.91
203.243	34.84
203.709	34.58
204.176	34.05
204.642	33.69
205.108	33.81
205.574	33.23
206.04	32.67
206.506	32.57
206.972	32.63
207.438	32.47
207.903	31.99
208.369	31.12
208.835	30.47
209.301	30.13
209.766	28.84
210.232	27.96
210.697	27.13
211.163	26.51
211.628	25.81
212.094	25.07
212.559	24.52
213.024	23.93
213.49	23.73
213.955	23.1
214.42	22.35
214.885	21.97
215.35	21.18
215.815	20.57
216.28	19.39
216.745	17.84
217.21	16.43
217.675	15.11
218.14	14.05
218.604	12.96
219.069	12.17
219.534	11.56
219.998	11.02
220.463	10.54
220.927	10.05
221.392	9.7
221.856	9.49
222.32	9.25
222.785	9.09
223.249	8.9
223.713	8.78
224.177	8.67
224.642	8.52
225.106	8.37
225.57	8.24
226.034	8.19
226.497	8.11
226.961	8.02
227.425	7.94
227.889	7.83
228.353	7.74
228.816	7.64
229.28	7.55
229.744	7.47
230.207	7.4
230.671	7.33
231.134	7.24
231.597	7.19
232.061	7.12
232.524	7.04
232.987	6.98
233.45	6.93
233.914	6.88
234.377	6.81
234.84	6.75
235.303	6.7
235.766	6.66
236.229	6.6
236.691	6.53
237.154	6.48
237.617	6.44
238.08	6.38
238.542	6.33
239.005	6.28
239.468	6.23
239.93	6.2
240.393	6.15
240.855	6.09
241.317	6.03
241.78	5.98
242.242	5.94
242.704	5.91
243.166	5.86
243.629	5.83
244.091	5.79
244.553	5.74
245.015	5.69
245.477	5.65
245.939	5.61
246.4	5.58
246.862	5.54
247.324	5.5
247.786	5.46
248.247	5.42
248.709	5.37
249.17	5.32
249.632	5.3
250.093	5.28
250.555	5.25
251.016	5.22
251.477	5.19
251.939	5.16
252.4	5.13
252.861	5.11
253.322	5.09
253.783	5.06
254.244	5.04
254.705	5.01
255.166	4.96
255.627	4.94
256.088	4.93
256.549	4.9
257.009	4.87
257.47	4.84
257.931	4.8
258.391	4.76
258.852	4.74
259.312	4.71
259.773	4.68
260.233	4.66
260.694	4.63
261.154	4.6
261.614	4.59
262.074	4.57
262.534	4.55
262.994	4.53
263.455	4.52
263.915	4.5
264.374	4.5
264.834	4.49
265.294	4.47
265.754	4.46
266.214	4.45
266.673	4.44
267.133	4.43
267.593	4.42
268.052	4.42
268.512	4.42
268.971	4.42
269.431	4.41
269.89	4.4
270.349	4.4
270.809	4.39
271.268	4.39
271.727	4.38
272.186	4.37
272.645	4.37
273.104	4.36
273.563	4.35
274.022	4.33
274.481	4.33
274.94	4.33
275.399	4.31
275.857	4.3
276.316	4.29
276.775	4.29
277.233	4.28
277.692	4.28
278.15	4.27
278.609	4.27
279.067	4.27
279.525	4.26
279.984	4.25
280.442	4.25
280.9	4.25
281.358	4.24
281.816	4.25
282.274	4.24
282.732	4.23
283.19	4.22
283.648	4.2
284.106	4.19
284.564	4.18
285.021	4.18
285.479	4.17
285.937	4.15
286.394	4.13
286.852	4.12
287.309	4.1
287.767	4.09
288.224	4.08
288.682	4.07
289.139	4.06
289.596	4.05
290.053	4.03
290.511	4.02
290.968	4.02
291.425	4
291.882	3.99
292.339	3.98
292.796	3.98
293.252	3.97
293.709	3.97
294.166	3.96
294.623	3.95
295.079	3.94
295.536	3.94
295.992	3.93
296.449	3.93
296.905	3.92
297.362	3.92
297.818	3.91
298.274	3.91
298.731	3.9
299.187	3.89
299.643	3.88
300.099	3.88
300.555	3.87
301.011	3.87
301.467	3.87
301.923	3.86
302.379	3.86
302.835	3.85
303.291	3.85
303.746	3.85
304.202	3.85
304.658	3.85
305.113	3.84
305.569	3.84
306.024	3.84
306.479	3.82
306.935	3.82
307.39	3.81
307.845	3.81
308.301	3.81
308.756	3.81
309.211	3.8
309.666	3.79
310.121	3.79
310.576	3.79
311.031	3.79
311.486	3.78
311.94	3.78
312.395	3.78
312.85	3.78
313.305	3.77
313.759	3.78
314.214	3.78
314.668	3.78
315.123	3.78
315.577	3.77
316.032	3.76
316.486	3.76
316.94	3.76
317.394	3.75
317.849	3.74
318.303	3.73
318.757	3.71
319.211	3.7
319.665	3.68
320.119	3.67
320.572	3.67
321.026	3.66
321.48	3.66
321.934	3.64
322.387	3.63
322.841	3.63
323.295	3.64
323.748	3.64
324.202	3.63
324.655	3.63
325.108	3.64
325.562	3.64
326.015	3.64
326.468	3.63
326.921	3.64
327.374	3.63
327.827	3.63
328.28	3.63
328.733	3.63
329.186	3.62
329.639	3.62
330.092	3.61
330.545	3.6
330.997	3.6
331.45	3.62
331.903	3.63
332.355	3.64
332.808	3.63
333.26	3.63
333.713	3.62
334.165	3.62
334.617	3.62
335.069	3.61
335.522	3.61
335.974	3.61
336.426	3.59
336.878	3.58
337.33	3.57
337.782	3.56
338.234	3.57
338.686	3.57
339.137	3.58
339.589	3.57
340.041	3.57
340.493	3.57
340.944	3.56
341.396	3.55
341.847	3.55
342.299	3.54
342.75	3.53
343.201	3.51
343.653	3.5
344.104	3.48
344.555	3.46
345.006	3.46
345.457	3.45
345.908	3.45
346.359	3.46
346.81	3.45
347.261	3.45
347.712	3.45
348.163	3.45
348.613	3.46
349.064	3.47
349.515	3.47
349.965	3.47
350.416	3.46
350.866	3.46
351.317	3.46
351.767	3.47
352.217	3.47
352.668	3.47
353.118	3.48
353.568	3.47
354.018	3.48
354.468	3.48
354.918	3.49
355.368	3.5
355.818	3.5
356.268	3.5
356.718	3.51
357.168	3.51
357.617	3.51
358.067	3.51
358.517	3.53
358.966	3.53
359.416	3.54
359.865	3.54
360.315	3.56
360.764	3.57
361.213	3.58
361.663	3.59
362.112	3.61
362.561	3.62
363.01	3.64
363.459	3.63
363.908	3.64
364.357	3.67
364.806	3.68
365.255	3.7
365.703	3.72
366.152	3.75
366.601	3.77
367.05	3.78
367.498	3.81
367.947	3.83
368.395	3.86
368.844	3.9
369.292	3.92
369.74	3.96
370.189	3.99
370.637	4.01
371.085	4.03
371.533	4.06
371.981	4.1
372.429	4.14
372.877	4.18
373.325	4.21
373.773	4.25
374.221	4.28
374.669	4.32
375.116	4.35
375.564	4.4
376.012	4.45
376.459	4.5
376.907	4.55
377.354	4.59
377.801	4.66
378.249	4.72
378.696	4.78
379.143	4.83
379.591	4.89
380.038	4.96
380.485	5.02
380.932	5.08
381.379	5.14
381.826	5.21
382.273	5.27
382.72	5.31
383.166	5.37
383.613	5.42
384.06	5.48
384.506	5.54
384.953	5.59
385.4	5.65
385.846	5.72
386.292	5.78
386.739	5.83
387.185	5.87
387.631	5.94
388.078	6.01
388.524	6.08
388.97	6.14
389.416	6.21
389.862	6.29
390.308	6.35
390.754	6.41
391.2	6.47
391.645	6.54
392.091	6.63
392.537	6.7
392.983	6.74
393.428	6.81
393.874	6.87
394.319	6.92
394.765	6.96
395.21	7.01
395.655	7.06
396.101	7.11
396.546	7.16
396.991	7.19
397.436	7.23
397.881	7.28
398.326	7.32
398.771	7.37
399.216	7.4
399.661	7.44
400.106	7.46
400.551	7.48
400.995	7.49
401.44	7.52
401.885	7.53
402.329	7.55
402.774	7.56
403.218	7.59
403.663	7.6
404.107	7.62
404.551	7.63
404.995	7.65
405.44	7.65
405.884	7.66
406.328	7.66
406.772	7.67
407.216	7.67
407.66	7.66
408.104	7.64
408.547	7.63
408.991	7.64
409.435	7.63
409.879	7.62
410.322	7.63
410.766	7.64
411.209	7.66
411.653	7.67
412.096	7.68
412.54	7.7
412.983	7.72
413.426	7.76
413.869	7.76
414.312	7.8
414.756	7.82
415.199	7.82
415.642	7.82
416.085	7.81
416.527	7.8
416.97	7.76
417.413	7.76
417.856	7.76
418.298	7.72
418.741	7.71
419.184	7.69
419.626	7.67
420.069	7.69
420.511	7.69
420.953	7.69
421.396	7.71
421.838	7.71
422.28	7.72
422.722	7.71
423.164	7.72
423.606	7.71
424.048	7.71
424.49	7.69
424.932	7.64
425.374	7.57
425.816	7.52
426.258	7.48
426.699	7.46
427.141	7.45
427.582	7.43
428.024	7.41
428.465	7.41
428.907	7.38
429.348	7.37
429.789	7.39
430.231	7.44
430.672	7.48
431.113	7.51
431.554	7.52
431.995	7.52
432.436	7.55
432.877	7.58
433.318	7.59
433.759	7.62
434.2	7.64
434.64	7.65
435.081	7.65
435.522	7.67
435.962	7.67
436.403	7.7
436.843	7.71
437.284	7.7
437.724	7.7
438.164	7.71
438.604	7.74
439.045	7.77
439.485	7.81
439.925	7.84
440.365	7.86
440.805	7.9
441.245	7.94
441.685	7.97
442.125	8.03
442.564	8.06
443.004	8.11
443.444	8.15
443.883	8.2
444.323	8.23
444.762	8.27
445.202	8.31
445.641	8.37
446.081	8.44
446.52	8.49
446.959	8.55
447.398	8.61
447.837	8.67
448.276	8.71
448.716	8.76
449.154	8.83
449.593	8.88
450.032	8.92
450.471	8.94
450.91	8.96
451.349	9.02
451.787	9.01
452.226	9.02
452.664	9.03
453.103	9.03
453.541	9.04
453.98	9.05
454.418	9.04
454.856	9.05
455.295	9.05
455.733	9.04
456.171	9.02
456.609	9.04
457.047	9.03
457.485	9.03
457.923	9.03
458.361	9.03
458.798	9.02
459.236	9.02
459.674	9.02
460.111	9.03
460.549	9.06
460.987	9.06
461.424	9.06
461.862	9.08
462.299	9.08
462.736	9.09
463.173	9.09
463.611	9.11
464.048	9.12
464.485	9.13
464.922	9.14
465.359	9.13
465.796	9.17
466.233	9.19
466.67	9.21
467.106	9.24
467.543	9.25
467.98	9.26
468.416	9.25
468.853	9.24
469.29	9.25
469.726	9.26
470.162	9.27
470.599	9.27
471.035	9.26
471.471	9.26
471.907	9.26
472.344	9.28
472.78	9.3
473.216	9.31
473.652	9.34
474.088	9.34
474.523	9.37
474.959	9.38
475.395	9.37
475.831	9.38
476.266	9.39
476.702	9.4
477.138	9.4
477.573	9.41
478.008	9.42
478.444	9.42
478.879	9.45
479.314	9.44
479.75	9.44
480.185	9.45
480.62	9.45
481.055	9.43
481.49	9.42
481.925	9.41
482.36	9.42
482.795	9.41
483.229	9.41
483.664	9.42
484.099	9.42
484.534	9.43
484.968	9.45
485.403	9.47
485.837	9.52
486.271	9.57
486.706	9.61
487.14	9.64
487.574	9.7
488.009	9.74
488.443	9.8
488.877	9.86
489.311	9.92
489.745	9.99
490.179	10.07
490.613	10.15
491.046	10.22
491.48	10.3
491.914	10.39
492.348	10.48
492.781	10.57
493.215	10.67
493.648	10.76
494.082	10.85
494.515	10.96
494.948	11.07
495.382	11.16
495.815	11.27
496.248	11.38
496.681	11.5
497.114	11.62
497.547	11.75
497.98	11.89
498.413	12.03
498.846	12.18
499.279	12.31
499.711	12.45
500.144	12.61
500.577	12.78
501.009	12.95
501.442	13.13
501.874	13.31
502.306	13.49
502.739	13.69
503.171	13.88
503.603	14.08
504.036	14.29
504.468	14.51
504.9	14.71
505.332	14.93
505.764	15.16
506.196	15.38
506.627	15.61
507.059	15.84
507.491	16.07
507.923	16.31
508.354	16.57
508.786	16.82
509.217	17.07
509.649	17.32
510.08	17.55
510.512	17.81
510.943	18.06
511.374	18.3
511.805	18.55
512.237	18.8
512.668	19.05
513.099	19.28
513.53	19.52
513.961	19.76
514.391	20.03
514.822	20.29
515.253	20.55
515.684	20.82
516.114	21.09
516.545	21.35
516.975	21.62
517.406	21.88
517.836	22.14
518.267	22.41
518.697	22.67
519.127	22.93
519.558	23.17
519.988	23.4
520.418	23.62
520.848	23.83
521.278	24.04
521.708	24.4
522.138	24.6
522.567	24.78
522.997	24.96
523.427	25.13
523.857	25.3
524.286	25.46
524.716	25.62
525.145	25.8
525.575	25.97
526.004	26.14
526.433	26.13
526.863	26.29
527.292	26.46
527.721	26.6
528.15	26.73
528.579	26.84
529.008	26.98
529.437	27.07
529.866	27.15
530.295	27.24
530.724	27.33
531.152	27.42
531.581	27.5
532.01	27.57
532.438	27.65
532.867	27.72
533.295	27.79
533.723	27.86
534.152	27.93
534.58	28.01
535.008	28.05
535.436	28.11
535.865	28.14
536.293	28.17
536.721	28.21
537.149	28.26
537.576	28.31
538.004	28.36
538.432	28.38
538.86	28.42
539.287	28.44
539.715	28.49
540.143	28.52
540.57	28.55
540.998	28.59
541.425	28.63
541.852	28.65
542.28	28.68
542.707	28.71
543.134	28.74
543.561	28.76
543.988	28.81
544.415	28.82
544.842	28.84
545.269	28.87
545.696	28.91
546.123	28.92
546.549	28.95
546.976	28.97
547.403	28.99
547.829	29.01
548.256	29.04
548.682	29.05
549.108	29.09
549.535	29.13
549.961	29.14
550.387	29.16
550.813	29.19
551.24	29.2
551.666	29.21
552.092	29.23
552.518	29.23
552.943	29.22
553.369	29.22
553.795	29.2
554.221	29.17
554.646	29.15
555.072	29.13
555.498	29.1
555.923	29.07
556.349	29.04
556.774	29
557.199	28.96
557.625	28.92
558.05	28.86
558.475	28.81
558.9	28.81
559.325	28.77
559.75	28.73
560.175	28.68
560.6	28.61
561.025	28.55
561.449	28.47
561.874	28.41
562.299	28.35
562.723	28.29
563.148	28.22
563.572	28.1
563.997	28
564.421	27.9
564.846	27.8
565.27	27.72
565.694	27.62
566.118	27.53
566.542	27.43
566.966	27.33
567.39	27.24
567.814	27.14
568.238	27.06
568.662	26.97
569.086	26.89
569.509	26.81
569.933	26.73
570.357	26.63
570.78	26.54
571.204	26.45
571.627	26.36
572.05	26.27
572.474	26.21
572.897	26.14
573.32	26.05
573.743	25.96
574.166	25.89
574.589	25.8
575.012	25.73
575.435	25.65
575.858	25.59
576.281	25.51
576.704	25.44
577.126	25.35
577.549	25.28
577.972	25.21
578.394	25.14
578.817	25.09
579.239	25.05
579.661	24.99
580.084	24.96
580.506	24.9
580.928	24.85
581.35	24.79
581.772	24.73
582.194	24.66
582.616	24.61
583.038	24.55
583.46	24.48
583.882	24.4
584.303	24.34
584.725	24.26
585.147	24.21
585.568	24.15
585.99	24.1
586.411	24.05
586.833	23.99
587.254	23.94
587.675	23.88
588.096	23.85
588.518	23.8
588.939	23.76
589.36	23.73
589.781	23.67
590.202	23.66
590.623	23.62
591.043	23.57
591.464	23.55
591.885	23.52
592.305	23.49
592.726	23.47
593.147	23.45
593.567	23.43
593.987	23.4
594.408	23.37
594.828	23.33
595.248	23.31
595.669	23.3
596.089	23.26
596.509	23.24
596.929	23.21
597.349	23.18
597.769	23.14
598.189	23.1
598.608	23.08
599.028	23.05
599.448	23.01
599.867	22.98
600.287	22.95
600.706	22.91
601.126	22.88
601.545	22.85
601.965	22.81
602.384	22.78
602.803	22.75
603.222	22.7
603.641	22.65
604.061	22.62
604.48	22.54
604.898	22.49
605.317	22.45
605.736	22.38
606.155	22.32
606.574	22.25
606.992	22.17
607.411	22.11
607.829	22.01
608.248	21.94
608.666	21.86
609.085	21.81
609.503	21.74
609.921	21.67
610.339	21.59
610.758	21.52
611.176	21.45
611.594	21.38
612.012	21.3
612.43	21.26
612.847	21.19
613.265	21.11
613.683	21.05
614.101	20.98
614.518	20.91
614.936	20.84
615.353	20.76
615.771	20.7
616.188	20.63
616.606	20.57
617.023	20.52
617.44	20.47
617.857	20.42
618.274	20.36
618.691	20.31
619.108	20.25
619.525	20.2
619.942	20.16
620.359	20.11
620.776	20.06
621.192	20.02
621.609	19.98
622.026	19.94
622.442	19.9
622.859	19.87
623.275	19.83
623.691	19.79
624.108	19.76
624.524	19.75
624.94	19.72
625.356	19.71
625.772	19.69
626.188	19.67
626.604	19.66
627.02	19.65
627.436	19.63
627.852	19.63
628.268	19.62
628.683	19.62
629.099	19.6
629.514	19.6
629.93	19.59
630.345	19.57
630.761	19.55
631.176	19.51
631.591	19.48
632.007	19.45
632.422	19.4
632.837	19.35
633.252	19.3
633.667	19.24
634.082	19.17
634.497	19.12
634.911	19.04
635.326	18.96
635.741	18.9
636.155	18.8
636.57	18.72
636.984	18.63
637.399	18.53
637.813	18.44
638.228	18.32
638.642	18.19
639.056	18.05
639.47	17.93
639.884	17.8
640.298	17.64
640.712	17.52
641.126	17.38
641.54	17.24
641.954	17.09
642.368	16.94
642.781	16.8
643.195	16.68
643.609	16.55
644.022	16.41
644.436	16.27
644.849	16.14
645.262	16.02
645.676	15.89
646.089	15.79
646.502	15.7
646.915	15.6
647.328	15.51
647.741	15.42
648.154	15.32
648.567	15.23
648.98	15.17
649.393	15.11
649.805	15.05
650.218	14.99
650.631	14.92
651.043	14.84
651.456	14.77
651.868	14.69
652.28	14.61
652.693	14.55
653.105	14.49
653.517	14.4
653.929	14.31
654.341	14.21
654.753	14.1
655.165	14
655.577	13.9
655.989	13.8
656.401	13.68
656.813	13.59
657.224	13.46
657.636	13.31
658.047	13.2
658.459	13.06
658.87	12.9
659.282	12.76
659.693	12.62
660.104	12.47
660.515	12.31
660.926	12.16
661.338	11.98
661.749	11.82
662.159	11.67
662.57	11.51
662.981	11.36
663.392	11.21
663.803	11.07
664.213	10.92
664.624	10.78
665.035	10.65
665.445	10.53
665.855	10.41
666.266	10.31
666.676	10.22
667.086	10.11
667.497	10.01
667.907	9.91
668.317	9.81
668.727	9.75
669.137	9.67
669.547	9.6
669.956	9.53
670.366	9.46
670.776	9.4
671.186	9.34
671.595	9.3
672.005	9.26
672.414	9.23
672.824	9.21
673.233	9.18
673.642	9.16
674.052	9.16
674.461	9.16
674.87	9.16
675.279	9.17
675.688	9.18
676.097	9.21
676.506	9.24
676.915	9.26
677.323	9.31
677.732	9.36
678.141	9.42
678.549	9.48
678.958	9.56
679.366	9.66
679.775	9.76
680.183	9.9
680.592	10.04
681	10.2
681.408	10.39
681.816	10.59
682.224	10.82
682.632	11.06
683.04	11.34
683.448	11.62
683.856	11.92
684.264	12.27
684.671	12.62
685.079	12.98
685.487	13.38
685.894	13.8
686.302	14.22
686.709	14.67
687.116	15.14
687.524	15.63
687.931	16.13
688.338	16.65
688.745	17.16
689.152	17.68
689.559	18.23
689.966	18.77
690.373	19.3
690.78	19.84
691.187	20.37
691.593	20.9
692	21.41
692.407	21.9
692.813	22.4
693.22	22.89
693.626	23.37
694.032	23.85
694.439	24.3
694.845	24.75
695.251	25.17
695.657	25.57
696.063	25.97
696.469	26.38
696.875	26.79
697.281	27.15
697.687	27.52
698.093	27.85
698.498	28.16
698.904	28.49
699.31	28.8
699.715	29.12
700.12	29.42
700.526	29.71
700.931	29.99
701.337	30.26
701.742	30.54
702.147	30.78
702.552	31.03
702.957	31.27
703.362	31.49
703.767	31.67
704.172	31.88
704.577	32.07
704.981	32.26
705.386	32.44
705.791	32.61
706.195	32.79
706.6	32.96
707.004	33.13
707.408	33.3
707.813	33.46
708.217	33.63
708.621	33.8
709.025	33.93
709.43	34.07
709.834	34.2
710.237	34.35
710.641	34.45
711.045	34.58
711.449	34.72
711.853	34.86
712.256	34.96
712.66	35.07
713.064	35.17
713.467	35.29
713.87	35.4
714.274	35.48
714.677	35.56
715.08	35.64
715.484	35.73
715.887	35.8
716.29	35.84
716.693	35.95
717.096	36.04
717.499	36.13
717.901	36.22
718.304	36.3
718.707	36.41
719.109	36.5
719.512	36.6
719.915	36.68
720.317	36.74
720.719	36.81
721.122	36.87
721.524	36.94
721.926	37
722.328	37.06
722.731	37.11
723.133	37.14
723.535	37.18
723.937	37.24
724.338	37.28
724.74	37.34
725.142	37.63
725.544	37.65
725.945	37.74
726.347	37.77
726.748	37.83
727.15	37.86
727.551	37.94
727.952	37.99
728.354	38.03
728.755	38.09
729.156	38.12
729.557	37.94
729.958	37.99
730.359	37.99
730.76	38.05
731.161	38.07
731.562	38.13
731.962	38.13
732.363	38.16
732.763	38.18
733.164	38.21
733.564	38.27
733.965	38.3
734.365	38.33
734.766	38.33
735.166	38.35
735.566	38.36
735.966	38.38
736.366	38.39
736.766	38.4
737.166	38.41
737.566	38.42
737.966	38.42
738.365	38.44
738.765	38.47
739.165	38.5
739.564	38.51
739.964	38.54
740.363	38.55
740.763	38.6
741.162	38.63
741.561	38.66
741.96	38.66
742.36	38.66
742.759	38.67
743.158	38.66
743.557	38.66
743.955	38.67
744.354	38.68
744.753	38.68
745.152	38.67
745.55	38.67
745.949	38.68
746.348	38.69
746.746	38.69
747.144	38.7
747.543	38.67
747.941	38.67
748.339	38.66
748.737	38.63
749.136	38.61
749.534	38.59
749.932	38.6
750.33	38.59
750.727	38.6
751.125	38.61
751.523	38.62
751.921	38.65
752.318	38.65
752.716	38.64
753.113	38.66
753.511	38.68
753.908	38.71
754.305	38.73
754.703	38.71
755.1	38.68
755.497	38.63
755.894	38.53
756.291	38.42
756.688	38.33
757.085	38.24
757.482	38.14
757.878	38.06
758.275	37.97
758.672	37.85
759.068	37.78
759.465	37.7
759.861	37.65
760.258	37.65
760.654	37.68
761.05	37.74
761.447	37.8
761.843	37.84
762.239	37.9
762.635	37.91
763.031	37.97
763.427	38.02
763.822	38.12
764.218	38.21
764.614	38.29
765.01	38.32
765.405	38.37
765.801	38.37
766.196	38.43
766.592	38.45
766.987	38.5
767.382	38.52
767.778	38.56
768.173	38.56
768.568	38.56
768.963	38.57
769.358	38.61
769.753	38.62
770.148	38.67
770.542	38.67
770.937	38.68
771.332	38.69
771.726	38.69
772.121	38.69
772.515	38.7
772.91	38.69
773.304	38.7
773.699	38.69
774.093	38.68
774.487	38.66
774.881	38.66
775.275	38.65
775.669	38.65
776.063	38.65
776.457	38.64
776.851	38.64
777.245	38.62
777.638	38.6
778.032	38.59
778.425	38.63
778.819	38.64
779.212	38.66
