Data from C_3_DIV_OH_2N_Splice17_13-48-10-086.txt Node
Date: Sat Mar 07 13:48:10 EST 2020
User: sa697716
Spectrometer: NQ5500242
Trigger mode: 0
Integration Time (sec): 1.450000E-1
Scans to average: 20
Nonlinearity correction enabled: false
Boxcar width: 5
Storing dark spectrum: false
XAxis mode: Wavelengths
Number of Pixels in Spectrum: 512
>>>>>Begin Spectral Data<<<<<
187.83	269.13
188.298	304.76
188.766	270.34
189.233	216.89
189.701	231.48
190.169	278.75
190.636	303.74
191.104	460.34
191.571	224.75
192.039	-79.33
192.506	138.93
192.974	-57.31
193.441	43.45
193.908	44.62
194.375	54.93
194.842	44.49
195.31	151.75
195.777	342.46
196.244	74.98
196.711	44.7
197.177	42.98
197.644	41.22
198.111	41.35
198.578	41.15
199.045	41.08
199.511	40.79
199.978	40.53
200.445	40.72
200.911	40.8
201.378	40.32
201.844	40.36
202.31	40.13
202.777	40.42
203.243	40.46
203.709	40.45
204.176	40.07
204.642	39.91
205.108	39.82
205.574	39.02
206.04	38.04
206.506	37.82
206.972	37.61
207.438	37.23
207.903	36.61
208.369	35.95
208.835	35.04
209.301	34.42
209.766	33.02
210.232	32.18
210.697	31.3
211.163	30.74
211.628	29.98
212.094	29.27
212.559	28.9
213.024	28.23
213.49	27.64
213.955	27.05
214.42	26.3
214.885	25.77
215.35	24.88
215.815	24.13
216.28	22.64
216.745	20.89
217.21	19.15
217.675	17.53
218.14	16.29
218.604	15.05
219.069	14.07
219.534	13.3
219.998	12.63
220.463	12.07
220.927	11.49
221.392	11.11
221.856	10.84
222.32	10.59
222.785	10.39
223.249	10.15
223.713	10
224.177	9.88
224.642	9.71
225.106	9.56
225.57	9.43
226.034	9.33
226.497	9.22
226.961	9.12
227.425	9.03
227.889	8.92
228.353	8.82
228.816	8.7
229.28	8.59
229.744	8.5
230.207	8.41
230.671	8.33
231.134	8.25
231.597	8.18
232.061	8.08
232.524	7.98
232.987	7.89
233.45	7.83
233.914	7.77
234.377	7.69
234.84	7.62
235.303	7.57
235.766	7.5
236.229	7.42
236.691	7.36
237.154	7.31
237.617	7.25
238.08	7.19
238.542	7.12
239.005	7.08
239.468	7.03
239.93	6.97
240.393	6.93
240.855	6.87
241.317	6.82
241.78	6.76
242.242	6.69
242.704	6.65
243.166	6.6
243.629	6.57
244.091	6.51
244.553	6.46
245.015	6.42
245.477	6.36
245.939	6.3
246.4	6.26
246.862	6.2
247.324	6.16
247.786	6.12
248.247	6.06
248.709	6
249.17	5.94
249.632	5.91
250.093	5.88
250.555	5.84
251.016	5.81
251.477	5.78
251.939	5.75
252.4	5.72
252.861	5.67
253.322	5.65
253.783	5.62
254.244	5.6
254.705	5.56
255.166	5.52
255.627	5.48
256.088	5.45
256.549	5.42
257.009	5.38
257.47	5.34
257.931	5.31
258.391	5.27
258.852	5.24
259.312	5.2
259.773	5.16
260.233	5.14
260.694	5.12
261.154	5.08
261.614	5.06
262.074	5.03
262.534	5.01
262.994	4.99
263.455	4.96
263.915	4.94
264.374	4.92
264.834	4.91
265.294	4.89
265.754	4.87
266.214	4.86
266.673	4.85
267.133	4.84
267.593	4.82
268.052	4.82
268.512	4.81
268.971	4.81
269.431	4.8
269.89	4.79
270.349	4.78
270.809	4.77
271.268	4.76
271.727	4.75
272.186	4.75
272.645	4.74
273.104	4.73
273.563	4.72
274.022	4.7
274.481	4.7
274.94	4.7
275.399	4.68
275.857	4.68
276.316	4.67
276.775	4.66
277.233	4.65
277.692	4.65
278.15	4.64
278.609	4.64
279.067	4.63
279.525	4.62
279.984	4.6
280.442	4.59
280.9	4.58
281.358	4.57
281.816	4.57
282.274	4.56
282.732	4.55
283.19	4.54
283.648	4.52
284.106	4.51
284.564	4.5
285.021	4.5
285.479	4.5
285.937	4.48
286.394	4.48
286.852	4.47
287.309	4.46
287.767	4.45
288.224	4.44
288.682	4.43
289.139	4.41
289.596	4.4
290.053	4.38
290.511	4.36
290.968	4.35
291.425	4.34
291.882	4.33
292.339	4.32
292.796	4.3
293.252	4.3
293.709	4.3
294.166	4.29
294.623	4.29
295.079	4.27
295.536	4.26
295.992	4.25
296.449	4.25
296.905	4.24
297.362	4.23
297.818	4.22
298.274	4.22
298.731	4.2
299.187	4.18
299.643	4.17
300.099	4.17
300.555	4.16
301.011	4.15
301.467	4.15
301.923	4.13
302.379	4.13
302.835	4.13
303.291	4.12
303.746	4.12
304.202	4.13
304.658	4.13
305.113	4.13
305.569	4.13
306.024	4.13
306.479	4.12
306.935	4.12
307.39	4.12
307.845	4.11
308.301	4.12
308.756	4.11
309.211	4.1
309.666	4.1
310.121	4.1
310.576	4.1
311.031	4.1
311.486	4.09
311.94	4.09
312.395	4.09
312.85	4.08
313.305	4.07
313.759	4.08
314.214	4.08
314.668	4.07
315.123	4.07
315.577	4.06
316.032	4.06
316.486	4.05
316.94	4.05
317.394	4.04
317.849	4.03
318.303	4.02
318.757	4
319.211	3.99
319.665	3.97
320.119	3.96
320.572	3.95
321.026	3.93
321.48	3.92
321.934	3.9
322.387	3.9
322.841	3.9
323.295	3.91
323.748	3.9
324.202	3.9
324.655	3.9
325.108	3.91
325.562	3.91
326.015	3.92
326.468	3.92
326.921	3.92
327.374	3.91
327.827	3.91
328.28	3.91
328.733	3.91
329.186	3.91
329.639	3.92
330.092	3.91
330.545	3.91
330.997	3.9
331.45	3.91
331.903	3.91
332.355	3.92
332.808	3.91
333.26	3.9
333.713	3.89
334.165	3.88
334.617	3.87
335.069	3.86
335.522	3.85
335.974	3.86
336.426	3.85
336.878	3.83
337.33	3.83
337.782	3.84
338.234	3.84
338.686	3.84
339.137	3.85
339.589	3.84
340.041	3.85
340.493	3.84
340.944	3.83
341.396	3.84
341.847	3.82
342.299	3.8
342.75	3.79
343.201	3.76
343.653	3.75
344.104	3.73
344.555	3.72
345.006	3.7
345.457	3.7
345.908	3.69
346.359	3.69
346.81	3.7
347.261	3.7
347.712	3.7
348.163	3.7
348.613	3.71
349.064	3.72
349.515	3.73
349.965	3.73
350.416	3.72
350.866	3.72
351.317	3.72
351.767	3.72
352.217	3.73
352.668	3.74
353.118	3.74
353.568	3.74
354.018	3.75
354.468	3.75
354.918	3.75
355.368	3.76
355.818	3.77
356.268	3.77
356.718	3.78
357.168	3.77
357.617	3.77
358.067	3.78
358.517	3.8
358.966	3.8
359.416	3.82
359.865	3.82
360.315	3.84
360.764	3.85
361.213	3.87
361.663	3.88
362.112	3.9
362.561	3.92
363.01	3.94
363.459	3.95
363.908	3.96
364.357	3.98
364.806	4
365.255	4.02
365.703	4.05
366.152	4.07
366.601	4.09
367.05	4.11
367.498	4.13
367.947	4.16
368.395	4.19
368.844	4.23
369.292	4.25
369.74	4.29
370.189	4.32
370.637	4.35
371.085	4.37
371.533	4.41
371.981	4.44
372.429	4.48
372.877	4.53
373.325	4.56
373.773	4.6
374.221	4.63
374.669	4.67
375.116	4.7
375.564	4.76
376.012	4.81
376.459	4.86
376.907	4.93
377.354	4.98
377.801	5.05
378.249	5.11
378.696	5.17
379.143	5.24
379.591	5.3
380.038	5.36
380.485	5.42
380.932	5.49
381.379	5.55
381.826	5.6
382.273	5.66
382.72	5.71
383.166	5.78
383.613	5.84
384.06	5.9
384.506	5.98
384.953	6.05
385.4	6.13
385.846	6.21
386.292	6.27
386.739	6.32
387.185	6.39
387.631	6.47
388.078	6.54
388.524	6.61
388.97	6.68
389.416	6.76
389.862	6.82
390.308	6.88
390.754	6.95
391.2	7.03
391.645	7.1
392.091	7.18
392.537	7.24
392.983	7.29
393.428	7.36
393.874	7.4
394.319	7.46
394.765	7.51
395.21	7.56
395.655	7.6
396.101	7.63
396.546	7.67
396.991	7.71
397.436	7.75
397.881	7.8
398.326	7.82
398.771	7.87
399.216	7.89
399.661	7.9
400.106	7.92
400.551	7.94
400.995	7.94
401.44	7.95
401.885	7.96
402.329	7.97
402.774	7.98
403.218	8.01
403.663	8.01
404.107	8.01
404.551	8.02
404.995	8.01
405.44	8.01
405.884	8.02
406.328	8.01
406.772	7.99
407.216	7.98
407.66	7.97
408.104	7.93
408.547	7.93
408.991	7.92
409.435	7.91
409.879	7.93
410.322	7.94
410.766	7.94
411.209	7.95
411.653	7.95
412.096	7.96
412.54	7.97
412.983	7.97
413.426	8
413.869	8
414.312	8.01
414.756	8.01
415.199	7.99
415.642	7.98
416.085	7.98
416.527	7.99
416.97	7.98
417.413	7.96
417.856	7.95
418.298	7.93
418.741	7.93
419.184	7.91
419.626	7.91
420.069	7.91
420.511	7.91
420.953	7.93
421.396	7.92
421.838	7.92
422.28	7.92
422.722	7.94
423.164	7.93
423.606	7.92
424.048	7.91
424.49	7.89
424.932	7.86
425.374	7.81
425.816	7.75
426.258	7.73
426.699	7.71
427.141	7.69
427.582	7.67
428.024	7.66
428.465	7.65
428.907	7.63
429.348	7.6
429.789	7.6
430.231	7.62
430.672	7.64
431.113	7.65
431.554	7.66
431.995	7.65
432.436	7.65
432.877	7.66
433.318	7.68
433.759	7.7
434.2	7.74
434.64	7.76
435.081	7.77
435.522	7.76
435.962	7.77
436.403	7.79
436.843	7.8
437.284	7.81
437.724	7.83
438.164	7.84
438.604	7.85
439.045	7.89
439.485	7.91
439.925	7.93
440.365	7.96
440.805	7.99
441.245	8.05
441.685	8.11
442.125	8.17
442.564	8.2
443.004	8.23
443.444	8.28
443.883	8.31
444.323	8.34
444.762	8.4
445.202	8.44
445.641	8.51
446.081	8.55
446.52	8.6
446.959	8.66
447.398	8.73
447.837	8.79
448.276	8.82
448.716	8.89
449.154	8.96
449.593	9.01
450.032	9.06
450.471	9.09
450.91	9.11
451.349	9.15
451.787	9.16
452.226	9.17
452.664	9.2
453.103	9.23
453.541	9.25
453.98	9.29
454.418	9.28
454.856	9.3
455.295	9.3
455.733	9.31
456.171	9.31
456.609	9.31
457.047	9.32
457.485	9.32
457.923	9.33
458.361	9.31
458.798	9.3
459.236	9.3
459.674	9.29
460.111	9.3
460.549	9.32
460.987	9.32
461.424	9.33
461.862	9.35
462.299	9.35
462.736	9.35
463.173	9.37
463.611	9.39
464.048	9.4
464.485	9.42
464.922	9.42
465.359	9.4
465.796	9.45
466.233	9.45
466.67	9.46
467.106	9.47
467.543	9.44
467.98	9.43
468.416	9.4
468.853	9.39
469.29	9.39
469.726	9.39
470.162	9.39
470.599	9.36
471.035	9.35
471.471	9.33
471.907	9.34
472.344	9.37
472.78	9.4
473.216	9.42
473.652	9.45
474.088	9.44
474.523	9.47
474.959	9.48
475.395	9.47
475.831	9.49
476.266	9.51
476.702	9.51
477.138	9.51
477.573	9.52
478.008	9.53
478.444	9.53
478.879	9.56
479.314	9.57
479.75	9.58
480.185	9.59
480.62	9.59
481.055	9.6
481.49	9.61
481.925	9.62
482.36	9.64
482.795	9.65
483.229	9.67
483.664	9.69
484.099	9.7
484.534	9.74
484.968	9.79
485.403	9.82
485.837	9.86
486.271	9.9
486.706	9.94
487.14	9.98
487.574	10.04
488.009	10.1
488.443	10.15
488.877	10.22
489.311	10.27
489.745	10.34
490.179	10.43
490.613	10.53
491.046	10.61
491.48	10.7
491.914	10.8
492.348	10.89
492.781	10.99
493.215	11.1
493.648	11.21
494.082	11.32
494.515	11.43
494.948	11.55
495.382	11.64
495.815	11.78
496.248	11.91
496.681	12.06
497.114	12.2
497.547	12.35
497.98	12.5
498.413	12.65
498.846	12.81
499.279	12.98
499.711	13.13
500.144	13.31
500.577	13.49
501.009	13.67
501.442	13.86
501.874	14.05
502.306	14.24
502.739	14.48
503.171	14.69
503.603	14.9
504.036	15.12
504.468	15.35
504.9	15.58
505.332	15.82
505.764	16.06
506.196	16.29
506.627	16.54
507.059	16.79
507.491	17.02
507.923	17.26
508.354	17.54
508.786	17.8
509.217	18.08
509.649	18.34
510.08	18.61
510.512	18.89
510.943	19.16
511.374	19.44
511.805	19.72
512.237	19.99
512.668	20.27
513.099	20.55
513.53	20.83
513.961	21.12
514.391	21.42
514.822	21.72
515.253	21.99
515.684	22.27
516.114	22.56
516.545	22.85
516.975	23.14
517.406	23.44
517.836	23.7
518.267	23.97
518.697	24.22
519.127	24.45
519.558	24.68
519.988	24.92
520.418	25.17
520.848	25.39
521.278	25.59
521.708	25.94
522.138	26.14
522.567	26.34
522.997	26.52
523.427	26.71
523.857	26.9
524.286	27.07
524.716	27.26
525.145	27.42
525.575	27.61
526.004	27.76
526.433	27.77
526.863	27.93
527.292	28.09
527.721	28.23
528.15	28.35
528.579	28.48
529.008	28.62
529.437	28.73
529.866	28.84
530.295	28.93
530.724	29.03
531.152	29.15
531.581	29.24
532.01	29.33
532.438	29.42
532.867	29.52
533.295	29.61
533.723	29.67
534.152	29.74
534.58	29.82
535.008	29.88
535.436	29.96
535.865	30
536.293	30.04
536.721	30.09
537.149	30.15
537.576	30.18
538.004	30.21
538.432	30.26
538.86	30.3
539.287	30.31
539.715	30.36
540.143	30.38
540.57	30.42
540.998	30.45
541.425	30.48
541.852	30.51
542.28	30.55
542.707	30.57
543.134	30.6
543.561	30.64
543.988	30.66
544.415	30.66
544.842	30.68
545.269	30.72
545.696	30.75
546.123	30.78
546.549	30.79
546.976	30.82
547.403	30.84
547.829	30.84
548.256	30.85
548.682	30.89
549.108	30.94
549.535	30.96
549.961	30.96
550.387	30.97
550.813	30.97
551.24	30.97
551.666	30.98
552.092	30.98
552.518	30.99
552.943	31.01
553.369	30.99
553.795	30.98
554.221	30.98
554.646	30.97
555.072	30.98
555.498	30.96
555.923	30.95
556.349	30.91
556.774	30.87
557.199	30.85
557.625	30.8
558.05	30.79
558.475	30.76
558.9	30.72
559.325	30.69
559.75	30.64
560.175	30.6
560.6	30.55
561.025	30.5
561.449	30.46
561.874	30.39
562.299	30.32
562.723	30.24
563.148	30.16
563.572	30.06
563.997	29.97
564.421	29.87
564.846	29.78
565.27	29.71
565.694	29.62
566.118	29.52
566.542	29.43
566.966	29.33
567.39	29.25
567.814	29.17
568.238	29.08
568.662	28.99
569.086	28.91
569.509	28.82
569.933	28.72
570.357	28.63
570.78	28.54
571.204	28.46
571.627	28.39
572.05	28.3
572.474	28.21
572.897	28.13
573.32	28.04
573.743	27.95
574.166	27.87
574.589	27.76
575.012	27.68
575.435	27.6
575.858	27.51
576.281	27.42
576.704	27.33
577.126	27.25
577.549	27.18
577.972	27.1
578.394	27.03
578.817	26.98
579.239	26.92
579.661	26.87
580.084	26.79
580.506	26.76
580.928	26.7
581.35	26.65
581.772	26.59
582.194	26.53
582.616	26.48
583.038	26.4
583.46	26.33
583.882	26.27
584.303	26.21
584.725	26.16
585.147	26.11
585.568	26.07
585.99	26.02
586.411	25.95
586.833	25.92
587.254	25.85
587.675	25.81
588.096	25.77
588.518	25.73
588.939	25.69
589.36	25.65
589.781	25.57
590.202	25.53
590.623	25.5
591.043	25.47
591.464	25.42
591.885	25.39
592.305	25.36
592.726	25.33
593.147	25.3
593.567	25.26
593.987	25.22
594.408	25.2
594.828	25.16
595.248	25.12
595.669	25.1
596.089	25.06
596.509	25.05
596.929	25.02
597.349	24.99
597.769	24.95
598.189	24.93
598.608	24.91
599.028	24.89
599.448	24.86
599.867	24.83
600.287	24.81
600.706	24.79
601.126	24.76
601.545	24.73
601.965	24.69
602.384	24.67
602.803	24.63
603.222	24.59
603.641	24.54
604.061	24.5
604.48	24.45
604.898	24.39
605.317	24.34
605.736	24.27
606.155	24.21
606.574	24.14
606.992	24.07
607.411	24
607.829	23.9
608.248	23.81
608.666	23.73
609.085	23.67
609.503	23.6
609.921	23.52
610.339	23.45
610.758	23.36
611.176	23.29
611.594	23.21
612.012	23.14
612.43	23.08
612.847	23.01
613.265	22.94
613.683	22.87
614.101	22.79
614.518	22.71
614.936	22.63
615.353	22.55
615.771	22.49
616.188	22.42
616.606	22.36
617.023	22.31
617.44	22.27
617.857	22.21
618.274	22.15
618.691	22.09
619.108	22.04
619.525	22
619.942	21.97
620.359	21.94
620.776	21.89
621.192	21.86
621.609	21.82
622.026	21.76
622.442	21.74
622.859	21.71
623.275	21.68
623.691	21.66
624.108	21.63
624.524	21.61
624.94	21.59
625.356	21.57
625.772	21.55
626.188	21.54
626.604	21.53
627.02	21.52
627.436	21.51
627.852	21.5
628.268	21.49
628.683	21.48
629.099	21.47
629.514	21.45
629.93	21.44
630.345	21.41
630.761	21.37
631.176	21.33
631.591	21.29
632.007	21.25
632.422	21.2
632.837	21.15
633.252	21.09
633.667	21.04
634.082	20.95
634.497	20.88
634.911	20.81
635.326	20.73
635.741	20.64
636.155	20.55
636.57	20.44
636.984	20.33
637.399	20.23
637.813	20.1
638.228	19.97
638.642	19.84
639.056	19.7
639.47	19.57
639.884	19.44
640.298	19.3
640.712	19.15
641.126	19.01
641.54	18.86
641.954	18.69
642.368	18.54
642.781	18.4
643.195	18.25
643.609	18.1
644.022	17.95
644.436	17.81
644.849	17.66
645.262	17.51
645.676	17.35
646.089	17.23
646.502	17.13
646.915	17.03
647.328	16.91
647.741	16.8
648.154	16.71
648.567	16.62
648.98	16.52
649.393	16.44
649.805	16.39
650.218	16.31
650.631	16.23
651.043	16.15
651.456	16.06
651.868	15.98
652.28	15.91
652.693	15.83
653.105	15.75
653.517	15.66
653.929	15.57
654.341	15.46
654.753	15.35
655.165	15.26
655.577	15.15
655.989	15.03
656.401	14.91
656.813	14.79
657.224	14.63
657.636	14.47
658.047	14.32
658.459	14.17
658.87	14
659.282	13.83
659.693	13.66
660.104	13.48
660.515	13.3
660.926	13.11
661.338	12.93
661.749	12.75
662.159	12.57
662.57	12.4
662.981	12.23
663.392	12.07
663.803	11.91
664.213	11.74
664.624	11.59
665.035	11.45
665.445	11.3
665.855	11.17
666.266	11.06
666.676	10.95
667.086	10.82
667.497	10.71
667.907	10.6
668.317	10.5
668.727	10.43
669.137	10.34
669.547	10.27
669.956	10.21
670.366	10.14
670.776	10.09
671.186	10.03
671.595	10
672.005	9.94
672.414	9.93
672.824	9.89
673.233	9.86
673.642	9.85
674.052	9.84
674.461	9.83
674.87	9.83
675.279	9.84
675.688	9.85
676.097	9.86
676.506	9.89
676.915	9.93
677.323	9.98
677.732	10.03
678.141	10.09
678.549	10.16
678.958	10.25
679.366	10.36
679.775	10.48
680.183	10.63
680.592	10.8
681	10.98
681.408	11.17
681.816	11.4
682.224	11.66
682.632	11.94
683.04	12.24
683.448	12.58
683.856	12.93
684.264	13.31
684.671	13.71
685.079	14.14
685.487	14.6
685.894	15.09
686.302	15.6
686.709	16.12
687.116	16.66
687.524	17.22
687.931	17.78
688.338	18.36
688.745	18.93
689.152	19.54
689.559	20.15
689.966	20.76
690.373	21.36
690.78	21.96
691.187	22.57
691.593	23.14
692	23.72
692.407	24.3
692.813	24.9
693.22	25.46
693.626	26
694.032	26.53
694.439	27.06
694.845	27.56
695.251	28.05
695.657	28.51
696.063	28.98
696.469	29.44
696.875	29.87
697.281	30.28
697.687	30.7
698.093	31.09
698.498	31.48
698.904	31.85
699.31	32.21
699.715	32.57
700.12	32.91
700.526	33.25
700.931	33.55
701.337	33.87
701.742	34.13
702.147	34.42
702.552	34.69
702.957	34.91
703.362	35.16
703.767	35.38
704.172	35.59
704.577	35.79
704.981	36
705.386	36.22
705.791	36.43
706.195	36.65
706.6	36.84
707.004	37.02
707.408	37.24
707.813	37.43
708.217	37.64
708.621	37.83
709.025	38.02
709.43	38.18
709.834	38.34
710.237	38.45
710.641	38.58
711.045	38.73
711.449	38.87
711.853	39.03
712.256	39.15
712.66	39.26
713.064	39.36
713.467	39.47
713.87	39.61
714.274	39.72
714.677	39.86
715.08	39.98
715.484	40.09
715.887	40.22
716.29	40.27
716.693	40.39
717.096	40.48
717.499	40.6
717.901	40.71
718.304	40.8
718.707	40.9
719.109	40.97
719.512	41.06
719.915	41.14
720.317	41.19
720.719	41.27
721.122	41.33
721.524	41.39
721.926	41.46
722.328	41.51
722.731	41.56
723.133	41.62
723.535	41.68
723.937	41.74
724.338	41.8
724.74	41.87
725.142	42.12
725.544	42.18
725.945	42.3
726.347	42.34
726.748	42.37
727.15	42.4
727.551	42.44
727.952	42.47
728.354	42.51
728.755	42.54
729.156	42.56
729.557	42.4
729.958	42.42
730.359	42.4
730.76	42.43
731.161	42.47
731.562	42.53
731.962	42.52
732.363	42.57
732.763	42.58
733.164	42.59
733.564	42.64
733.965	42.65
734.365	42.69
734.766	42.71
735.166	42.72
735.566	42.75
735.966	42.79
736.366	42.84
736.766	42.85
737.166	42.9
737.566	42.93
737.966	42.94
738.365	42.97
738.765	43
739.165	43
739.564	43.03
739.964	43.05
740.363	43.02
740.763	43.02
741.162	43.03
741.561	43.03
741.96	43.03
742.36	43.03
742.759	43.04
743.158	43.03
743.557	43.04
743.955	43.04
744.354	43.05
744.753	43.08
745.152	43.11
745.55	43.12
745.949	43.12
746.348	43.14
746.746	43.13
747.144	43.12
747.543	43.12
747.941	43.12
748.339	43.11
748.737	43.08
749.136	43.07
749.534	43.03
749.932	43.04
750.33	43.02
750.727	43.03
751.125	43.04
751.523	43.02
751.921	43.06
752.318	43.08
752.716	43.11
753.113	43.12
753.511	43.15
753.908	43.2
754.305	43.22
754.703	43.24
755.1	43.25
755.497	43.25
755.894	43.28
756.291	43.27
756.688	43.27
757.085	43.26
757.482	43.3
757.878	43.31
758.275	43.31
758.672	43.29
759.068	43.31
759.465	43.32
759.861	43.33
760.258	43.35
760.654	43.36
761.05	43.36
761.447	43.39
761.843	43.38
762.239	43.37
762.635	43.36
763.031	43.36
763.427	43.34
763.822	43.36
764.218	43.37
764.614	43.39
765.01	43.37
765.405	43.37
765.801	43.34
766.196	43.34
766.592	43.34
766.987	43.35
767.382	43.35
767.778	43.36
768.173	43.35
768.568	43.32
768.963	43.3
769.358	43.31
769.753	43.31
770.148	43.32
770.542	43.32
770.937	43.33
771.332	43.34
771.726	43.35
772.121	43.35
772.515	43.34
772.91	43.35
773.304	43.37
773.699	43.35
774.093	43.33
774.487	43.31
774.881	43.33
775.275	43.3
775.669	43.28
776.063	43.27
776.457	43.29
776.851	43.29
777.245	43.28
777.638	43.25
778.032	43.28
778.425	43.33
778.819	43.36
779.212	43.37
