Data from C_3_DEC_OH_4N_Splice17_14-21-11-988.txt Node
Date: Sat Mar 07 14:21:11 EST 2020
User: sa697716
Spectrometer: NQ5500242
Trigger mode: 0
Integration Time (sec): 1.450000E-1
Scans to average: 20
Nonlinearity correction enabled: false
Boxcar width: 5
Storing dark spectrum: false
XAxis mode: Wavelengths
Number of Pixels in Spectrum: 512
>>>>>Begin Spectral Data<<<<<
187.83	202.87
188.298	227.53
188.766	208.8
189.233	177.76
189.701	186.49
190.169	227.24
190.636	269.8
191.104	371.93
191.571	276.74
192.039	119.97
192.506	141.04
192.974	135.6
193.441	212.32
193.908	108.18
194.375	112.38
194.842	89.95
195.31	98.28
195.777	35.19
196.244	65.86
196.711	72.56
197.177	75.56
197.644	76.48
198.111	76.38
198.578	76.85
199.045	77.87
199.511	77.52
199.978	77.52
200.445	78.13
200.911	78.62
201.378	78.5
201.844	78.24
202.31	77.82
202.777	77.48
203.243	77.34
203.709	76.89
204.176	75.85
204.642	75.57
205.108	75.13
205.574	74.53
206.04	73.47
206.506	72.92
206.972	72.63
207.438	71.6
207.903	70.51
208.369	68.73
208.835	67.09
209.301	65.5
209.766	63.32
210.232	61.42
210.697	59.56
211.163	58.07
211.628	56.57
212.094	54.84
212.559	53.47
213.024	52.16
213.49	51
213.955	49.87
214.42	48.48
214.885	47
215.35	45.07
215.815	42.28
216.28	39.03
216.745	35.41
217.21	31.87
217.675	28.62
218.14	25.79
218.604	23.27
219.069	21.13
219.534	19.38
219.998	17.92
220.463	16.73
220.927	15.73
221.392	14.92
221.856	14.24
222.32	13.68
222.785	13.16
223.249	12.68
223.713	12.28
224.177	11.95
224.642	11.63
225.106	11.29
225.57	10.98
226.034	10.73
226.497	10.47
226.961	10.23
227.425	10
227.889	9.81
228.353	9.63
228.816	9.43
229.28	9.23
229.744	9.07
230.207	8.93
230.671	8.78
231.134	8.65
231.597	8.53
232.061	8.39
232.524	8.26
232.987	8.12
233.45	8.02
233.914	7.92
234.377	7.82
234.84	7.72
235.303	7.63
235.766	7.54
236.229	7.45
236.691	7.37
237.154	7.3
237.617	7.25
238.08	7.18
238.542	7.1
239.005	7.05
239.468	6.99
239.93	6.93
240.393	6.87
240.855	6.79
241.317	6.74
241.78	6.67
242.242	6.6
242.704	6.54
243.166	6.47
243.629	6.41
244.091	6.36
244.553	6.3
245.015	6.23
245.477	6.17
245.939	6.12
246.4	6.07
246.862	6.02
247.324	5.97
247.786	5.91
248.247	5.86
248.709	5.81
249.17	5.75
249.632	5.72
250.093	5.68
250.555	5.64
251.016	5.61
251.477	5.57
251.939	5.54
252.4	5.51
252.861	5.48
253.322	5.46
253.783	5.43
254.244	5.41
254.705	5.36
255.166	5.33
255.627	5.3
256.088	5.28
256.549	5.25
257.009	5.22
257.47	5.18
257.931	5.14
258.391	5.1
258.852	5.05
259.312	5.03
259.773	5
260.233	4.96
260.694	4.93
261.154	4.89
261.614	4.86
262.074	4.82
262.534	4.8
262.994	4.78
263.455	4.76
263.915	4.73
264.374	4.7
264.834	4.68
265.294	4.65
265.754	4.64
266.214	4.63
266.673	4.6
267.133	4.59
267.593	4.58
268.052	4.57
268.512	4.55
268.971	4.54
269.431	4.53
269.89	4.52
270.349	4.51
270.809	4.5
271.268	4.49
271.727	4.48
272.186	4.47
272.645	4.47
273.104	4.45
273.563	4.44
274.022	4.44
274.481	4.44
274.94	4.43
275.399	4.41
275.857	4.4
276.316	4.4
276.775	4.39
277.233	4.39
277.692	4.38
278.15	4.37
278.609	4.35
279.067	4.35
279.525	4.34
279.984	4.33
280.442	4.33
280.9	4.33
281.358	4.33
281.816	4.33
282.274	4.32
282.732	4.32
283.19	4.32
283.648	4.32
284.106	4.31
284.564	4.31
285.021	4.31
285.479	4.3
285.937	4.3
286.394	4.29
286.852	4.28
287.309	4.27
287.767	4.26
288.224	4.25
288.682	4.23
289.139	4.22
289.596	4.2
290.053	4.18
290.511	4.16
290.968	4.14
291.425	4.12
291.882	4.11
292.339	4.1
292.796	4.08
293.252	4.07
293.709	4.06
294.166	4.05
294.623	4.03
295.079	4.02
295.536	4.01
295.992	4
296.449	3.99
296.905	3.98
297.362	3.97
297.818	3.97
298.274	3.96
298.731	3.94
299.187	3.93
299.643	3.92
300.099	3.91
300.555	3.91
301.011	3.9
301.467	3.9
301.923	3.88
302.379	3.88
302.835	3.88
303.291	3.88
303.746	3.88
304.202	3.89
304.658	3.89
305.113	3.89
305.569	3.89
306.024	3.89
306.479	3.88
306.935	3.88
307.39	3.88
307.845	3.88
308.301	3.88
308.756	3.88
309.211	3.88
309.666	3.89
310.121	3.89
310.576	3.89
311.031	3.89
311.486	3.9
311.94	3.91
312.395	3.91
312.85	3.92
313.305	3.92
313.759	3.93
314.214	3.93
314.668	3.92
315.123	3.92
315.577	3.92
316.032	3.91
316.486	3.9
316.94	3.89
317.394	3.87
317.849	3.86
318.303	3.84
318.757	3.82
319.211	3.81
319.665	3.8
320.119	3.79
320.572	3.79
321.026	3.77
321.48	3.77
321.934	3.76
322.387	3.75
322.841	3.75
323.295	3.75
323.748	3.75
324.202	3.74
324.655	3.74
325.108	3.73
325.562	3.73
326.015	3.73
326.468	3.73
326.921	3.72
327.374	3.72
327.827	3.71
328.28	3.71
328.733	3.72
329.186	3.71
329.639	3.71
330.092	3.72
330.545	3.72
330.997	3.72
331.45	3.73
331.903	3.74
332.355	3.76
332.808	3.77
333.26	3.77
333.713	3.77
334.165	3.79
334.617	3.8
335.069	3.81
335.522	3.81
335.974	3.82
336.426	3.82
336.878	3.81
337.33	3.81
337.782	3.81
338.234	3.81
338.686	3.81
339.137	3.81
339.589	3.8
340.041	3.8
340.493	3.79
340.944	3.78
341.396	3.77
341.847	3.76
342.299	3.75
342.75	3.73
343.201	3.72
343.653	3.71
344.104	3.69
344.555	3.68
345.006	3.67
345.457	3.66
345.908	3.65
346.359	3.64
346.81	3.64
347.261	3.63
347.712	3.62
348.163	3.61
348.613	3.61
349.064	3.61
349.515	3.62
349.965	3.62
350.416	3.61
350.866	3.62
351.317	3.62
351.767	3.62
352.217	3.62
352.668	3.62
353.118	3.63
353.568	3.63
354.018	3.63
354.468	3.64
354.918	3.64
355.368	3.65
355.818	3.65
356.268	3.65
356.718	3.65
357.168	3.65
357.617	3.65
358.067	3.65
358.517	3.67
358.966	3.67
359.416	3.67
359.865	3.67
360.315	3.67
360.764	3.67
361.213	3.67
361.663	3.67
362.112	3.68
362.561	3.69
363.01	3.68
363.459	3.67
363.908	3.67
364.357	3.68
364.806	3.66
365.255	3.67
365.703	3.67
366.152	3.68
366.601	3.69
367.05	3.69
367.498	3.68
367.947	3.69
368.395	3.7
368.844	3.71
369.292	3.7
369.74	3.71
370.189	3.71
370.637	3.7
371.085	3.7
371.533	3.7
371.981	3.7
372.429	3.71
372.877	3.71
373.325	3.7
373.773	3.7
374.221	3.7
374.669	3.7
375.116	3.7
375.564	3.7
376.012	3.7
376.459	3.71
376.907	3.72
377.354	3.73
377.801	3.74
378.249	3.76
378.696	3.77
379.143	3.78
379.591	3.79
380.038	3.81
380.485	3.82
380.932	3.83
381.379	3.84
381.826	3.85
382.273	3.86
382.72	3.85
383.166	3.86
383.613	3.87
384.06	3.87
384.506	3.88
384.953	3.88
385.4	3.89
385.846	3.9
386.292	3.91
386.739	3.93
387.185	3.95
387.631	3.97
388.078	3.99
388.524	3.99
388.97	4.02
389.416	4.05
389.862	4.07
390.308	4.1
390.754	4.12
391.2	4.15
391.645	4.16
392.091	4.17
392.537	4.2
392.983	4.22
393.428	4.26
393.874	4.27
394.319	4.28
394.765	4.29
395.21	4.3
395.655	4.31
396.101	4.33
396.546	4.36
396.991	4.39
397.436	4.4
397.881	4.43
398.326	4.45
398.771	4.48
399.216	4.52
399.661	4.56
400.106	4.59
400.551	4.6
400.995	4.61
401.44	4.62
401.885	4.63
402.329	4.64
402.774	4.65
403.218	4.67
403.663	4.68
404.107	4.69
404.551	4.69
404.995	4.7
405.44	4.71
405.884	4.73
406.328	4.74
406.772	4.74
407.216	4.76
407.66	4.77
408.104	4.76
408.547	4.76
408.991	4.77
409.435	4.78
409.879	4.77
410.322	4.79
410.766	4.8
411.209	4.82
411.653	4.85
412.096	4.86
412.54	4.87
412.983	4.88
413.426	4.91
413.869	4.92
414.312	4.95
414.756	4.98
415.199	4.99
415.642	5
416.085	5.01
416.527	5.01
416.97	5.01
417.413	5.01
417.856	5
418.298	4.99
418.741	4.99
419.184	4.98
419.626	4.98
420.069	4.99
420.511	4.99
420.953	4.99
421.396	4.98
421.838	5
422.28	5.02
422.722	5.05
423.164	5.06
423.606	5.07
424.048	5.08
424.49	5.09
424.932	5.08
425.374	5.07
425.816	5.06
426.258	5.04
426.699	5.02
427.141	5
427.582	4.99
428.024	5
428.465	5.01
428.907	5.01
429.348	4.99
429.789	4.98
430.231	4.99
430.672	5
431.113	5.04
431.554	5.06
431.995	5.08
432.436	5.08
432.877	5.07
433.318	5.07
433.759	5.08
434.2	5.1
434.64	5.12
435.081	5.13
435.522	5.15
435.962	5.17
436.403	5.2
436.843	5.21
437.284	5.22
437.724	5.24
438.164	5.24
438.604	5.25
439.045	5.26
439.485	5.26
439.925	5.26
440.365	5.26
440.805	5.27
441.245	5.27
441.685	5.29
442.125	5.3
442.564	5.31
443.004	5.31
443.444	5.32
443.883	5.33
444.323	5.31
444.762	5.33
445.202	5.33
445.641	5.33
446.081	5.34
446.52	5.33
446.959	5.35
447.398	5.36
447.837	5.37
448.276	5.37
448.716	5.39
449.154	5.43
449.593	5.45
450.032	5.45
450.471	5.44
450.91	5.43
451.349	5.44
451.787	5.42
452.226	5.42
452.664	5.41
453.103	5.4
453.541	5.39
453.98	5.39
454.418	5.35
454.856	5.34
455.295	5.32
455.733	5.29
456.171	5.27
456.609	5.26
457.047	5.22
457.485	5.2
457.923	5.19
458.361	5.17
458.798	5.15
459.236	5.15
459.674	5.13
460.111	5.12
460.549	5.14
460.987	5.14
461.424	5.14
461.862	5.15
462.299	5.16
462.736	5.16
463.173	5.18
463.611	5.19
464.048	5.19
464.485	5.21
464.922	5.21
465.359	5.21
465.796	5.22
466.233	5.22
466.67	5.22
467.106	5.23
467.543	5.23
467.98	5.22
468.416	5.21
468.853	5.21
469.29	5.2
469.726	5.2
470.162	5.2
470.599	5.21
471.035	5.21
471.471	5.2
471.907	5.2
472.344	5.21
472.78	5.21
473.216	5.21
473.652	5.22
474.088	5.2
474.523	5.21
474.959	5.21
475.395	5.19
475.831	5.18
476.266	5.18
476.702	5.17
477.138	5.16
477.573	5.15
478.008	5.14
478.444	5.11
478.879	5.12
479.314	5.1
479.75	5.1
480.185	5.08
480.62	5.06
481.055	5.04
481.49	5.04
481.925	5.02
482.36	5.01
482.795	5
483.229	4.99
483.664	4.99
484.099	4.99
484.534	4.98
484.968	4.99
485.403	5
485.837	5.01
486.271	5.02
486.706	5.03
487.14	5.04
487.574	5.06
488.009	5.08
488.443	5.09
488.877	5.11
489.311	5.13
489.745	5.15
490.179	5.18
490.613	5.21
491.046	5.23
491.48	5.27
491.914	5.3
492.348	5.33
492.781	5.37
493.215	5.42
493.648	5.47
494.082	5.51
494.515	5.55
494.948	5.59
495.382	5.64
495.815	5.69
496.248	5.76
496.681	5.82
497.114	5.88
497.547	5.95
497.98	6.01
498.413	6.08
498.846	6.16
499.279	6.25
499.711	6.34
500.144	6.43
500.577	6.52
501.009	6.62
501.442	6.73
501.874	6.85
502.306	6.94
502.739	7.07
503.171	7.19
503.603	7.31
504.036	7.44
504.468	7.58
504.9	7.71
505.332	7.85
505.764	7.99
506.196	8.14
506.627	8.29
507.059	8.46
507.491	8.62
507.923	8.8
508.354	8.98
508.786	9.17
509.217	9.35
509.649	9.54
510.08	9.74
510.512	9.94
510.943	10.14
511.374	10.36
511.805	10.58
512.237	10.79
512.668	11.01
513.099	11.25
513.53	11.47
513.961	11.71
514.391	11.94
514.822	12.19
515.253	12.43
515.684	12.67
516.114	12.91
516.545	13.15
516.975	13.4
517.406	13.63
517.836	13.88
518.267	14.12
518.697	14.35
519.127	14.58
519.558	14.83
519.988	15.06
520.418	15.28
520.848	15.5
521.278	15.73
521.708	16.05
522.138	16.28
522.567	16.48
522.997	16.68
523.427	16.9
523.857	17.09
524.286	17.27
524.716	17.46
525.145	17.64
525.575	17.83
526.004	18
526.433	18.07
526.863	18.23
527.292	18.4
527.721	18.55
528.15	18.67
528.579	18.82
529.008	18.97
529.437	19.09
529.866	19.21
530.295	19.32
530.724	19.43
531.152	19.53
531.581	19.62
532.01	19.71
532.438	19.8
532.867	19.88
533.295	19.96
533.723	20.01
534.152	20.07
534.58	20.14
535.008	20.19
535.436	20.25
535.865	20.28
536.293	20.32
536.721	20.37
537.149	20.41
537.576	20.45
538.004	20.48
538.432	20.52
538.86	20.55
539.287	20.57
539.715	20.6
540.143	20.62
540.57	20.66
540.998	20.68
541.425	20.7
541.852	20.72
542.28	20.74
542.707	20.76
543.134	20.79
543.561	20.83
543.988	20.87
544.415	20.88
544.842	20.9
545.269	20.93
545.696	20.95
546.123	20.97
546.549	20.99
546.976	21.02
547.403	21.05
547.829	21.07
548.256	21.08
548.682	21.09
549.108	21.11
549.535	21.14
549.961	21.16
550.387	21.17
550.813	21.2
551.24	21.21
551.666	21.2
552.092	21.2
552.518	21.2
552.943	21.19
553.369	21.19
553.795	21.19
554.221	21.15
554.646	21.12
555.072	21.09
555.498	21.04
555.923	21
556.349	20.95
556.774	20.9
557.199	20.84
557.625	20.78
558.05	20.72
558.475	20.66
558.9	20.61
559.325	20.53
559.75	20.47
560.175	20.4
560.6	20.32
561.025	20.24
561.449	20.15
561.874	20.06
562.299	19.97
562.723	19.86
563.148	19.74
563.572	19.62
563.997	19.51
564.421	19.39
564.846	19.25
565.27	19.13
565.694	19.01
566.118	18.87
566.542	18.74
566.966	18.59
567.39	18.46
567.814	18.32
568.238	18.19
568.662	18.05
569.086	17.92
569.509	17.77
569.933	17.64
570.357	17.5
570.78	17.36
571.204	17.24
571.627	17.11
572.05	16.99
572.474	16.88
572.897	16.78
573.32	16.66
573.743	16.56
574.166	16.47
574.589	16.37
575.012	16.27
575.435	16.18
575.858	16.09
576.281	16.01
576.704	15.93
577.126	15.85
577.549	15.75
577.972	15.67
578.394	15.59
578.817	15.5
579.239	15.44
579.661	15.37
580.084	15.29
580.506	15.22
580.928	15.15
581.35	15.08
581.772	15
582.194	14.96
582.616	14.91
583.038	14.85
583.46	14.79
583.882	14.73
584.303	14.67
584.725	14.63
585.147	14.56
585.568	14.52
585.99	14.47
586.411	14.41
586.833	14.35
587.254	14.28
587.675	14.22
588.096	14.17
588.518	14.12
588.939	14.09
589.36	14.04
589.781	14.01
590.202	13.95
590.623	13.91
591.043	13.87
591.464	13.84
591.885	13.8
592.305	13.8
592.726	13.77
593.147	13.74
593.567	13.71
593.987	13.68
594.408	13.65
594.828	13.62
595.248	13.6
595.669	13.57
596.089	13.53
596.509	13.51
596.929	13.47
597.349	13.44
597.769	13.4
598.189	13.37
598.608	13.34
599.028	13.3
599.448	13.26
599.867	13.22
600.287	13.18
600.706	13.15
601.126	13.11
601.545	13.07
601.965	13.03
602.384	12.98
602.803	12.92
603.222	12.88
603.641	12.83
604.061	12.79
604.48	12.74
604.898	12.69
605.317	12.64
605.736	12.59
606.155	12.53
606.574	12.48
606.992	12.43
607.411	12.38
607.829	12.31
608.248	12.23
608.666	12.16
609.085	12.1
609.503	12.05
609.921	11.99
610.339	11.93
610.758	11.88
611.176	11.81
611.594	11.75
612.012	11.69
612.43	11.64
612.847	11.6
613.265	11.54
613.683	11.48
614.101	11.43
614.518	11.37
614.936	11.31
615.353	11.25
615.771	11.22
616.188	11.16
616.606	11.11
617.023	11.07
617.44	11.03
617.857	11
618.274	10.95
618.691	10.91
619.108	10.86
619.525	10.83
619.942	10.8
620.359	10.75
620.776	10.72
621.192	10.69
621.609	10.67
622.026	10.64
622.442	10.61
622.859	10.6
623.275	10.58
623.691	10.56
624.108	10.54
624.524	10.53
624.94	10.52
625.356	10.52
625.772	10.5
626.188	10.49
626.604	10.48
627.02	10.47
627.436	10.45
627.852	10.44
628.268	10.43
628.683	10.42
629.099	10.41
629.514	10.4
629.93	10.37
630.345	10.35
630.761	10.31
631.176	10.28
631.591	10.24
632.007	10.2
632.422	10.16
632.837	10.12
633.252	10.07
633.667	10
634.082	9.94
634.497	9.88
634.911	9.81
635.326	9.75
635.741	9.67
636.155	9.6
636.57	9.52
636.984	9.42
637.399	9.33
637.813	9.24
638.228	9.14
638.642	9.04
639.056	8.94
639.47	8.84
639.884	8.74
640.298	8.64
640.712	8.53
641.126	8.43
641.54	8.34
641.954	8.22
642.368	8.12
642.781	8.03
643.195	7.94
643.609	7.85
644.022	7.77
644.436	7.69
644.849	7.6
645.262	7.52
645.676	7.45
646.089	7.39
646.502	7.34
646.915	7.29
647.328	7.24
647.741	7.19
648.154	7.15
648.567	7.1
648.98	7.05
649.393	7.03
649.805	6.99
650.218	6.97
650.631	6.94
651.043	6.9
651.456	6.88
651.868	6.85
652.28	6.82
652.693	6.79
653.105	6.77
653.517	6.74
653.929	6.71
654.341	6.67
654.753	6.62
655.165	6.57
655.577	6.53
655.989	6.49
656.401	6.44
656.813	6.4
657.224	6.34
657.636	6.27
658.047	6.22
658.459	6.16
658.87	6.11
659.282	6.06
659.693	6
660.104	5.94
660.515	5.87
660.926	5.81
661.338	5.75
661.749	5.7
662.159	5.66
662.57	5.61
662.981	5.57
663.392	5.51
663.803	5.47
664.213	5.42
664.624	5.38
665.035	5.35
665.445	5.32
665.855	5.28
666.266	5.26
666.676	5.24
667.086	5.2
667.497	5.17
667.907	5.16
668.317	5.15
668.727	5.14
669.137	5.14
669.547	5.14
669.956	5.13
670.366	5.13
670.776	5.12
671.186	5.13
671.595	5.13
672.005	5.14
672.414	5.15
672.824	5.14
673.233	5.15
673.642	5.16
674.052	5.17
674.461	5.19
674.87	5.2
675.279	5.22
675.688	5.24
676.097	5.26
676.506	5.29
676.915	5.32
677.323	5.35
677.732	5.38
678.141	5.41
678.549	5.45
678.958	5.5
679.366	5.55
679.775	5.6
680.183	5.66
680.592	5.73
681	5.8
681.408	5.87
681.816	5.96
682.224	6.06
682.632	6.17
683.04	6.28
683.448	6.4
683.856	6.53
684.264	6.69
684.671	6.86
685.079	7.04
685.487	7.24
685.894	7.46
686.302	7.71
686.709	7.97
687.116	8.25
687.524	8.55
687.931	8.88
688.338	9.24
688.745	9.6
689.152	9.97
689.559	10.38
689.966	10.8
690.373	11.24
690.78	11.68
691.187	12.14
691.593	12.61
692	13.08
692.407	13.56
692.813	14.04
693.22	14.54
693.626	15.04
694.032	15.53
694.439	16.03
694.845	16.54
695.251	17.05
695.657	17.55
696.063	18.05
696.469	18.55
696.875	19.05
697.281	19.56
697.687	20.07
698.093	20.56
698.498	21.03
698.904	21.53
699.31	21.98
699.715	22.45
700.12	22.91
700.526	23.36
700.931	23.8
701.337	24.23
701.742	24.65
702.147	25.06
702.552	25.47
702.957	25.87
703.362	26.27
703.767	26.67
704.172	27.05
704.577	27.42
704.981	27.81
705.386	28.18
705.791	28.52
706.195	28.87
706.6	29.21
707.004	29.54
707.408	29.88
707.813	30.2
708.217	30.53
708.621	30.85
709.025	31.15
709.43	31.44
709.834	31.74
710.237	32.05
710.641	32.32
711.045	32.6
711.449	32.91
711.853	33.19
712.256	33.46
712.66	33.73
713.064	33.99
713.467	34.22
713.87	34.48
714.274	34.72
714.677	34.99
715.08	35.24
715.484	35.48
715.887	35.7
716.29	35.91
716.693	36.13
717.096	36.32
717.499	36.53
717.901	36.78
718.304	36.99
718.707	37.19
719.109	37.38
719.512	37.57
719.915	37.75
720.317	37.91
720.719	38.07
721.122	38.25
721.524	38.43
721.926	38.61
722.328	38.75
722.731	38.89
723.133	39.05
723.535	39.18
723.937	39.33
724.338	39.46
724.74	39.63
725.142	39.8
725.544	39.91
725.945	40.03
726.347	40.14
726.748	40.23
727.15	40.36
727.551	40.46
727.952	40.57
728.354	40.65
728.755	40.75
729.156	40.85
729.557	40.91
729.958	40.99
730.359	41.08
730.76	41.17
731.161	41.27
731.562	41.34
731.962	41.39
732.363	41.47
732.763	41.57
733.164	41.65
733.564	41.7
733.965	41.76
734.365	41.86
734.766	41.91
735.166	41.96
735.566	42.01
735.966	42.07
736.366	42.11
736.766	42.16
737.166	42.18
737.566	42.24
737.966	42.25
738.365	42.29
738.765	42.32
739.165	42.36
739.564	42.39
739.964	42.43
740.363	42.44
740.763	42.48
741.162	42.52
741.561	42.53
741.96	42.53
742.36	42.6
742.759	42.63
743.158	42.65
743.557	42.66
743.955	42.7
744.354	42.72
744.753	42.76
745.152	42.82
745.55	42.85
745.949	42.91
746.348	42.93
746.746	42.93
747.144	42.97
747.543	42.97
747.941	43.02
748.339	43.02
748.737	43.03
749.136	43.04
749.534	43.03
749.932	43.02
750.33	43.01
750.727	43.03
751.125	43.05
751.523	43.02
751.921	43.02
752.318	43
752.716	43.01
753.113	42.98
753.511	42.97
753.908	43
754.305	43
754.703	42.99
755.1	42.98
755.497	42.97
755.894	42.96
756.291	42.96
756.688	42.94
757.085	42.93
757.482	42.92
757.878	42.9
758.275	42.87
758.672	42.86
759.068	42.88
759.465	42.86
759.861	42.86
760.258	42.87
760.654	42.85
761.05	42.88
761.447	42.89
761.843	42.9
762.239	42.92
762.635	42.91
763.031	42.92
763.427	42.91
763.822	42.92
764.218	42.94
764.614	42.94
765.01	42.96
765.405	42.93
765.801	42.92
766.196	42.92
766.592	42.92
766.987	42.91
767.382	42.88
767.778	42.91
768.173	42.9
768.568	42.89
768.963	42.88
769.358	42.89
769.753	42.92
770.148	42.92
770.542	42.92
770.937	42.94
771.332	42.98
771.726	42.98
772.121	42.95
772.515	42.96
772.91	42.96
773.304	42.98
773.699	42.98
774.093	42.96
774.487	42.98
774.881	43
775.275	42.99
775.669	42.96
776.063	42.98
776.457	43
776.851	42.98
777.245	42.96
777.638	42.95
778.032	42.95
778.425	42.97
778.819	42.96
779.212	42.96
779.606	42.97
779.999	42.98
780.392	43.01
780.786	43.01
781.179	43.06
781.572	43.1
781.965	43.13
782.358	43.15
782.751	43.13
783.143	43.16
783.536	43.16
783.929	43.16
