Data from C_3_DIV_OH_2N_Splice17_13-48-20-223.txt Node
Date: Sat Mar 07 13:48:20 EST 2020
User: sa697716
Spectrometer: NQ5500242
Trigger mode: 0
Integration Time (sec): 1.450000E-1
Scans to average: 20
Nonlinearity correction enabled: false
Boxcar width: 5
Storing dark spectrum: false
XAxis mode: Wavelengths
Number of Pixels in Spectrum: 512
>>>>>Begin Spectral Data<<<<<
187.83	245.27
188.298	270.07
188.766	267.42
189.233	217.62
189.701	238.35
190.169	266.35
190.636	280.58
191.104	493.73
191.571	58.18
192.039	-153.2
192.506	117.11
192.974	-42.58
193.441	-35.71
193.908	86.75
194.375	101.09
194.842	94.33
195.31	76.13
195.777	199.79
196.244	69.77
196.711	39.87
197.177	41.43
197.644	40.34
198.111	40.06
198.578	40.25
199.045	40.98
199.511	40.56
199.978	40.5
200.445	41.2
200.911	40.95
201.378	40.47
201.844	40.68
202.31	40.62
202.777	40.85
203.243	40.76
203.709	40.68
204.176	39.94
204.642	39.85
205.108	39.85
205.574	38.99
206.04	38.56
206.506	38.52
206.972	38.25
207.438	37.98
207.903	37.54
208.369	36.76
208.835	36.11
209.301	35.56
209.766	34.39
210.232	33.37
210.697	32.65
211.163	31.84
211.628	31.05
212.094	30.26
212.559	29.48
213.024	28.51
213.49	28.1
213.955	27.24
214.42	26.64
214.885	26.05
215.35	25.18
215.815	24.21
216.28	22.57
216.745	20.91
217.21	19.26
217.675	17.65
218.14	16.41
218.604	15.21
219.069	14.32
219.534	13.5
219.998	12.83
220.463	12.28
220.927	11.77
221.392	11.4
221.856	11.08
222.32	10.8
222.785	10.62
223.249	10.44
223.713	10.26
224.177	10.1
224.642	9.92
225.106	9.75
225.57	9.59
226.034	9.46
226.497	9.36
226.961	9.25
227.425	9.14
227.889	9.02
228.353	8.89
228.816	8.8
229.28	8.71
229.744	8.62
230.207	8.54
230.671	8.46
231.134	8.36
231.597	8.29
232.061	8.2
232.524	8.12
232.987	8.03
233.45	7.98
233.914	7.91
234.377	7.83
234.84	7.76
235.303	7.69
235.766	7.65
236.229	7.58
236.691	7.51
237.154	7.45
237.617	7.4
238.08	7.34
238.542	7.26
239.005	7.21
239.468	7.15
239.93	7.1
240.393	7.04
240.855	6.97
241.317	6.91
241.78	6.85
242.242	6.78
242.704	6.73
243.166	6.68
243.629	6.65
244.091	6.59
244.553	6.53
245.015	6.47
245.477	6.41
245.939	6.36
246.4	6.31
246.862	6.27
247.324	6.23
247.786	6.18
248.247	6.13
248.709	6.06
249.17	6.01
249.632	5.98
250.093	5.95
250.555	5.91
251.016	5.87
251.477	5.83
251.939	5.8
252.4	5.77
252.861	5.73
253.322	5.69
253.783	5.66
254.244	5.64
254.705	5.6
255.166	5.57
255.627	5.54
256.088	5.51
256.549	5.47
257.009	5.43
257.47	5.39
257.931	5.36
258.391	5.32
258.852	5.29
259.312	5.26
259.773	5.23
260.233	5.2
260.694	5.17
261.154	5.14
261.614	5.11
262.074	5.08
262.534	5.05
262.994	5.03
263.455	5.01
263.915	4.99
264.374	4.96
264.834	4.95
265.294	4.92
265.754	4.91
266.214	4.89
266.673	4.88
267.133	4.88
267.593	4.87
268.052	4.86
268.512	4.86
268.971	4.85
269.431	4.84
269.89	4.83
270.349	4.82
270.809	4.81
271.268	4.8
271.727	4.79
272.186	4.78
272.645	4.77
273.104	4.76
273.563	4.74
274.022	4.73
274.481	4.73
274.94	4.72
275.399	4.71
275.857	4.7
276.316	4.69
276.775	4.69
277.233	4.68
277.692	4.67
278.15	4.67
278.609	4.67
279.067	4.66
279.525	4.65
279.984	4.64
280.442	4.63
280.9	4.64
281.358	4.63
281.816	4.62
282.274	4.61
282.732	4.6
283.19	4.59
283.648	4.58
284.106	4.57
284.564	4.56
285.021	4.56
285.479	4.55
285.937	4.53
286.394	4.53
286.852	4.51
287.309	4.5
287.767	4.49
288.224	4.48
288.682	4.46
289.139	4.45
289.596	4.42
290.053	4.4
290.511	4.38
290.968	4.37
291.425	4.34
291.882	4.34
292.339	4.32
292.796	4.31
293.252	4.3
293.709	4.3
294.166	4.29
294.623	4.29
295.079	4.28
295.536	4.27
295.992	4.27
296.449	4.26
296.905	4.25
297.362	4.25
297.818	4.24
298.274	4.24
298.731	4.23
299.187	4.21
299.643	4.2
300.099	4.2
300.555	4.19
301.011	4.18
301.467	4.18
301.923	4.17
302.379	4.17
302.835	4.17
303.291	4.16
303.746	4.15
304.202	4.15
304.658	4.15
305.113	4.14
305.569	4.14
306.024	4.14
306.479	4.13
306.935	4.12
307.39	4.11
307.845	4.11
308.301	4.11
308.756	4.12
309.211	4.11
309.666	4.12
310.121	4.11
310.576	4.1
311.031	4.1
311.486	4.09
311.94	4.09
312.395	4.1
312.85	4.09
313.305	4.08
313.759	4.09
314.214	4.08
314.668	4.07
315.123	4.08
315.577	4.08
316.032	4.07
316.486	4.07
316.94	4.07
317.394	4.05
317.849	4.04
318.303	4.03
318.757	4.01
319.211	4
319.665	3.99
320.119	3.98
320.572	3.96
321.026	3.95
321.48	3.94
321.934	3.92
322.387	3.91
322.841	3.9
323.295	3.91
323.748	3.89
324.202	3.89
324.655	3.88
325.108	3.89
325.562	3.9
326.015	3.9
326.468	3.89
326.921	3.89
327.374	3.89
327.827	3.9
328.28	3.9
328.733	3.9
329.186	3.89
329.639	3.89
330.092	3.88
330.545	3.88
330.997	3.87
331.45	3.88
331.903	3.89
332.355	3.89
332.808	3.89
333.26	3.88
333.713	3.88
334.165	3.88
334.617	3.89
335.069	3.88
335.522	3.88
335.974	3.89
336.426	3.88
336.878	3.87
337.33	3.87
337.782	3.86
338.234	3.87
338.686	3.88
339.137	3.88
339.589	3.86
340.041	3.86
340.493	3.85
340.944	3.84
341.396	3.83
341.847	3.82
342.299	3.81
342.75	3.81
343.201	3.78
343.653	3.76
344.104	3.74
344.555	3.74
345.006	3.73
345.457	3.73
345.908	3.71
346.359	3.72
346.81	3.72
347.261	3.71
347.712	3.71
348.163	3.71
348.613	3.73
349.064	3.74
349.515	3.74
349.965	3.75
350.416	3.74
350.866	3.74
351.317	3.73
351.767	3.73
352.217	3.73
352.668	3.74
353.118	3.74
353.568	3.72
354.018	3.73
354.468	3.74
354.918	3.73
355.368	3.74
355.818	3.75
356.268	3.75
356.718	3.77
357.168	3.77
357.617	3.77
358.067	3.78
358.517	3.8
358.966	3.82
359.416	3.83
359.865	3.84
360.315	3.85
360.764	3.86
361.213	3.88
361.663	3.87
362.112	3.89
362.561	3.91
363.01	3.92
363.459	3.91
363.908	3.92
364.357	3.93
364.806	3.96
365.255	3.98
365.703	4.01
366.152	4.03
366.601	4.07
367.05	4.1
367.498	4.13
367.947	4.16
368.395	4.19
368.844	4.22
369.292	4.24
369.74	4.28
370.189	4.31
370.637	4.34
371.085	4.37
371.533	4.4
371.981	4.44
372.429	4.47
372.877	4.51
373.325	4.56
373.773	4.6
374.221	4.64
374.669	4.68
375.116	4.73
375.564	4.77
376.012	4.83
376.459	4.88
376.907	4.94
377.354	5
377.801	5.07
378.249	5.12
378.696	5.19
379.143	5.25
379.591	5.31
380.038	5.39
380.485	5.46
380.932	5.52
381.379	5.6
381.826	5.66
382.273	5.71
382.72	5.76
383.166	5.83
383.613	5.88
384.06	5.94
384.506	6.01
384.953	6.07
385.4	6.12
385.846	6.19
386.292	6.24
386.739	6.29
387.185	6.35
387.631	6.43
388.078	6.49
388.524	6.56
388.97	6.64
389.416	6.71
389.862	6.77
390.308	6.84
390.754	6.9
391.2	6.97
391.645	7.04
392.091	7.12
392.537	7.19
392.983	7.24
393.428	7.3
393.874	7.35
394.319	7.42
394.765	7.47
395.21	7.51
395.655	7.56
396.101	7.61
396.546	7.64
396.991	7.68
397.436	7.72
397.881	7.78
398.326	7.81
398.771	7.85
399.216	7.87
399.661	7.89
400.106	7.91
400.551	7.93
400.995	7.92
401.44	7.94
401.885	7.95
402.329	7.95
402.774	7.96
403.218	7.98
403.663	7.98
404.107	7.99
404.551	7.99
404.995	8
405.44	7.99
405.884	7.99
406.328	7.99
406.772	7.98
407.216	7.98
407.66	7.97
408.104	7.94
408.547	7.94
408.991	7.94
409.435	7.93
409.879	7.93
410.322	7.95
410.766	7.96
411.209	7.98
411.653	7.99
412.096	8
412.54	8
412.983	8.01
413.426	8.03
413.869	8.02
414.312	8.04
414.756	8.04
415.199	8.02
415.642	8.01
416.085	8.01
416.527	7.99
416.97	7.95
417.413	7.93
417.856	7.93
418.298	7.91
418.741	7.89
419.184	7.87
419.626	7.88
420.069	7.89
420.511	7.9
420.953	7.89
421.396	7.9
421.838	7.91
422.28	7.91
422.722	7.92
423.164	7.91
423.606	7.91
424.048	7.9
424.49	7.88
424.932	7.85
425.374	7.8
425.816	7.76
426.258	7.74
426.699	7.72
427.141	7.71
427.582	7.7
428.024	7.69
428.465	7.68
428.907	7.65
429.348	7.63
429.789	7.63
430.231	7.65
430.672	7.68
431.113	7.7
431.554	7.69
431.995	7.69
432.436	7.7
432.877	7.71
433.318	7.75
433.759	7.78
434.2	7.81
434.64	7.82
435.081	7.84
435.522	7.85
435.962	7.86
436.403	7.9
436.843	7.91
437.284	7.91
437.724	7.92
438.164	7.92
438.604	7.95
439.045	7.97
439.485	7.99
439.925	8.01
440.365	8.04
440.805	8.06
441.245	8.11
441.685	8.16
442.125	8.2
442.564	8.24
443.004	8.28
443.444	8.32
443.883	8.39
444.323	8.45
444.762	8.51
445.202	8.58
445.641	8.66
446.081	8.71
446.52	8.77
446.959	8.85
447.398	8.92
447.837	8.99
448.276	9.04
448.716	9.09
449.154	9.15
449.593	9.2
450.032	9.24
450.471	9.26
450.91	9.29
451.349	9.33
451.787	9.34
452.226	9.35
452.664	9.37
453.103	9.38
453.541	9.39
453.98	9.42
454.418	9.41
454.856	9.43
455.295	9.44
455.733	9.43
456.171	9.43
456.609	9.45
457.047	9.45
457.485	9.47
457.923	9.48
458.361	9.48
458.798	9.48
459.236	9.49
459.674	9.47
460.111	9.47
460.549	9.48
460.987	9.47
461.424	9.47
461.862	9.48
462.299	9.48
462.736	9.48
463.173	9.48
463.611	9.47
464.048	9.46
464.485	9.48
464.922	9.49
465.359	9.48
465.796	9.53
466.233	9.53
466.67	9.56
467.106	9.56
467.543	9.55
467.98	9.55
468.416	9.54
468.853	9.55
469.29	9.55
469.726	9.56
470.162	9.56
470.599	9.54
471.035	9.53
471.471	9.51
471.907	9.5
472.344	9.53
472.78	9.55
473.216	9.56
473.652	9.58
474.088	9.56
474.523	9.58
474.959	9.59
475.395	9.58
475.831	9.6
476.266	9.62
476.702	9.63
477.138	9.63
477.573	9.65
478.008	9.66
478.444	9.67
478.879	9.69
479.314	9.7
479.75	9.71
480.185	9.72
480.62	9.72
481.055	9.73
481.49	9.74
481.925	9.76
482.36	9.79
482.795	9.8
483.229	9.82
483.664	9.85
484.099	9.87
484.534	9.9
484.968	9.94
485.403	9.98
485.837	10.02
486.271	10.07
486.706	10.11
487.14	10.14
487.574	10.21
488.009	10.26
488.443	10.32
488.877	10.38
489.311	10.45
489.745	10.53
490.179	10.61
490.613	10.7
491.046	10.78
491.48	10.87
491.914	10.97
492.348	11.04
492.781	11.14
493.215	11.26
493.648	11.37
494.082	11.48
494.515	11.59
494.948	11.7
495.382	11.81
495.815	11.93
496.248	12.07
496.681	12.21
497.114	12.36
497.547	12.5
497.98	12.66
498.413	12.82
498.846	12.97
499.279	13.14
499.711	13.31
500.144	13.49
500.577	13.68
501.009	13.86
501.442	14.05
501.874	14.27
502.306	14.48
502.739	14.7
503.171	14.91
503.603	15.12
504.036	15.34
504.468	15.58
504.9	15.8
505.332	16.04
505.764	16.28
506.196	16.53
506.627	16.76
507.059	17.01
507.491	17.25
507.923	17.51
508.354	17.8
508.786	18.08
509.217	18.37
509.649	18.65
510.08	18.92
510.512	19.21
510.943	19.48
511.374	19.78
511.805	20.06
512.237	20.34
512.668	20.63
513.099	20.92
513.53	21.21
513.961	21.5
514.391	21.79
514.822	22.11
515.253	22.4
515.684	22.68
516.114	22.97
516.545	23.25
516.975	23.54
517.406	23.81
517.836	24.07
518.267	24.35
518.697	24.61
519.127	24.85
519.558	25.09
519.988	25.34
520.418	25.57
520.848	25.8
521.278	26.03
521.708	26.54
522.138	26.76
522.567	26.97
522.997	27.17
523.427	27.37
523.857	27.57
524.286	27.74
524.716	27.93
525.145	28.1
525.575	28.3
526.004	28.48
526.433	28.35
526.863	28.51
527.292	28.65
527.721	28.79
528.15	28.9
528.579	29.03
529.008	29.15
529.437	29.26
529.866	29.36
530.295	29.46
530.724	29.55
531.152	29.64
531.581	29.74
532.01	29.84
532.438	29.92
532.867	30.02
533.295	30.1
533.723	30.18
534.152	30.26
534.58	30.35
535.008	30.39
535.436	30.47
535.865	30.54
536.293	30.58
536.721	30.62
537.149	30.68
537.576	30.74
538.004	30.79
538.432	30.84
538.86	30.87
539.287	30.88
539.715	30.94
540.143	30.95
540.57	30.97
540.998	30.99
541.425	31.01
541.852	31.04
542.28	31.06
542.707	31.08
543.134	31.1
543.561	31.12
543.988	31.15
544.415	31.15
544.842	31.16
545.269	31.19
545.696	31.23
546.123	31.26
546.549	31.3
546.976	31.32
547.403	31.35
547.829	31.38
548.256	31.4
548.682	31.41
549.108	31.46
549.535	31.5
549.961	31.51
550.387	31.53
550.813	31.55
551.24	31.56
551.666	31.55
552.092	31.56
552.518	31.57
552.943	31.58
553.369	31.59
553.795	31.6
554.221	31.59
554.646	31.58
555.072	31.56
555.498	31.53
555.923	31.51
556.349	31.48
556.774	31.44
557.199	31.41
557.625	31.36
558.05	31.34
558.475	31.28
558.9	31.26
559.325	31.25
559.75	31.2
560.175	31.16
560.6	31.1
561.025	31.07
561.449	31.02
561.874	30.95
562.299	30.89
562.723	30.81
563.148	30.74
563.572	30.63
563.997	30.54
564.421	30.45
564.846	30.36
565.27	30.27
565.694	30.17
566.118	30.07
566.542	29.99
566.966	29.9
567.39	29.81
567.814	29.72
568.238	29.63
568.662	29.51
569.086	29.43
569.509	29.33
569.933	29.24
570.357	29.15
570.78	29.05
571.204	28.96
571.627	28.87
572.05	28.77
572.474	28.7
572.897	28.62
573.32	28.54
573.743	28.43
574.166	28.35
574.589	28.26
575.012	28.17
575.435	28.1
575.858	28.02
576.281	27.93
576.704	27.83
577.126	27.74
577.549	27.66
577.972	27.58
578.394	27.53
578.817	27.46
579.239	27.39
579.661	27.34
580.084	27.26
580.506	27.21
580.928	27.16
581.35	27.12
581.772	27.05
582.194	26.99
582.616	26.93
583.038	26.85
583.46	26.78
583.882	26.74
584.303	26.67
584.725	26.62
585.147	26.57
585.568	26.52
585.99	26.46
586.411	26.42
586.833	26.36
587.254	26.31
587.675	26.27
588.096	26.24
588.518	26.19
588.939	26.14
589.36	26.08
589.781	26.02
590.202	25.98
590.623	25.94
591.043	25.89
591.464	25.87
591.885	25.83
592.305	25.79
592.726	25.75
593.147	25.72
593.567	25.69
593.987	25.66
594.408	25.62
594.828	25.59
595.248	25.59
595.669	25.57
596.089	25.53
596.509	25.52
596.929	25.5
597.349	25.48
597.769	25.46
598.189	25.41
598.608	25.39
599.028	25.37
599.448	25.33
599.867	25.29
600.287	25.24
600.706	25.22
601.126	25.17
601.545	25.14
601.965	25.1
602.384	25.05
602.803	25.02
603.222	24.98
603.641	24.94
604.061	24.9
604.48	24.83
604.898	24.78
605.317	24.73
605.736	24.68
606.155	24.63
606.574	24.54
606.992	24.47
607.411	24.41
607.829	24.31
608.248	24.22
608.666	24.14
609.085	24.07
609.503	23.99
609.921	23.91
610.339	23.82
610.758	23.73
611.176	23.65
611.594	23.58
612.012	23.51
612.43	23.46
612.847	23.39
613.265	23.31
613.683	23.24
614.101	23.17
614.518	23.08
614.936	23.01
615.353	22.92
615.771	22.86
616.188	22.78
616.606	22.72
617.023	22.64
617.44	22.59
617.857	22.53
618.274	22.46
618.691	22.4
619.108	22.34
619.525	22.3
619.942	22.26
620.359	22.22
620.776	22.18
621.192	22.15
621.609	22.12
622.026	22.08
622.442	22.05
622.859	22.03
623.275	22.02
623.691	22
624.108	21.99
624.524	21.98
624.94	21.97
625.356	21.95
625.772	21.94
626.188	21.91
626.604	21.91
627.02	21.9
627.436	21.88
627.852	21.87
628.268	21.85
628.683	21.83
629.099	21.82
629.514	21.8
629.93	21.77
630.345	21.75
630.761	21.73
631.176	21.69
631.591	21.65
632.007	21.62
632.422	21.57
632.837	21.51
633.252	21.45
633.667	21.37
634.082	21.3
634.497	21.24
634.911	21.16
635.326	21.07
635.741	20.98
636.155	20.86
636.57	20.76
636.984	20.65
637.399	20.55
637.813	20.43
638.228	20.3
638.642	20.17
639.056	20.03
639.47	19.88
639.884	19.74
640.298	19.58
640.712	19.46
641.126	19.3
641.54	19.14
641.954	18.98
642.368	18.83
642.781	18.68
643.195	18.52
643.609	18.35
644.022	18.19
644.436	18.03
644.849	17.87
645.262	17.71
645.676	17.57
646.089	17.45
646.502	17.33
646.915	17.2
647.328	17.09
647.741	16.98
648.154	16.9
648.567	16.83
648.98	16.75
649.393	16.67
649.805	16.62
650.218	16.55
650.631	16.47
651.043	16.39
651.456	16.31
651.868	16.23
652.28	16.15
652.693	16.06
653.105	15.97
653.517	15.88
653.929	15.8
654.341	15.68
654.753	15.58
655.165	15.46
655.577	15.35
655.989	15.23
656.401	15.1
656.813	14.98
657.224	14.84
657.636	14.68
658.047	14.53
658.459	14.36
658.87	14.2
659.282	14.01
659.693	13.85
660.104	13.67
660.515	13.48
660.926	13.3
661.338	13.1
661.749	12.92
662.159	12.74
662.57	12.56
662.981	12.39
663.392	12.2
663.803	12.05
664.213	11.88
664.624	11.72
665.035	11.57
665.445	11.43
665.855	11.3
666.266	11.18
666.676	11.06
667.086	10.93
667.497	10.83
667.907	10.73
668.317	10.63
668.727	10.55
669.137	10.47
669.547	10.41
669.956	10.33
670.366	10.28
670.776	10.22
671.186	10.18
671.595	10.13
672.005	10.09
672.414	10.07
672.824	10.04
673.233	10.02
673.642	10.02
674.052	10.02
674.461	10.01
674.87	10.01
675.279	10.03
675.688	10.04
676.097	10.07
676.506	10.09
676.915	10.12
677.323	10.17
677.732	10.21
678.141	10.28
678.549	10.34
678.958	10.44
679.366	10.55
679.775	10.67
680.183	10.83
680.592	11.01
681	11.21
681.408	11.43
681.816	11.67
682.224	11.94
682.632	12.22
683.04	12.54
683.448	12.87
683.856	13.23
684.264	13.62
684.671	14.02
685.079	14.44
685.487	14.9
685.894	15.39
686.302	15.89
686.709	16.41
687.116	16.96
687.524	17.52
687.931	18.1
688.338	18.69
688.745	19.29
689.152	19.87
689.559	20.5
689.966	21.13
690.373	21.75
690.78	22.36
691.187	22.97
691.593	23.58
692	24.18
692.407	24.77
692.813	25.36
693.22	25.91
693.626	26.48
694.032	27.03
694.439	27.56
694.845	28.07
695.251	28.58
695.657	29.05
696.063	29.54
696.469	30
696.875	30.44
697.281	30.86
697.687	31.28
698.093	31.7
698.498	32.07
698.904	32.44
699.31	32.81
699.715	33.17
700.12	33.52
700.526	33.85
700.931	34.17
701.337	34.48
701.742	34.76
702.147	35.06
702.552	35.34
702.957	35.6
703.362	35.85
703.767	36.08
704.172	36.3
704.577	36.53
704.981	36.76
705.386	36.97
705.791	37.19
706.195	37.4
706.6	37.62
707.004	37.8
707.408	37.99
707.813	38.19
708.217	38.37
708.621	38.55
709.025	38.72
709.43	38.85
709.834	39.02
710.237	39.16
710.641	39.31
711.045	39.44
711.449	39.6
711.853	39.77
712.256	39.89
712.66	40.03
713.064	40.16
713.467	40.3
713.87	40.45
714.274	40.54
714.677	40.67
715.08	40.79
715.484	40.91
715.887	41.02
716.29	41.1
716.693	41.22
717.096	41.32
717.499	41.44
717.901	41.54
718.304	41.65
718.707	41.76
719.109	41.84
719.512	41.93
719.915	42.03
720.317	42.1
720.719	42.15
721.122	42.21
721.524	42.27
721.926	42.33
722.328	42.4
722.731	42.43
723.133	42.5
723.535	42.57
723.937	42.61
724.338	42.63
724.74	42.71
725.142	42.99
725.544	43.03
725.945	43.14
726.347	43.16
726.748	43.21
727.15	43.27
727.551	43.34
727.952	43.37
728.354	43.44
728.755	43.47
729.156	43.49
729.557	43.31
729.958	43.35
730.359	43.33
730.76	43.41
731.161	43.43
731.562	43.45
731.962	43.44
732.363	43.46
732.763	43.48
733.164	43.51
733.564	43.55
733.965	43.58
734.365	43.61
734.766	43.61
735.166	43.62
735.566	43.65
735.966	43.69
736.366	43.7
736.766	43.74
737.166	43.78
737.566	43.8
737.966	43.8
738.365	43.81
738.765	43.85
739.165	43.88
739.564	43.9
739.964	43.9
740.363	43.89
740.763	43.93
741.162	43.95
741.561	43.94
741.96	43.94
742.36	43.95
742.759	43.96
743.158	43.97
743.557	43.97
743.955	43.98
744.354	44
744.753	44.01
745.152	44.02
745.55	44.02
745.949	44.03
746.348	44.07
746.746	44.05
747.144	44.08
747.543	44.06
747.941	44.06
748.339	44.03
748.737	44.02
749.136	44.01
749.534	43.97
749.932	43.96
750.33	43.95
750.727	43.95
751.125	43.98
751.523	43.96
751.921	43.98
752.318	43.99
752.716	44.02
753.113	44.06
753.511	44.07
753.908	44.12
754.305	44.15
754.703	44.16
755.1	44.17
755.497	44.18
755.894	44.19
756.291	44.2
756.688	44.2
757.085	44.2
757.482	44.18
757.878	44.19
758.275	44.16
758.672	44.15
759.068	44.17
759.465	44.17
759.861	44.16
760.258	44.15
760.654	44.15
761.05	44.17
761.447	44.17
761.843	44.18
762.239	44.18
762.635	44.2
763.031	44.22
763.427	44.22
763.822	44.22
764.218	44.23
764.614	44.25
765.01	44.23
765.405	44.23
765.801	44.23
766.196	44.26
766.592	44.23
766.987	44.23
767.382	44.21
767.778	44.2
768.173	44.19
768.568	44.18
768.963	44.17
769.358	44.22
769.753	44.2
770.148	44.21
770.542	44.2
770.937	44.23
771.332	44.24
771.726	44.26
772.121	44.28
772.515	44.28
772.91	44.28
773.304	44.32
773.699	44.3
774.093	44.31
774.487	44.31
774.881	44.34
775.275	44.35
775.669	44.32
776.063	44.28
776.457	44.26
776.851	44.26
777.245	44.25
777.638	44.23
