Data from C_3_HIR_WI_4N_Splice17_14-02-45-256.txt Node
Date: Sat Mar 07 14:02:45 EST 2020
User: sa697716
Spectrometer: NQ5500242
Trigger mode: 0
Integration Time (sec): 1.450000E-1
Scans to average: 20
Nonlinearity correction enabled: false
Boxcar width: 5
Storing dark spectrum: false
XAxis mode: Wavelengths
Number of Pixels in Spectrum: 512
>>>>>Begin Spectral Data<<<<<
187.83	99.68
188.298	114.94
188.766	88.61
189.233	86.79
189.701	92.57
190.169	118.24
190.636	134.9
191.104	209.16
191.571	223.79
192.039	249.43
192.506	185.16
192.974	-7.23
193.441	84.71
193.908	-25.2
194.375	41.95
194.842	34.88
195.31	64.99
195.777	147.31
196.244	61.51
196.711	58.29
197.177	59.39
197.644	58.64
198.111	58.01
198.578	58.3
199.045	59.02
199.511	58.87
199.978	58.9
200.445	58.98
200.911	58.95
201.378	59.21
201.844	59.23
202.31	59.04
202.777	58.84
203.243	58.93
203.709	58.42
204.176	57.54
204.642	57.06
205.108	56.77
205.574	56.37
206.04	55.52
206.506	54.71
206.972	54.27
207.438	53.58
207.903	52.86
208.369	51.85
208.835	50.85
209.301	49.75
209.766	48.34
210.232	46.93
210.697	45.69
211.163	44.67
211.628	43.57
212.094	42.32
212.559	41.29
213.024	40.21
213.49	39.3
213.955	38.37
214.42	37.64
214.885	36.62
215.35	35.32
215.815	33.4
216.28	31.06
216.745	28.43
217.21	25.86
217.675	23.65
218.14	21.71
218.604	19.97
219.069	18.41
219.534	17.14
219.998	16.1
220.463	15.18
220.927	14.44
221.392	13.83
221.856	13.29
222.32	12.89
222.785	12.52
223.249	12.18
223.713	11.86
224.177	11.59
224.642	11.32
225.106	11.05
225.57	10.81
226.034	10.6
226.497	10.4
226.961	10.24
227.425	10.05
227.889	9.86
228.353	9.66
228.816	9.48
229.28	9.34
229.744	9.19
230.207	9.05
230.671	8.92
231.134	8.79
231.597	8.69
232.061	8.57
232.524	8.44
232.987	8.33
233.45	8.24
233.914	8.15
234.377	8.03
234.84	7.93
235.303	7.85
235.766	7.76
236.229	7.67
236.691	7.59
237.154	7.52
237.617	7.46
238.08	7.39
238.542	7.31
239.005	7.25
239.468	7.19
239.93	7.14
240.393	7.08
240.855	7
241.317	6.94
241.78	6.86
242.242	6.79
242.704	6.72
243.166	6.66
243.629	6.61
244.091	6.54
244.553	6.48
245.015	6.42
245.477	6.37
245.939	6.33
246.4	6.28
246.862	6.23
247.324	6.19
247.786	6.14
248.247	6.09
248.709	6.03
249.17	5.98
249.632	5.94
250.093	5.89
250.555	5.84
251.016	5.79
251.477	5.75
251.939	5.71
252.4	5.67
252.861	5.63
253.322	5.6
253.783	5.56
254.244	5.54
254.705	5.51
255.166	5.48
255.627	5.45
256.088	5.42
256.549	5.39
257.009	5.35
257.47	5.32
257.931	5.28
258.391	5.24
258.852	5.2
259.312	5.17
259.773	5.14
260.233	5.11
260.694	5.08
261.154	5.04
261.614	5.01
262.074	4.98
262.534	4.95
262.994	4.93
263.455	4.9
263.915	4.88
264.374	4.86
264.834	4.84
265.294	4.8
265.754	4.79
266.214	4.77
266.673	4.75
267.133	4.73
267.593	4.72
268.052	4.7
268.512	4.69
268.971	4.68
269.431	4.66
269.89	4.65
270.349	4.65
270.809	4.63
271.268	4.62
271.727	4.62
272.186	4.61
272.645	4.61
273.104	4.59
273.563	4.58
274.022	4.57
274.481	4.57
274.94	4.55
275.399	4.54
275.857	4.53
276.316	4.52
276.775	4.5
277.233	4.49
277.692	4.48
278.15	4.47
278.609	4.46
279.067	4.45
279.525	4.45
279.984	4.44
280.442	4.44
280.9	4.44
281.358	4.43
281.816	4.43
282.274	4.42
282.732	4.41
283.19	4.41
283.648	4.4
284.106	4.39
284.564	4.38
285.021	4.38
285.479	4.37
285.937	4.36
286.394	4.36
286.852	4.35
287.309	4.34
287.767	4.33
288.224	4.32
288.682	4.31
289.139	4.29
289.596	4.27
290.053	4.25
290.511	4.22
290.968	4.21
291.425	4.19
291.882	4.17
292.339	4.16
292.796	4.14
293.252	4.13
293.709	4.12
294.166	4.1
294.623	4.09
295.079	4.08
295.536	4.08
295.992	4.07
296.449	4.06
296.905	4.06
297.362	4.04
297.818	4.03
298.274	4.02
298.731	4.01
299.187	4.01
299.643	4
300.099	3.99
300.555	3.98
301.011	3.97
301.467	3.96
301.923	3.94
302.379	3.94
302.835	3.94
303.291	3.93
303.746	3.92
304.202	3.92
304.658	3.91
305.113	3.9
305.569	3.9
306.024	3.9
306.479	3.9
306.935	3.89
307.39	3.89
307.845	3.89
308.301	3.9
308.756	3.89
309.211	3.88
309.666	3.88
310.121	3.88
310.576	3.88
311.031	3.88
311.486	3.88
311.94	3.89
312.395	3.88
312.85	3.87
313.305	3.87
313.759	3.87
314.214	3.87
314.668	3.86
315.123	3.86
315.577	3.85
316.032	3.84
316.486	3.83
316.94	3.81
317.394	3.8
317.849	3.79
318.303	3.77
318.757	3.75
319.211	3.74
319.665	3.72
320.119	3.7
320.572	3.69
321.026	3.68
321.48	3.67
321.934	3.66
322.387	3.64
322.841	3.63
323.295	3.63
323.748	3.62
324.202	3.62
324.655	3.61
325.108	3.62
325.562	3.61
326.015	3.61
326.468	3.6
326.921	3.59
327.374	3.59
327.827	3.59
328.28	3.59
328.733	3.6
329.186	3.59
329.639	3.6
330.092	3.59
330.545	3.59
330.997	3.59
331.45	3.6
331.903	3.61
332.355	3.62
332.808	3.62
333.26	3.62
333.713	3.61
334.165	3.6
334.617	3.61
335.069	3.61
335.522	3.62
335.974	3.62
336.426	3.61
336.878	3.6
337.33	3.6
337.782	3.6
338.234	3.6
338.686	3.6
339.137	3.6
339.589	3.58
340.041	3.58
340.493	3.57
340.944	3.55
341.396	3.54
341.847	3.53
342.299	3.51
342.75	3.49
343.201	3.48
343.653	3.47
344.104	3.45
344.555	3.44
345.006	3.42
345.457	3.42
345.908	3.42
346.359	3.41
346.81	3.41
347.261	3.39
347.712	3.39
348.163	3.38
348.613	3.38
349.064	3.39
349.515	3.38
349.965	3.39
350.416	3.38
350.866	3.37
351.317	3.37
351.767	3.37
352.217	3.38
352.668	3.38
353.118	3.38
353.568	3.37
354.018	3.38
354.468	3.38
354.918	3.37
355.368	3.38
355.818	3.39
356.268	3.38
356.718	3.39
357.168	3.39
357.617	3.38
358.067	3.38
358.517	3.39
358.966	3.39
359.416	3.4
359.865	3.42
360.315	3.42
360.764	3.42
361.213	3.42
361.663	3.41
362.112	3.43
362.561	3.44
363.01	3.44
363.459	3.44
363.908	3.44
364.357	3.45
364.806	3.44
365.255	3.45
365.703	3.46
366.152	3.48
366.601	3.5
367.05	3.5
367.498	3.51
367.947	3.52
368.395	3.55
368.844	3.57
369.292	3.59
369.74	3.61
370.189	3.62
370.637	3.63
371.085	3.64
371.533	3.65
371.981	3.67
372.429	3.7
372.877	3.72
373.325	3.73
373.773	3.75
374.221	3.77
374.669	3.79
375.116	3.81
375.564	3.83
376.012	3.86
376.459	3.88
376.907	3.91
377.354	3.93
377.801	3.96
378.249	3.99
378.696	4.01
379.143	4.04
379.591	4.06
380.038	4.09
380.485	4.12
380.932	4.14
381.379	4.18
381.826	4.21
382.273	4.25
382.72	4.28
383.166	4.31
383.613	4.34
384.06	4.37
384.506	4.4
384.953	4.44
385.4	4.47
385.846	4.52
386.292	4.55
386.739	4.57
387.185	4.6
387.631	4.64
388.078	4.68
388.524	4.71
388.97	4.74
389.416	4.78
389.862	4.81
390.308	4.85
390.754	4.88
391.2	4.92
391.645	4.96
392.091	5.01
392.537	5.03
392.983	5.07
393.428	5.1
393.874	5.14
394.319	5.18
394.765	5.21
395.21	5.22
395.655	5.24
396.101	5.26
396.546	5.27
396.991	5.29
397.436	5.32
397.881	5.35
398.326	5.38
398.771	5.4
399.216	5.42
399.661	5.45
400.106	5.47
400.551	5.49
400.995	5.5
401.44	5.52
401.885	5.52
402.329	5.52
402.774	5.53
403.218	5.54
403.663	5.56
404.107	5.57
404.551	5.57
404.995	5.58
405.44	5.57
405.884	5.58
406.328	5.59
406.772	5.58
407.216	5.6
407.66	5.59
408.104	5.58
408.547	5.57
408.991	5.57
409.435	5.56
409.879	5.56
410.322	5.58
410.766	5.58
411.209	5.59
411.653	5.6
412.096	5.61
412.54	5.62
412.983	5.62
413.426	5.66
413.869	5.67
414.312	5.69
414.756	5.71
415.199	5.71
415.642	5.72
416.085	5.73
416.527	5.72
416.97	5.7
417.413	5.7
417.856	5.69
418.298	5.67
418.741	5.66
419.184	5.65
419.626	5.65
420.069	5.64
420.511	5.63
420.953	5.63
421.396	5.65
421.838	5.66
422.28	5.68
422.722	5.7
423.164	5.7
423.606	5.7
424.048	5.7
424.49	5.7
424.932	5.7
425.374	5.68
425.816	5.66
426.258	5.64
426.699	5.62
427.141	5.6
427.582	5.59
428.024	5.59
428.465	5.6
428.907	5.58
429.348	5.57
429.789	5.57
430.231	5.59
430.672	5.59
431.113	5.62
431.554	5.62
431.995	5.64
432.436	5.64
432.877	5.65
433.318	5.65
433.759	5.68
434.2	5.69
434.64	5.71
435.081	5.71
435.522	5.73
435.962	5.73
436.403	5.78
436.843	5.78
437.284	5.81
437.724	5.82
438.164	5.83
438.604	5.85
439.045	5.86
439.485	5.85
439.925	5.86
440.365	5.87
440.805	5.89
441.245	5.9
441.685	5.92
442.125	5.94
442.564	5.96
443.004	5.97
443.444	5.99
443.883	6.02
444.323	6.05
444.762	6.08
445.202	6.11
445.641	6.15
446.081	6.19
446.52	6.2
446.959	6.24
447.398	6.26
447.837	6.3
448.276	6.34
448.716	6.38
449.154	6.42
449.593	6.46
450.032	6.48
450.471	6.49
450.91	6.49
451.349	6.52
451.787	6.52
452.226	6.54
452.664	6.53
453.103	6.53
453.541	6.53
453.98	6.53
454.418	6.51
454.856	6.5
455.295	6.49
455.733	6.47
456.171	6.45
456.609	6.45
457.047	6.43
457.485	6.41
457.923	6.4
458.361	6.37
458.798	6.36
459.236	6.36
459.674	6.35
460.111	6.34
460.549	6.35
460.987	6.36
461.424	6.35
461.862	6.35
462.299	6.37
462.736	6.37
463.173	6.38
463.611	6.38
464.048	6.38
464.485	6.39
464.922	6.39
465.359	6.38
465.796	6.38
466.233	6.4
466.67	6.4
467.106	6.4
467.543	6.4
467.98	6.4
468.416	6.39
468.853	6.4
469.29	6.41
469.726	6.41
470.162	6.42
470.599	6.42
471.035	6.41
471.471	6.42
471.907	6.41
472.344	6.42
472.78	6.42
473.216	6.42
473.652	6.42
474.088	6.41
474.523	6.42
474.959	6.42
475.395	6.42
475.831	6.42
476.266	6.42
476.702	6.41
477.138	6.41
477.573	6.41
478.008	6.42
478.444	6.41
478.879	6.42
479.314	6.41
479.75	6.41
480.185	6.41
480.62	6.4
481.055	6.4
481.49	6.4
481.925	6.41
482.36	6.41
482.795	6.42
483.229	6.42
483.664	6.44
484.099	6.44
484.534	6.43
484.968	6.45
485.403	6.46
485.837	6.48
486.271	6.51
486.706	6.52
487.14	6.54
487.574	6.56
488.009	6.59
488.443	6.62
488.877	6.67
489.311	6.72
489.745	6.76
490.179	6.82
490.613	6.87
491.046	6.92
491.48	6.98
491.914	7.04
492.348	7.1
492.781	7.17
493.215	7.25
493.648	7.33
494.082	7.4
494.515	7.47
494.948	7.55
495.382	7.63
495.815	7.73
496.248	7.82
496.681	7.93
497.114	8.02
497.547	8.13
497.98	8.24
498.413	8.34
498.846	8.47
499.279	8.6
499.711	8.74
500.144	8.88
500.577	9.02
501.009	9.16
501.442	9.31
501.874	9.49
502.306	9.64
502.739	9.82
503.171	10
503.603	10.18
504.036	10.37
504.468	10.57
504.9	10.76
505.332	10.97
505.764	11.2
506.196	11.43
506.627	11.65
507.059	11.89
507.491	12.12
507.923	12.36
508.354	12.62
508.786	12.88
509.217	13.15
509.649	13.41
510.08	13.69
510.512	13.97
510.943	14.25
511.374	14.55
511.805	14.84
512.237	15.14
512.668	15.45
513.099	15.76
513.53	16.06
513.961	16.38
514.391	16.69
514.822	17.01
515.253	17.31
515.684	17.63
516.114	17.94
516.545	18.26
516.975	18.59
517.406	18.9
517.836	19.19
518.267	19.53
518.697	19.83
519.127	20.12
519.558	20.43
519.988	20.75
520.418	21.05
520.848	21.34
521.278	21.63
521.708	22.03
522.138	22.31
522.567	22.6
522.997	22.84
523.427	23.1
523.857	23.36
524.286	23.59
524.716	23.81
525.145	24.04
525.575	24.26
526.004	24.49
526.433	24.56
526.863	24.77
527.292	24.96
527.721	25.14
528.15	25.3
528.579	25.47
529.008	25.62
529.437	25.77
529.866	25.92
530.295	26.05
530.724	26.17
531.152	26.31
531.581	26.42
532.01	26.53
532.438	26.65
532.867	26.76
533.295	26.85
533.723	26.95
534.152	27.03
534.58	27.11
535.008	27.17
535.436	27.24
535.865	27.28
536.293	27.34
536.721	27.39
537.149	27.44
537.576	27.47
538.004	27.52
538.432	27.55
538.86	27.59
539.287	27.61
539.715	27.66
540.143	27.68
540.57	27.72
540.998	27.75
541.425	27.77
541.852	27.8
542.28	27.83
542.707	27.87
543.134	27.89
543.561	27.94
543.988	27.98
544.415	27.98
544.842	28.01
545.269	28.02
545.696	28.05
546.123	28.09
546.549	28.11
546.976	28.15
547.403	28.17
547.829	28.2
548.256	28.2
548.682	28.22
549.108	28.26
549.535	28.29
549.961	28.31
550.387	28.32
550.813	28.32
551.24	28.34
551.666	28.34
552.092	28.33
552.518	28.32
552.943	28.3
553.369	28.3
553.795	28.28
554.221	28.26
554.646	28.23
555.072	28.21
555.498	28.17
555.923	28.12
556.349	28.07
556.774	28.03
557.199	27.98
557.625	27.94
558.05	27.87
558.475	27.81
558.9	27.74
559.325	27.69
559.75	27.61
560.175	27.53
560.6	27.42
561.025	27.32
561.449	27.22
561.874	27.1
562.299	26.98
562.723	26.86
563.148	26.72
563.572	26.58
563.997	26.43
564.421	26.28
564.846	26.15
565.27	26.02
565.694	25.89
566.118	25.73
566.542	25.59
566.966	25.43
567.39	25.28
567.814	25.12
568.238	24.97
568.662	24.82
569.086	24.67
569.509	24.49
569.933	24.34
570.357	24.17
570.78	24.01
571.204	23.86
571.627	23.72
572.05	23.58
572.474	23.46
572.897	23.33
573.32	23.19
573.743	23.06
574.166	22.94
574.589	22.81
575.012	22.7
575.435	22.6
575.858	22.49
576.281	22.37
576.704	22.26
577.126	22.14
577.549	22.03
577.972	21.91
578.394	21.81
578.817	21.72
579.239	21.63
579.661	21.53
580.084	21.43
580.506	21.35
580.928	21.26
581.35	21.17
581.772	21.09
582.194	20.99
582.616	20.93
583.038	20.86
583.46	20.77
583.882	20.7
584.303	20.61
584.725	20.54
585.147	20.47
585.568	20.42
585.99	20.37
586.411	20.31
586.833	20.25
587.254	20.19
587.675	20.12
588.096	20.07
588.518	20.02
588.939	19.99
589.36	19.93
589.781	19.88
590.202	19.83
590.623	19.79
591.043	19.73
591.464	19.69
591.885	19.65
592.305	19.63
592.726	19.59
593.147	19.53
593.567	19.48
593.987	19.45
594.408	19.42
594.828	19.39
595.248	19.35
595.669	19.32
596.089	19.3
596.509	19.27
596.929	19.24
597.349	19.2
597.769	19.18
598.189	19.14
598.608	19.12
599.028	19.07
599.448	19.03
599.867	18.98
600.287	18.94
600.706	18.89
601.126	18.84
601.545	18.8
601.965	18.76
602.384	18.69
602.803	18.64
603.222	18.57
603.641	18.49
604.061	18.43
604.48	18.35
604.898	18.27
605.317	18.2
605.736	18.12
606.155	18.04
606.574	17.95
606.992	17.87
607.411	17.8
607.829	17.69
608.248	17.62
608.666	17.53
609.085	17.46
609.503	17.38
609.921	17.29
610.339	17.21
610.758	17.13
611.176	17.03
611.594	16.94
612.012	16.85
612.43	16.78
612.847	16.71
613.265	16.63
613.683	16.56
614.101	16.48
614.518	16.4
614.936	16.32
615.353	16.24
615.771	16.18
616.188	16.1
616.606	16.05
617.023	15.98
617.44	15.91
617.857	15.86
618.274	15.78
618.691	15.73
619.108	15.66
619.525	15.62
619.942	15.57
620.359	15.53
620.776	15.49
621.192	15.45
621.609	15.42
622.026	15.38
622.442	15.35
622.859	15.32
623.275	15.29
623.691	15.27
624.108	15.24
624.524	15.22
624.94	15.2
625.356	15.19
625.772	15.18
626.188	15.16
626.604	15.16
627.02	15.14
627.436	15.14
627.852	15.11
628.268	15.1
628.683	15.09
629.099	15.08
629.514	15.06
629.93	15.03
630.345	15
630.761	14.95
631.176	14.9
631.591	14.86
632.007	14.8
632.422	14.74
632.837	14.67
633.252	14.61
633.667	14.53
634.082	14.45
634.497	14.37
634.911	14.28
635.326	14.2
635.741	14.13
636.155	14.02
636.57	13.94
636.984	13.83
637.399	13.72
637.813	13.6
638.228	13.47
638.642	13.34
639.056	13.21
639.47	13.09
639.884	12.96
640.298	12.82
640.712	12.7
641.126	12.56
641.54	12.41
641.954	12.29
642.368	12.16
642.781	12.05
643.195	11.92
643.609	11.79
644.022	11.67
644.436	11.56
644.849	11.43
645.262	11.32
645.676	11.22
646.089	11.13
646.502	11.04
646.915	10.95
647.328	10.87
647.741	10.79
648.154	10.73
648.567	10.67
648.98	10.61
649.393	10.56
649.805	10.5
650.218	10.45
650.631	10.41
651.043	10.35
651.456	10.3
651.868	10.25
652.28	10.19
652.693	10.14
653.105	10.08
653.517	10.01
653.929	9.95
654.341	9.88
654.753	9.8
655.165	9.72
655.577	9.63
655.989	9.55
656.401	9.46
656.813	9.37
657.224	9.26
657.636	9.15
658.047	9.04
658.459	8.93
658.87	8.83
659.282	8.71
659.693	8.6
660.104	8.48
660.515	8.37
660.926	8.25
661.338	8.14
661.749	8.04
662.159	7.94
662.57	7.85
662.981	7.76
663.392	7.67
663.803	7.6
664.213	7.51
664.624	7.45
665.035	7.38
665.445	7.32
665.855	7.25
666.266	7.2
666.676	7.16
667.086	7.1
667.497	7.05
667.907	7.01
668.317	6.98
668.727	6.95
669.137	6.92
669.547	6.89
669.956	6.87
670.366	6.86
670.776	6.84
671.186	6.83
671.595	6.83
672.005	6.83
672.414	6.84
672.824	6.84
673.233	6.85
673.642	6.87
674.052	6.89
674.461	6.91
674.87	6.93
675.279	6.97
675.688	6.99
676.097	7.04
676.506	7.07
676.915	7.1
677.323	7.15
677.732	7.19
678.141	7.25
678.549	7.31
678.958	7.37
679.366	7.45
679.775	7.52
680.183	7.61
680.592	7.7
681	7.8
681.408	7.92
681.816	8.06
682.224	8.21
682.632	8.38
683.04	8.56
683.448	8.75
683.856	8.96
684.264	9.19
684.671	9.45
685.079	9.73
685.487	10.06
685.894	10.39
686.302	10.73
686.709	11.1
687.116	11.5
687.524	11.93
687.931	12.39
688.338	12.87
688.745	13.38
689.152	13.9
689.559	14.45
689.966	14.98
690.373	15.55
690.78	16.14
691.187	16.73
691.593	17.33
692	17.92
692.407	18.52
692.813	19.14
693.22	19.74
693.626	20.35
694.032	20.96
694.439	21.57
694.845	22.19
695.251	22.79
695.657	23.38
696.063	23.97
696.469	24.57
696.875	25.16
697.281	25.74
697.687	26.32
698.093	26.88
698.498	27.41
698.904	27.95
699.31	28.47
699.715	28.99
700.12	29.52
700.526	30.01
700.931	30.48
701.337	30.95
701.742	31.41
702.147	31.87
702.552	32.3
702.957	32.72
703.362	33.13
703.767	33.52
704.172	33.91
704.577	34.29
704.981	34.68
705.386	35.06
705.791	35.43
706.195	35.79
706.6	36.14
707.004	36.49
707.408	36.84
707.813	37.19
708.217	37.54
708.621	37.87
709.025	38.17
709.43	38.46
709.834	38.77
710.237	39.05
710.641	39.34
711.045	39.63
711.449	39.93
711.853	40.23
712.256	40.48
712.66	40.72
713.064	40.98
713.467	41.25
713.87	41.51
714.274	41.73
714.677	42
715.08	42.22
715.484	42.45
715.887	42.69
716.29	42.88
716.693	43.12
717.096	43.34
717.499	43.54
717.901	43.76
718.304	43.96
718.707	44.16
719.109	44.35
719.512	44.55
719.915	44.74
720.317	44.88
720.719	45.06
721.122	45.22
721.524	45.38
721.926	45.55
722.328	45.7
722.731	45.85
723.133	46.02
723.535	46.17
723.937	46.32
724.338	46.46
724.74	46.59
725.142	46.8
725.544	46.95
725.945	47.09
726.347	47.18
726.748	47.28
727.15	47.36
727.551	47.48
727.952	47.54
728.354	47.64
728.755	47.71
729.156	47.8
729.557	47.81
729.958	47.86
730.359	47.93
730.76	48.01
731.161	48.08
731.562	48.19
731.962	48.22
732.363	48.3
732.763	48.37
733.164	48.43
733.564	48.47
733.965	48.56
734.365	48.61
734.766	48.67
735.166	48.72
735.566	48.79
735.966	48.83
736.366	48.89
736.766	48.92
737.166	48.96
737.566	49.03
737.966	49.07
738.365	49.08
738.765	49.13
739.165	49.16
739.564	49.19
739.964	49.22
740.363	49.26
740.763	49.28
741.162	49.32
741.561	49.33
741.96	49.34
742.36	49.37
742.759	49.4
743.158	49.42
743.557	49.44
743.955	49.46
744.354	49.5
744.753	49.52
745.152	49.58
745.55	49.62
745.949	49.67
746.348	49.7
746.746	49.72
747.144	49.76
747.543	49.79
747.941	49.82
748.339	49.84
748.737	49.84
749.136	49.84
749.534	49.82
749.932	49.82
750.33	49.8
750.727	49.8
751.125	49.79
751.523	49.78
751.921	49.79
752.318	49.78
752.716	49.77
753.113	49.77
753.511	49.79
753.908	49.8
754.305	49.81
754.703	49.79
755.1	49.78
755.497	49.77
755.894	49.76
756.291	49.73
756.688	49.72
757.085	49.74
757.482	49.74
757.878	49.72
758.275	49.69
758.672	49.67
759.068	49.7
759.465	49.72
759.861	49.73
760.258	49.73
760.654	49.75
761.05	49.76
761.447	49.74
761.843	49.73
762.239	49.75
762.635	49.74
763.031	49.76
763.427	49.75
763.822	49.76
764.218	49.76
764.614	49.75
765.01	49.75
765.405	49.74
765.801	49.72
766.196	49.74
766.592	49.73
766.987	49.74
767.382	49.73
767.778	49.72
768.173	49.71
768.568	49.7
768.963	49.72
769.358	49.73
769.753	49.72
770.148	49.7
770.542	49.68
770.937	49.69
771.332	49.7
771.726	49.72
772.121	49.71
772.515	49.71
772.91	49.69
773.304	49.7
773.699	49.68
774.093	49.7
774.487	49.74
774.881	49.76
775.275	49.73
775.669	49.71
776.063	49.71
776.457	49.72
776.851	49.72
777.245	49.72
777.638	49.74
778.032	49.76
778.425	49.78
778.819	49.8
779.212	49.81
779.606	49.85
779.999	49.87
780.392	49.86
780.786	49.86
