Data from C_3_DEC_OH_4N_Splice17_14-20-58-226.txt Node
Date: Sat Mar 07 14:20:58 EST 2020
User: sa697716
Spectrometer: NQ5500242
Trigger mode: 0
Integration Time (sec): 1.450000E-1
Scans to average: 20
Nonlinearity correction enabled: false
Boxcar width: 5
Storing dark spectrum: false
XAxis mode: Wavelengths
Number of Pixels in Spectrum: 512
>>>>>Begin Spectral Data<<<<<
187.83	116.7
188.298	139.7
188.766	121.33
189.233	111.78
189.701	105.59
190.169	119.56
190.636	120.63
191.104	88.38
191.571	-52.07
192.039	-65.34
192.506	-61.36
192.974	98.71
193.441	293.13
193.908	162.79
194.375	111.79
194.842	55.93
195.31	152.73
195.777	315.17
196.244	86.03
196.711	80.91
197.177	79.82
197.644	78.97
198.111	78.53
198.578	78.26
199.045	77.9
199.511	77.97
199.978	77.99
200.445	77.46
200.911	77.56
201.378	77.63
201.844	77.22
202.31	76.96
202.777	77.04
203.243	76.9
203.709	76.35
204.176	75.79
204.642	75.18
205.108	74.98
205.574	74.51
206.04	73.44
206.506	72.63
206.972	72.12
207.438	71.14
207.903	70.03
208.369	68.76
208.835	67.32
209.301	65.8
209.766	63.91
210.232	61.75
210.697	59.84
211.163	58.33
211.628	56.86
212.094	55.19
212.559	53.86
213.024	52.36
213.49	50.95
213.955	49.48
214.42	48.29
214.885	46.9
215.35	45.11
215.815	42.47
216.28	39.15
216.745	35.53
217.21	31.97
217.675	28.65
218.14	25.72
218.604	23.13
219.069	21.03
219.534	19.23
219.998	17.75
220.463	16.5
220.927	15.44
221.392	14.65
221.856	14
222.32	13.4
222.785	12.9
223.249	12.45
223.713	12.07
224.177	11.75
224.642	11.43
225.106	11.1
225.57	10.83
226.034	10.6
226.497	10.36
226.961	10.12
227.425	9.93
227.889	9.72
228.353	9.54
228.816	9.35
229.28	9.16
229.744	8.99
230.207	8.84
230.671	8.67
231.134	8.53
231.597	8.4
232.061	8.27
232.524	8.15
232.987	8.03
233.45	7.92
233.914	7.82
234.377	7.72
234.84	7.63
235.303	7.56
235.766	7.48
236.229	7.4
236.691	7.32
237.154	7.27
237.617	7.2
238.08	7.13
238.542	7.06
239.005	7
239.468	6.94
239.93	6.88
240.393	6.81
240.855	6.74
241.317	6.69
241.78	6.62
242.242	6.54
242.704	6.48
243.166	6.42
243.629	6.37
244.091	6.3
244.553	6.24
245.015	6.18
245.477	6.12
245.939	6.08
246.4	6.02
246.862	5.97
247.324	5.92
247.786	5.87
248.247	5.82
248.709	5.76
249.17	5.71
249.632	5.68
250.093	5.63
250.555	5.59
251.016	5.55
251.477	5.51
251.939	5.48
252.4	5.45
252.861	5.42
253.322	5.39
253.783	5.36
254.244	5.33
254.705	5.29
255.166	5.27
255.627	5.25
256.088	5.21
256.549	5.2
257.009	5.16
257.47	5.13
257.931	5.09
258.391	5.05
258.852	5.01
259.312	4.99
259.773	4.96
260.233	4.93
260.694	4.89
261.154	4.86
261.614	4.82
262.074	4.79
262.534	4.76
262.994	4.74
263.455	4.71
263.915	4.69
264.374	4.66
264.834	4.64
265.294	4.62
265.754	4.61
266.214	4.59
266.673	4.57
267.133	4.57
267.593	4.55
268.052	4.54
268.512	4.53
268.971	4.52
269.431	4.5
269.89	4.49
270.349	4.48
270.809	4.46
271.268	4.45
271.727	4.44
272.186	4.43
272.645	4.42
273.104	4.41
273.563	4.4
274.022	4.39
274.481	4.39
274.94	4.38
275.399	4.37
275.857	4.37
276.316	4.36
276.775	4.35
277.233	4.35
277.692	4.34
278.15	4.34
278.609	4.33
279.067	4.32
279.525	4.32
279.984	4.31
280.442	4.3
280.9	4.3
281.358	4.3
281.816	4.3
282.274	4.29
282.732	4.29
283.19	4.29
283.648	4.29
284.106	4.29
284.564	4.28
285.021	4.28
285.479	4.29
285.937	4.29
286.394	4.28
286.852	4.27
287.309	4.27
287.767	4.25
288.224	4.24
288.682	4.23
289.139	4.21
289.596	4.2
290.053	4.17
290.511	4.15
290.968	4.13
291.425	4.11
291.882	4.09
292.339	4.06
292.796	4.05
293.252	4.04
293.709	4.02
294.166	4.01
294.623	4
295.079	3.98
295.536	3.98
295.992	3.96
296.449	3.95
296.905	3.95
297.362	3.94
297.818	3.93
298.274	3.92
298.731	3.91
299.187	3.9
299.643	3.9
300.099	3.89
300.555	3.88
301.011	3.88
301.467	3.87
301.923	3.86
302.379	3.85
302.835	3.85
303.291	3.85
303.746	3.85
304.202	3.85
304.658	3.84
305.113	3.84
305.569	3.85
306.024	3.84
306.479	3.85
306.935	3.85
307.39	3.86
307.845	3.86
308.301	3.86
308.756	3.86
309.211	3.86
309.666	3.88
310.121	3.88
310.576	3.88
311.031	3.89
311.486	3.89
311.94	3.9
312.395	3.89
312.85	3.9
313.305	3.9
313.759	3.91
314.214	3.91
314.668	3.9
315.123	3.89
315.577	3.89
316.032	3.89
316.486	3.88
316.94	3.88
317.394	3.87
317.849	3.85
318.303	3.84
318.757	3.83
319.211	3.81
319.665	3.8
320.119	3.78
320.572	3.77
321.026	3.75
321.48	3.74
321.934	3.73
322.387	3.72
322.841	3.71
323.295	3.71
323.748	3.71
324.202	3.71
324.655	3.71
325.108	3.71
325.562	3.71
326.015	3.71
326.468	3.71
326.921	3.72
327.374	3.72
327.827	3.73
328.28	3.73
328.733	3.73
329.186	3.73
329.639	3.73
330.092	3.73
330.545	3.74
330.997	3.74
331.45	3.74
331.903	3.75
332.355	3.77
332.808	3.76
333.26	3.76
333.713	3.76
334.165	3.76
334.617	3.76
335.069	3.76
335.522	3.78
335.974	3.78
336.426	3.79
336.878	3.79
337.33	3.79
337.782	3.8
338.234	3.81
338.686	3.82
339.137	3.83
339.589	3.83
340.041	3.83
340.493	3.82
340.944	3.8
341.396	3.79
341.847	3.78
342.299	3.76
342.75	3.73
343.201	3.72
343.653	3.71
344.104	3.68
344.555	3.67
345.006	3.65
345.457	3.65
345.908	3.64
346.359	3.63
346.81	3.63
347.261	3.62
347.712	3.62
348.163	3.62
348.613	3.62
349.064	3.62
349.515	3.62
349.965	3.63
350.416	3.62
350.866	3.63
351.317	3.63
351.767	3.63
352.217	3.63
352.668	3.63
353.118	3.63
353.568	3.62
354.018	3.63
354.468	3.63
354.918	3.64
355.368	3.64
355.818	3.64
356.268	3.64
356.718	3.65
357.168	3.66
357.617	3.66
358.067	3.66
358.517	3.68
358.966	3.69
359.416	3.68
359.865	3.68
360.315	3.68
360.764	3.68
361.213	3.68
361.663	3.67
362.112	3.67
362.561	3.67
363.01	3.68
363.459	3.66
363.908	3.65
364.357	3.65
364.806	3.65
365.255	3.66
365.703	3.65
366.152	3.66
366.601	3.66
367.05	3.66
367.498	3.66
367.947	3.66
368.395	3.68
368.844	3.67
369.292	3.68
369.74	3.68
370.189	3.68
370.637	3.68
371.085	3.68
371.533	3.68
371.981	3.69
372.429	3.69
372.877	3.69
373.325	3.69
373.773	3.7
374.221	3.7
374.669	3.7
375.116	3.69
375.564	3.69
376.012	3.7
376.459	3.71
376.907	3.72
377.354	3.73
377.801	3.74
378.249	3.76
378.696	3.76
379.143	3.78
379.591	3.79
380.038	3.81
380.485	3.83
380.932	3.84
381.379	3.85
381.826	3.86
382.273	3.86
382.72	3.86
383.166	3.86
383.613	3.87
384.06	3.87
384.506	3.88
384.953	3.89
385.4	3.9
385.846	3.92
386.292	3.94
386.739	3.95
387.185	3.97
387.631	3.99
388.078	4.01
388.524	4.02
388.97	4.04
389.416	4.05
389.862	4.07
390.308	4.09
390.754	4.11
391.2	4.12
391.645	4.14
392.091	4.17
392.537	4.19
392.983	4.22
393.428	4.24
393.874	4.27
394.319	4.31
394.765	4.32
395.21	4.33
395.655	4.35
396.101	4.39
396.546	4.4
396.991	4.42
397.436	4.44
397.881	4.47
398.326	4.49
398.771	4.52
399.216	4.54
399.661	4.57
400.106	4.6
400.551	4.61
400.995	4.62
401.44	4.62
401.885	4.63
402.329	4.63
402.774	4.64
403.218	4.67
403.663	4.68
404.107	4.69
404.551	4.68
404.995	4.69
405.44	4.69
405.884	4.71
406.328	4.73
406.772	4.74
407.216	4.76
407.66	4.77
408.104	4.76
408.547	4.77
408.991	4.77
409.435	4.78
409.879	4.79
410.322	4.8
410.766	4.81
411.209	4.84
411.653	4.85
412.096	4.86
412.54	4.87
412.983	4.89
413.426	4.93
413.869	4.95
414.312	4.99
414.756	5.01
415.199	5.02
415.642	5.02
416.085	5.03
416.527	5.04
416.97	5.03
417.413	5.03
417.856	5.02
418.298	5
418.741	4.99
419.184	4.97
419.626	4.97
420.069	4.98
420.511	4.98
420.953	4.98
421.396	4.99
421.838	5
422.28	5.01
422.722	5.03
423.164	5.04
423.606	5.06
424.048	5.09
424.49	5.09
424.932	5.1
425.374	5.1
425.816	5.08
426.258	5.06
426.699	5.03
427.141	5.02
427.582	5.01
428.024	5.01
428.465	5
428.907	4.98
429.348	4.97
429.789	4.94
430.231	4.96
430.672	4.98
431.113	5.01
431.554	5.04
431.995	5.05
432.436	5.05
432.877	5.07
433.318	5.07
433.759	5.1
434.2	5.13
434.64	5.14
435.081	5.14
435.522	5.15
435.962	5.17
436.403	5.2
436.843	5.21
437.284	5.22
437.724	5.22
438.164	5.21
438.604	5.22
439.045	5.22
439.485	5.23
439.925	5.23
440.365	5.23
440.805	5.23
441.245	5.22
441.685	5.24
442.125	5.27
442.564	5.27
443.004	5.27
443.444	5.26
443.883	5.27
444.323	5.27
444.762	5.3
445.202	5.32
445.641	5.33
446.081	5.34
446.52	5.33
446.959	5.35
447.398	5.37
447.837	5.38
448.276	5.4
448.716	5.42
449.154	5.45
449.593	5.45
450.032	5.45
450.471	5.45
450.91	5.46
451.349	5.47
451.787	5.45
452.226	5.44
452.664	5.43
453.103	5.42
453.541	5.42
453.98	5.4
454.418	5.38
454.856	5.36
455.295	5.33
455.733	5.29
456.171	5.26
456.609	5.24
457.047	5.22
457.485	5.2
457.923	5.17
458.361	5.13
458.798	5.12
459.236	5.1
459.674	5.1
460.111	5.1
460.549	5.11
460.987	5.11
461.424	5.11
461.862	5.12
462.299	5.13
462.736	5.14
463.173	5.16
463.611	5.15
464.048	5.15
464.485	5.16
464.922	5.15
465.359	5.16
465.796	5.16
466.233	5.17
466.67	5.18
467.106	5.18
467.543	5.19
467.98	5.18
468.416	5.19
468.853	5.2
469.29	5.2
469.726	5.22
470.162	5.21
470.599	5.22
471.035	5.21
471.471	5.2
471.907	5.19
472.344	5.19
472.78	5.19
473.216	5.18
473.652	5.19
474.088	5.17
474.523	5.15
474.959	5.14
475.395	5.14
475.831	5.13
476.266	5.13
476.702	5.12
477.138	5.11
477.573	5.1
478.008	5.1
478.444	5.08
478.879	5.07
479.314	5.07
479.75	5.07
480.185	5.05
480.62	5.04
481.055	5.03
481.49	5.02
481.925	5.01
482.36	5
482.795	4.99
483.229	4.99
483.664	4.99
484.099	4.99
484.534	4.98
484.968	4.99
485.403	4.98
485.837	4.98
486.271	5
486.706	5
487.14	5.02
487.574	5.03
488.009	5.04
488.443	5.05
488.877	5.07
489.311	5.09
489.745	5.11
490.179	5.15
490.613	5.18
491.046	5.19
491.48	5.22
491.914	5.25
492.348	5.29
492.781	5.33
493.215	5.37
493.648	5.41
494.082	5.45
494.515	5.49
494.948	5.53
495.382	5.57
495.815	5.63
496.248	5.69
496.681	5.75
497.114	5.82
497.547	5.9
497.98	5.96
498.413	6.04
498.846	6.13
499.279	6.21
499.711	6.29
500.144	6.39
500.577	6.48
501.009	6.57
501.442	6.67
501.874	6.77
502.306	6.87
502.739	6.99
503.171	7.1
503.603	7.22
504.036	7.34
504.468	7.47
504.9	7.6
505.332	7.75
505.764	7.9
506.196	8.04
506.627	8.2
507.059	8.36
507.491	8.52
507.923	8.69
508.354	8.87
508.786	9.06
509.217	9.26
509.649	9.45
510.08	9.64
510.512	9.84
510.943	10.04
511.374	10.25
511.805	10.47
512.237	10.67
512.668	10.9
513.099	11.12
513.53	11.34
513.961	11.57
514.391	11.8
514.822	12.04
515.253	12.28
515.684	12.51
516.114	12.75
516.545	12.98
516.975	13.23
517.406	13.47
517.836	13.71
518.267	13.96
518.697	14.19
519.127	14.41
519.558	14.65
519.988	14.88
520.418	15.11
520.848	15.34
521.278	15.57
521.708	15.89
522.138	16.11
522.567	16.32
522.997	16.53
523.427	16.74
523.857	16.94
524.286	17.12
524.716	17.32
525.145	17.51
525.575	17.68
526.004	17.84
526.433	17.91
526.863	18.07
527.292	18.23
527.721	18.37
528.15	18.5
528.579	18.65
529.008	18.78
529.437	18.89
529.866	19
530.295	19.12
530.724	19.22
531.152	19.32
531.581	19.42
532.01	19.5
532.438	19.58
532.867	19.66
533.295	19.73
533.723	19.79
534.152	19.87
534.58	19.95
535.008	20
535.436	20.05
535.865	20.09
536.293	20.12
536.721	20.16
537.149	20.21
537.576	20.24
538.004	20.28
538.432	20.33
538.86	20.35
539.287	20.35
539.715	20.37
540.143	20.41
540.57	20.45
540.998	20.46
541.425	20.48
541.852	20.5
542.28	20.54
542.707	20.54
543.134	20.55
543.561	20.58
543.988	20.61
544.415	20.63
544.842	20.65
545.269	20.68
545.696	20.69
546.123	20.72
546.549	20.74
546.976	20.75
547.403	20.78
547.829	20.81
548.256	20.82
548.682	20.83
549.108	20.85
549.535	20.88
549.961	20.88
550.387	20.91
550.813	20.92
551.24	20.92
551.666	20.93
552.092	20.93
552.518	20.94
552.943	20.93
553.369	20.94
553.795	20.93
554.221	20.92
554.646	20.89
555.072	20.87
555.498	20.83
555.923	20.8
556.349	20.75
556.774	20.72
557.199	20.66
557.625	20.62
558.05	20.56
558.475	20.5
558.9	20.43
559.325	20.38
559.75	20.3
560.175	20.22
560.6	20.14
561.025	20.06
561.449	19.97
561.874	19.87
562.299	19.76
562.723	19.65
563.148	19.54
563.572	19.42
563.997	19.29
564.421	19.17
564.846	19.05
565.27	18.92
565.694	18.8
566.118	18.68
566.542	18.55
566.966	18.41
567.39	18.29
567.814	18.14
568.238	18.01
568.662	17.88
569.086	17.75
569.509	17.62
569.933	17.48
570.357	17.33
570.78	17.2
571.204	17.07
571.627	16.95
572.05	16.83
572.474	16.72
572.897	16.62
573.32	16.51
573.743	16.39
574.166	16.29
574.589	16.2
575.012	16.1
575.435	16.01
575.858	15.91
576.281	15.83
576.704	15.75
577.126	15.66
577.549	15.57
577.972	15.51
578.394	15.42
578.817	15.34
579.239	15.27
579.661	15.21
580.084	15.14
580.506	15.07
580.928	15.01
581.35	14.94
581.772	14.88
582.194	14.81
582.616	14.75
583.038	14.7
583.46	14.64
583.882	14.58
584.303	14.51
584.725	14.45
585.147	14.4
585.568	14.34
585.99	14.29
586.411	14.24
586.833	14.19
587.254	14.14
587.675	14.1
588.096	14.05
588.518	14.01
588.939	13.98
589.36	13.93
589.781	13.88
590.202	13.85
590.623	13.81
591.043	13.77
591.464	13.74
591.885	13.71
592.305	13.66
592.726	13.64
593.147	13.61
593.567	13.57
593.987	13.55
594.408	13.52
594.828	13.49
595.248	13.46
595.669	13.43
596.089	13.39
596.509	13.36
596.929	13.33
597.349	13.29
597.769	13.27
598.189	13.23
598.608	13.21
599.028	13.18
599.448	13.15
599.867	13.1
600.287	13.06
600.706	13.03
601.126	12.99
601.545	12.95
601.965	12.91
602.384	12.87
602.803	12.82
603.222	12.78
603.641	12.73
604.061	12.68
604.48	12.63
604.898	12.59
605.317	12.52
605.736	12.47
606.155	12.41
606.574	12.37
606.992	12.31
607.411	12.25
607.829	12.16
608.248	12.09
608.666	12.02
609.085	11.97
609.503	11.9
609.921	11.84
610.339	11.78
610.758	11.73
611.176	11.66
611.594	11.59
612.012	11.53
612.43	11.49
612.847	11.44
613.265	11.39
613.683	11.33
614.101	11.28
614.518	11.22
614.936	11.16
615.353	11.09
615.771	11.03
616.188	10.99
616.606	10.94
617.023	10.89
617.44	10.86
617.857	10.82
618.274	10.77
618.691	10.72
619.108	10.69
619.525	10.67
619.942	10.66
620.359	10.64
620.776	10.61
621.192	10.57
621.609	10.55
622.026	10.52
622.442	10.5
622.859	10.48
623.275	10.48
623.691	10.46
624.108	10.43
624.524	10.42
624.94	10.4
625.356	10.39
625.772	10.38
626.188	10.37
626.604	10.35
627.02	10.34
627.436	10.32
627.852	10.31
628.268	10.29
628.683	10.27
629.099	10.26
629.514	10.24
629.93	10.21
630.345	10.2
630.761	10.17
631.176	10.15
631.591	10.1
632.007	10.06
632.422	10.02
632.837	9.97
633.252	9.93
633.667	9.87
634.082	9.81
634.497	9.75
634.911	9.68
635.326	9.61
635.741	9.53
636.155	9.46
636.57	9.38
636.984	9.29
637.399	9.21
637.813	9.12
638.228	9.01
638.642	8.92
639.056	8.81
639.47	8.72
639.884	8.62
640.298	8.51
640.712	8.41
641.126	8.31
641.54	8.2
641.954	8.1
642.368	8.01
642.781	7.93
643.195	7.83
643.609	7.75
644.022	7.67
644.436	7.59
644.849	7.52
645.262	7.45
645.676	7.38
646.089	7.33
646.502	7.28
646.915	7.23
647.328	7.17
647.741	7.13
648.154	7.08
648.567	7.04
648.98	7
649.393	6.96
649.805	6.93
650.218	6.9
650.631	6.86
651.043	6.83
651.456	6.79
651.868	6.76
652.28	6.73
652.693	6.72
653.105	6.7
653.517	6.67
653.929	6.64
654.341	6.61
654.753	6.56
655.165	6.53
655.577	6.49
655.989	6.45
656.401	6.4
656.813	6.35
657.224	6.28
657.636	6.2
658.047	6.14
658.459	6.08
658.87	6.02
659.282	5.95
659.693	5.9
660.104	5.84
660.515	5.77
660.926	5.72
661.338	5.66
661.749	5.62
662.159	5.58
662.57	5.53
662.981	5.48
663.392	5.44
663.803	5.39
664.213	5.35
664.624	5.31
665.035	5.28
665.445	5.24
665.855	5.21
666.266	5.2
666.676	5.18
667.086	5.15
667.497	5.14
667.907	5.12
668.317	5.11
668.727	5.1
669.137	5.09
669.547	5.09
669.956	5.08
670.366	5.08
670.776	5.06
671.186	5.05
671.595	5.05
672.005	5.04
672.414	5.05
672.824	5.06
673.233	5.07
673.642	5.08
674.052	5.09
674.461	5.09
674.87	5.1
675.279	5.13
675.688	5.16
676.097	5.19
676.506	5.22
676.915	5.24
677.323	5.27
677.732	5.29
678.141	5.33
678.549	5.37
678.958	5.42
679.366	5.46
679.775	5.51
680.183	5.56
680.592	5.62
681	5.69
681.408	5.77
681.816	5.85
682.224	5.96
682.632	6.06
683.04	6.18
683.448	6.3
683.856	6.45
684.264	6.6
684.671	6.76
685.079	6.94
685.487	7.15
685.894	7.38
686.302	7.63
686.709	7.89
687.116	8.17
687.524	8.48
687.931	8.8
688.338	9.14
688.745	9.5
689.152	9.87
689.559	10.28
689.966	10.69
690.373	11.11
690.78	11.54
691.187	11.99
691.593	12.45
692	12.92
692.407	13.39
692.813	13.88
693.22	14.37
693.626	14.87
694.032	15.36
694.439	15.87
694.845	16.37
695.251	16.88
695.657	17.37
696.063	17.86
696.469	18.36
696.875	18.87
697.281	19.36
697.687	19.85
698.093	20.33
698.498	20.81
698.904	21.27
699.31	21.72
699.715	22.19
700.12	22.64
700.526	23.09
700.931	23.52
701.337	23.94
701.742	24.35
702.147	24.77
702.552	25.18
702.957	25.59
703.362	25.98
703.767	26.36
704.172	26.73
704.577	27.11
704.981	27.47
705.386	27.84
705.791	28.18
706.195	28.53
706.6	28.87
707.004	29.2
707.408	29.53
707.813	29.86
708.217	30.17
708.621	30.5
709.025	30.8
709.43	31.11
709.834	31.41
710.237	31.72
710.641	32.01
711.045	32.29
711.449	32.57
711.853	32.85
712.256	33.11
712.66	33.37
713.064	33.61
713.467	33.87
713.87	34.12
714.274	34.36
714.677	34.6
715.08	34.83
715.484	35.06
715.887	35.29
716.29	35.5
716.693	35.72
717.096	35.95
717.499	36.18
717.901	36.39
718.304	36.59
718.707	36.79
719.109	37
719.512	37.2
719.915	37.38
720.317	37.55
720.719	37.72
721.122	37.89
721.524	38.06
721.926	38.23
722.328	38.39
722.731	38.54
723.133	38.71
723.535	38.86
723.937	39.01
724.338	39.15
724.74	39.29
725.142	39.47
725.544	39.57
725.945	39.71
726.347	39.8
726.748	39.92
727.15	40
727.551	40.11
727.952	40.18
728.354	40.27
728.755	40.35
729.156	40.45
729.557	40.5
729.958	40.58
730.359	40.64
730.76	40.74
731.161	40.8
731.562	40.91
731.962	40.96
732.363	41.05
732.763	41.12
733.164	41.18
733.564	41.24
733.965	41.32
734.365	41.41
734.766	41.48
735.166	41.54
735.566	41.59
735.966	41.66
736.366	41.7
736.766	41.74
737.166	41.78
737.566	41.81
737.966	41.85
738.365	41.88
738.765	41.94
739.165	41.96
739.564	42
739.964	42.03
740.363	42.03
740.763	42.07
741.162	42.1
741.561	42.12
741.96	42.13
742.36	42.16
742.759	42.18
743.158	42.2
743.557	42.2
743.955	42.2
744.354	42.24
744.753	42.29
745.152	42.33
745.55	42.36
745.949	42.41
746.348	42.47
746.746	42.49
747.144	42.5
747.543	42.5
747.941	42.54
748.339	42.54
748.737	42.55
749.136	42.58
749.534	42.58
749.932	42.59
750.33	42.59
750.727	42.59
751.125	42.62
751.523	42.62
751.921	42.62
752.318	42.62
752.716	42.64
753.113	42.64
753.511	42.62
753.908	42.63
754.305	42.6
754.703	42.59
755.1	42.58
755.497	42.56
755.894	42.56
756.291	42.56
756.688	42.54
757.085	42.55
757.482	42.53
757.878	42.51
758.275	42.49
758.672	42.49
759.068	42.49
759.465	42.48
759.861	42.49
760.258	42.48
760.654	42.48
761.05	42.48
761.447	42.47
761.843	42.5
762.239	42.5
762.635	42.5
763.031	42.52
763.427	42.51
763.822	42.53
764.218	42.53
764.614	42.52
765.01	42.51
765.405	42.51
765.801	42.49
766.196	42.46
766.592	42.43
766.987	42.43
767.382	42.4
767.778	42.4
768.173	42.38
768.568	42.37
768.963	42.37
769.358	42.39
769.753	42.4
770.148	42.44
770.542	42.46
770.937	42.5
771.332	42.51
771.726	42.53
772.121	42.51
772.515	42.53
772.91	42.54
773.304	42.56
773.699	42.57
774.093	42.55
774.487	42.55
774.881	42.56
775.275	42.56
775.669	42.54
776.063	42.55
776.457	42.58
776.851	42.57
777.245	42.57
777.638	42.55
778.032	42.55
778.425	42.59
778.819	42.58
779.212	42.58
779.606	42.57
779.999	42.59
780.392	42.61
780.786	42.62
781.179	42.64
781.572	42.68
781.965	42.71
782.358	42.72
782.751	42.7
783.143	42.73
