Data from C_3_DIV_OH_2N_Splice17_13-47-48-421.txt Node
Date: Sat Mar 07 13:47:48 EST 2020
User: sa697716
Spectrometer: NQ5500242
Trigger mode: 0
Integration Time (sec): 1.450000E-1
Scans to average: 20
Nonlinearity correction enabled: false
Boxcar width: 5
Storing dark spectrum: false
XAxis mode: Wavelengths
Number of Pixels in Spectrum: 512
>>>>>Begin Spectral Data<<<<<
187.83	203.88
188.298	212.94
188.766	193.38
189.233	154.87
189.701	172.66
190.169	208.81
190.636	208.54
191.104	271.09
191.571	129.02
192.039	-140.57
192.506	-32.61
192.974	-40.89
193.441	-61.49
193.908	10.25
194.375	20.99
194.842	13.35
195.31	4.91
195.777	-51.9
196.244	39.5
196.711	35.65
197.177	38.1
197.644	37.65
198.111	37.1
198.578	37.26
199.045	37.36
199.511	37.33
199.978	37.29
200.445	38.18
200.911	38.34
201.378	38.06
201.844	38.17
202.31	37.82
202.777	37.81
203.243	38.07
203.709	37.83
204.176	37.33
204.642	37.37
205.108	37.44
205.574	36.9
206.04	36.15
206.506	35.8
206.972	35.9
207.438	35.66
207.903	35.4
208.369	34.85
208.835	34.45
209.301	33.77
209.766	32.4
210.232	31.49
210.697	30.62
211.163	29.79
211.628	29.14
212.094	28.08
212.559	27.54
213.024	26.7
213.49	26.32
213.955	25.5
214.42	25.04
214.885	24.56
215.35	23.56
215.815	22.68
216.28	21.33
216.745	19.71
217.21	18.31
217.675	16.74
218.14	15.57
218.604	14.39
219.069	13.54
219.534	12.8
219.998	12.16
220.463	11.72
220.927	11.17
221.392	10.8
221.856	10.55
222.32	10.27
222.785	10.09
223.249	9.87
223.713	9.69
224.177	9.57
224.642	9.43
225.106	9.28
225.57	9.12
226.034	9.04
226.497	8.96
226.961	8.84
227.425	8.75
227.889	8.65
228.353	8.58
228.816	8.49
229.28	8.38
229.744	8.29
230.207	8.22
230.671	8.13
231.134	8.03
231.597	7.96
232.061	7.9
232.524	7.82
232.987	7.74
233.45	7.68
233.914	7.61
234.377	7.53
234.84	7.47
235.303	7.4
235.766	7.35
236.229	7.28
236.691	7.2
237.154	7.13
237.617	7.09
238.08	7.03
238.542	6.96
239.005	6.91
239.468	6.86
239.93	6.81
240.393	6.76
240.855	6.7
241.317	6.64
241.78	6.59
242.242	6.54
242.704	6.49
243.166	6.44
243.629	6.42
244.091	6.36
244.553	6.31
245.015	6.26
245.477	6.2
245.939	6.16
246.4	6.12
246.862	6.07
247.324	6.03
247.786	5.97
248.247	5.93
248.709	5.87
249.17	5.81
249.632	5.78
250.093	5.75
250.555	5.71
251.016	5.68
251.477	5.64
251.939	5.62
252.4	5.59
252.861	5.56
253.322	5.53
253.783	5.51
254.244	5.5
254.705	5.46
255.166	5.43
255.627	5.4
256.088	5.38
256.549	5.36
257.009	5.32
257.47	5.28
257.931	5.24
258.391	5.2
258.852	5.16
259.312	5.13
259.773	5.1
260.233	5.08
260.694	5.05
261.154	5.02
261.614	5
262.074	4.97
262.534	4.94
262.994	4.93
263.455	4.91
263.915	4.89
264.374	4.87
264.834	4.85
265.294	4.83
265.754	4.81
266.214	4.81
266.673	4.79
267.133	4.78
267.593	4.77
268.052	4.76
268.512	4.76
268.971	4.76
269.431	4.74
269.89	4.73
270.349	4.72
270.809	4.72
271.268	4.71
271.727	4.71
272.186	4.69
272.645	4.69
273.104	4.68
273.563	4.67
274.022	4.66
274.481	4.66
274.94	4.66
275.399	4.65
275.857	4.64
276.316	4.63
276.775	4.62
277.233	4.61
277.692	4.6
278.15	4.6
278.609	4.59
279.067	4.59
279.525	4.58
279.984	4.57
280.442	4.56
280.9	4.56
281.358	4.56
281.816	4.56
282.274	4.55
282.732	4.54
283.19	4.53
283.648	4.52
284.106	4.51
284.564	4.5
285.021	4.5
285.479	4.48
285.937	4.47
286.394	4.47
286.852	4.45
287.309	4.44
287.767	4.42
288.224	4.41
288.682	4.39
289.139	4.37
289.596	4.36
290.053	4.34
290.511	4.32
290.968	4.31
291.425	4.28
291.882	4.27
292.339	4.26
292.796	4.25
293.252	4.24
293.709	4.24
294.166	4.23
294.623	4.22
295.079	4.2
295.536	4.21
295.992	4.2
296.449	4.2
296.905	4.19
297.362	4.19
297.818	4.18
298.274	4.18
298.731	4.17
299.187	4.17
299.643	4.17
300.099	4.16
300.555	4.16
301.011	4.15
301.467	4.15
301.923	4.13
302.379	4.13
302.835	4.13
303.291	4.12
303.746	4.11
304.202	4.11
304.658	4.1
305.113	4.1
305.569	4.1
306.024	4.09
306.479	4.09
306.935	4.09
307.39	4.08
307.845	4.07
308.301	4.08
308.756	4.08
309.211	4.07
309.666	4.07
310.121	4.07
310.576	4.06
311.031	4.06
311.486	4.06
311.94	4.06
312.395	4.05
312.85	4.05
313.305	4.04
313.759	4.05
314.214	4.04
314.668	4.03
315.123	4.03
315.577	4.03
316.032	4.01
316.486	4.01
316.94	4
317.394	4
317.849	3.99
318.303	3.97
318.757	3.95
319.211	3.95
319.665	3.94
320.119	3.93
320.572	3.92
321.026	3.92
321.48	3.91
321.934	3.9
322.387	3.89
322.841	3.88
323.295	3.89
323.748	3.89
324.202	3.89
324.655	3.88
325.108	3.89
325.562	3.89
326.015	3.89
326.468	3.89
326.921	3.88
327.374	3.88
327.827	3.89
328.28	3.88
328.733	3.88
329.186	3.88
329.639	3.87
330.092	3.87
330.545	3.87
330.997	3.86
331.45	3.86
331.903	3.88
332.355	3.89
332.808	3.88
333.26	3.89
333.713	3.88
334.165	3.87
334.617	3.87
335.069	3.86
335.522	3.86
335.974	3.86
336.426	3.85
336.878	3.83
337.33	3.83
337.782	3.82
338.234	3.82
338.686	3.81
339.137	3.82
339.589	3.81
340.041	3.82
340.493	3.82
340.944	3.8
341.396	3.8
341.847	3.8
342.299	3.79
342.75	3.78
343.201	3.76
343.653	3.75
344.104	3.72
344.555	3.72
345.006	3.7
345.457	3.7
345.908	3.69
346.359	3.7
346.81	3.7
347.261	3.69
347.712	3.68
348.163	3.68
348.613	3.69
349.064	3.69
349.515	3.7
349.965	3.7
350.416	3.69
350.866	3.69
351.317	3.68
351.767	3.68
352.217	3.68
352.668	3.69
353.118	3.7
353.568	3.69
354.018	3.71
354.468	3.71
354.918	3.71
355.368	3.72
355.818	3.72
356.268	3.73
356.718	3.74
357.168	3.75
357.617	3.75
358.067	3.75
358.517	3.76
358.966	3.77
359.416	3.79
359.865	3.8
360.315	3.81
360.764	3.83
361.213	3.83
361.663	3.84
362.112	3.86
362.561	3.87
363.01	3.89
363.459	3.89
363.908	3.9
364.357	3.92
364.806	3.93
365.255	3.95
365.703	3.97
366.152	4
366.601	4.02
367.05	4.05
367.498	4.07
367.947	4.1
368.395	4.13
368.844	4.17
369.292	4.19
369.74	4.24
370.189	4.27
370.637	4.3
371.085	4.33
371.533	4.37
371.981	4.41
372.429	4.46
372.877	4.5
373.325	4.55
373.773	4.59
374.221	4.63
374.669	4.67
375.116	4.71
375.564	4.76
376.012	4.81
376.459	4.86
376.907	4.91
377.354	4.96
377.801	5.01
378.249	5.06
378.696	5.13
379.143	5.19
379.591	5.25
380.038	5.32
380.485	5.38
380.932	5.44
381.379	5.52
381.826	5.59
382.273	5.65
382.72	5.71
383.166	5.77
383.613	5.83
384.06	5.9
384.506	5.97
384.953	6.04
385.4	6.1
385.846	6.17
386.292	6.22
386.739	6.28
387.185	6.35
387.631	6.42
388.078	6.48
388.524	6.55
388.97	6.61
389.416	6.68
389.862	6.75
390.308	6.83
390.754	6.9
391.2	6.97
391.645	7.03
392.091	7.1
392.537	7.17
392.983	7.23
393.428	7.29
393.874	7.35
394.319	7.41
394.765	7.45
395.21	7.5
395.655	7.54
396.101	7.59
396.546	7.63
396.991	7.68
397.436	7.71
397.881	7.76
398.326	7.8
398.771	7.83
399.216	7.84
399.661	7.87
400.106	7.88
400.551	7.89
400.995	7.88
401.44	7.88
401.885	7.89
402.329	7.91
402.774	7.91
403.218	7.93
403.663	7.94
404.107	7.95
404.551	7.96
404.995	7.95
405.44	7.96
405.884	7.98
406.328	7.99
406.772	7.98
407.216	7.97
407.66	7.97
408.104	7.93
408.547	7.92
408.991	7.92
409.435	7.92
409.879	7.92
410.322	7.93
410.766	7.93
411.209	7.93
411.653	7.94
412.096	7.95
412.54	7.95
412.983	7.96
413.426	7.98
413.869	7.99
414.312	8
414.756	8
415.199	7.99
415.642	7.98
416.085	7.98
416.527	7.96
416.97	7.93
417.413	7.93
417.856	7.91
418.298	7.9
418.741	7.88
419.184	7.87
419.626	7.87
420.069	7.87
420.511	7.87
420.953	7.86
421.396	7.87
421.838	7.87
422.28	7.88
422.722	7.88
423.164	7.87
423.606	7.86
424.048	7.85
424.49	7.84
424.932	7.8
425.374	7.76
425.816	7.72
426.258	7.7
426.699	7.68
427.141	7.67
427.582	7.65
428.024	7.65
428.465	7.63
428.907	7.61
429.348	7.59
429.789	7.6
430.231	7.64
430.672	7.64
431.113	7.64
431.554	7.64
431.995	7.63
432.436	7.65
432.877	7.67
433.318	7.68
433.759	7.71
434.2	7.72
434.64	7.73
435.081	7.73
435.522	7.76
435.962	7.77
436.403	7.8
436.843	7.81
437.284	7.8
437.724	7.8
438.164	7.8
438.604	7.81
439.045	7.84
439.485	7.87
439.925	7.88
440.365	7.9
440.805	7.91
441.245	7.94
441.685	8
442.125	8.05
442.564	8.1
443.004	8.14
443.444	8.17
443.883	8.21
444.323	8.24
444.762	8.28
445.202	8.33
445.641	8.42
446.081	8.48
446.52	8.51
446.959	8.58
447.398	8.64
447.837	8.69
448.276	8.75
448.716	8.81
449.154	8.87
449.593	8.93
450.032	8.98
450.471	8.99
450.91	9.02
451.349	9.07
451.787	9.09
452.226	9.1
452.664	9.13
453.103	9.16
453.541	9.16
453.98	9.2
454.418	9.2
454.856	9.21
455.295	9.22
455.733	9.2
456.171	9.2
456.609	9.21
457.047	9.21
457.485	9.21
457.923	9.21
458.361	9.21
458.798	9.2
459.236	9.2
459.674	9.18
460.111	9.18
460.549	9.21
460.987	9.22
461.424	9.22
461.862	9.22
462.299	9.22
462.736	9.23
463.173	9.24
463.611	9.24
464.048	9.26
464.485	9.28
464.922	9.29
465.359	9.28
465.796	9.31
466.233	9.32
466.67	9.32
467.106	9.33
467.543	9.32
467.98	9.32
468.416	9.32
468.853	9.3
469.29	9.29
469.726	9.29
470.162	9.29
470.599	9.25
471.035	9.24
471.471	9.24
471.907	9.22
472.344	9.22
472.78	9.24
473.216	9.24
473.652	9.25
474.088	9.25
474.523	9.28
474.959	9.29
475.395	9.3
475.831	9.31
476.266	9.33
476.702	9.35
477.138	9.36
477.573	9.37
478.008	9.39
478.444	9.41
478.879	9.44
479.314	9.44
479.75	9.46
480.185	9.46
480.62	9.48
481.055	9.48
481.49	9.49
481.925	9.52
482.36	9.54
482.795	9.56
483.229	9.57
483.664	9.58
484.099	9.6
484.534	9.62
484.968	9.66
485.403	9.69
485.837	9.72
486.271	9.77
486.706	9.81
487.14	9.84
487.574	9.89
488.009	9.94
488.443	9.99
488.877	10.07
489.311	10.14
489.745	10.2
490.179	10.28
490.613	10.37
491.046	10.45
491.48	10.53
491.914	10.62
492.348	10.71
492.781	10.81
493.215	10.91
493.648	11.01
494.082	11.13
494.515	11.24
494.948	11.35
495.382	11.46
495.815	11.58
496.248	11.72
496.681	11.86
497.114	12
497.547	12.14
497.98	12.29
498.413	12.43
498.846	12.58
499.279	12.73
499.711	12.9
500.144	13.07
500.577	13.24
501.009	13.41
501.442	13.58
501.874	13.77
502.306	13.96
502.739	14.18
503.171	14.39
503.603	14.6
504.036	14.82
504.468	15.03
504.9	15.24
505.332	15.46
505.764	15.7
506.196	15.93
506.627	16.17
507.059	16.42
507.491	16.63
507.923	16.87
508.354	17.14
508.786	17.4
509.217	17.66
509.649	17.93
510.08	18.21
510.512	18.48
510.943	18.74
511.374	19.02
511.805	19.29
512.237	19.56
512.668	19.84
513.099	20.11
513.53	20.39
513.961	20.68
514.391	20.97
514.822	21.25
515.253	21.53
515.684	21.81
516.114	22.08
516.545	22.35
516.975	22.63
517.406	22.9
517.836	23.14
518.267	23.41
518.697	23.66
519.127	23.89
519.558	24.13
519.988	24.37
520.418	24.59
520.848	24.82
521.278	25.03
521.708	25.4
522.138	25.61
522.567	25.83
522.997	26
523.427	26.19
523.857	26.38
524.286	26.55
524.716	26.7
525.145	26.89
525.575	27.06
526.004	27.22
526.433	27.22
526.863	27.36
527.292	27.49
527.721	27.64
528.15	27.76
528.579	27.88
529.008	28.01
529.437	28.13
529.866	28.22
530.295	28.32
530.724	28.43
531.152	28.54
531.581	28.64
532.01	28.74
532.438	28.82
532.867	28.93
533.295	29
533.723	29.08
534.152	29.14
534.58	29.21
535.008	29.26
535.436	29.34
535.865	29.38
536.293	29.43
536.721	29.47
537.149	29.52
537.576	29.55
538.004	29.6
538.432	29.63
538.86	29.66
539.287	29.69
539.715	29.75
540.143	29.77
540.57	29.8
540.998	29.83
541.425	29.85
541.852	29.88
542.28	29.91
542.707	29.93
543.134	29.96
543.561	29.98
543.988	30.01
544.415	30.02
544.842	30.01
545.269	30.05
545.696	30.08
546.123	30.11
546.549	30.13
546.976	30.16
547.403	30.19
547.829	30.21
548.256	30.23
548.682	30.25
549.108	30.28
549.535	30.32
549.961	30.34
550.387	30.34
550.813	30.36
551.24	30.36
551.666	30.36
552.092	30.36
552.518	30.37
552.943	30.37
553.369	30.37
553.795	30.37
554.221	30.36
554.646	30.32
555.072	30.33
555.498	30.3
555.923	30.29
556.349	30.26
556.774	30.23
557.199	30.2
557.625	30.17
558.05	30.14
558.475	30.1
558.9	30.06
559.325	30.05
559.75	30
560.175	29.96
560.6	29.9
561.025	29.85
561.449	29.8
561.874	29.74
562.299	29.7
562.723	29.63
563.148	29.54
563.572	29.47
563.997	29.39
564.421	29.29
564.846	29.21
565.27	29.12
565.694	29.05
566.118	28.96
566.542	28.86
566.966	28.76
567.39	28.68
567.814	28.61
568.238	28.53
568.662	28.44
569.086	28.36
569.509	28.27
569.933	28.2
570.357	28.1
570.78	28.02
571.204	27.95
571.627	27.85
572.05	27.76
572.474	27.69
572.897	27.59
573.32	27.5
573.743	27.42
574.166	27.34
574.589	27.25
575.012	27.16
575.435	27.08
575.858	27
576.281	26.93
576.704	26.86
577.126	26.76
577.549	26.7
577.972	26.63
578.394	26.55
578.817	26.48
579.239	26.43
579.661	26.37
580.084	26.32
580.506	26.26
580.928	26.19
581.35	26.15
581.772	26.1
582.194	26.04
582.616	25.98
583.038	25.92
583.46	25.85
583.882	25.79
584.303	25.72
584.725	25.67
585.147	25.64
585.568	25.6
585.99	25.52
586.411	25.49
586.833	25.44
587.254	25.39
587.675	25.35
588.096	25.33
588.518	25.29
588.939	25.26
589.36	25.21
589.781	25.14
590.202	25.11
590.623	25.07
591.043	25.01
591.464	24.97
591.885	24.94
592.305	24.9
592.726	24.87
593.147	24.83
593.567	24.79
593.987	24.75
594.408	24.72
594.828	24.67
595.248	24.66
595.669	24.65
596.089	24.62
596.509	24.6
596.929	24.58
597.349	24.55
597.769	24.52
598.189	24.5
598.608	24.5
599.028	24.47
599.448	24.44
599.867	24.41
600.287	24.38
600.706	24.35
601.126	24.32
601.545	24.3
601.965	24.27
602.384	24.24
602.803	24.21
603.222	24.17
603.641	24.13
604.061	24.1
604.48	24.04
604.898	23.97
605.317	23.92
605.736	23.87
606.155	23.81
606.574	23.74
606.992	23.68
607.411	23.6
607.829	23.51
608.248	23.43
608.666	23.35
609.085	23.29
609.503	23.24
609.921	23.17
610.339	23.11
610.758	23.03
611.176	22.94
611.594	22.87
612.012	22.79
612.43	22.73
612.847	22.66
613.265	22.58
613.683	22.51
614.101	22.43
614.518	22.35
614.936	22.27
615.353	22.19
615.771	22.13
616.188	22.06
616.606	22.01
617.023	21.95
617.44	21.9
617.857	21.85
618.274	21.79
618.691	21.73
619.108	21.68
619.525	21.63
619.942	21.6
620.359	21.54
620.776	21.51
621.192	21.46
621.609	21.42
622.026	21.39
622.442	21.36
622.859	21.33
623.275	21.29
623.691	21.27
624.108	21.25
624.524	21.23
624.94	21.21
625.356	21.2
625.772	21.18
626.188	21.17
626.604	21.15
627.02	21.13
627.436	21.13
627.852	21.12
628.268	21.11
628.683	21.1
629.099	21.08
629.514	21.06
629.93	21.05
630.345	21.03
630.761	20.98
631.176	20.94
631.591	20.91
632.007	20.88
632.422	20.83
632.837	20.78
633.252	20.73
633.667	20.67
634.082	20.59
634.497	20.52
634.911	20.44
635.326	20.37
635.741	20.29
636.155	20.19
636.57	20.09
636.984	20
637.399	19.91
637.813	19.79
638.228	19.68
638.642	19.56
639.056	19.42
639.47	19.29
639.884	19.17
640.298	19.02
640.712	18.88
641.126	18.74
641.54	18.56
641.954	18.4
642.368	18.25
642.781	18.1
643.195	17.95
643.609	17.8
644.022	17.66
644.436	17.51
644.849	17.37
645.262	17.23
645.676	17.08
646.089	16.97
646.502	16.86
646.915	16.75
647.328	16.62
647.741	16.54
648.154	16.44
648.567	16.35
648.98	16.27
649.393	16.19
649.805	16.13
650.218	16.06
650.631	15.99
651.043	15.92
651.456	15.86
651.868	15.78
652.28	15.7
652.693	15.63
653.105	15.55
653.517	15.47
653.929	15.39
654.341	15.3
654.753	15.2
655.165	15.09
655.577	14.99
655.989	14.86
656.401	14.73
656.813	14.61
657.224	14.46
657.636	14.31
658.047	14.17
658.459	14.01
658.87	13.84
659.282	13.66
659.693	13.5
660.104	13.32
660.515	13.15
660.926	12.97
661.338	12.78
661.749	12.6
662.159	12.43
662.57	12.25
662.981	12.09
663.392	11.92
663.803	11.78
664.213	11.61
664.624	11.46
665.035	11.31
665.445	11.18
665.855	11.05
666.266	10.94
666.676	10.82
667.086	10.7
667.497	10.58
667.907	10.49
668.317	10.4
668.727	10.32
669.137	10.24
669.547	10.18
669.956	10.12
670.366	10.06
670.776	9.99
671.186	9.95
671.595	9.9
672.005	9.86
672.414	9.83
672.824	9.79
673.233	9.76
673.642	9.75
674.052	9.73
674.461	9.72
674.87	9.72
675.279	9.73
675.688	9.74
676.097	9.76
676.506	9.79
676.915	9.83
677.323	9.87
677.732	9.93
678.141	10
678.549	10.06
678.958	10.15
679.366	10.27
679.775	10.38
680.183	10.52
680.592	10.69
681	10.87
681.408	11.06
681.816	11.3
682.224	11.55
682.632	11.82
683.04	12.13
683.448	12.45
683.856	12.78
684.264	13.16
684.671	13.56
685.079	13.99
685.487	14.44
685.894	14.92
686.302	15.4
686.709	15.9
687.116	16.43
687.524	16.97
687.931	17.52
688.338	18.1
688.745	18.68
689.152	19.25
689.559	19.84
689.966	20.43
690.373	21.03
690.78	21.62
691.187	22.21
691.593	22.78
692	23.35
692.407	23.9
692.813	24.47
693.22	25.01
693.626	25.53
694.032	26.04
694.439	26.53
694.845	27.01
695.251	27.49
695.657	27.95
696.063	28.41
696.469	28.85
696.875	29.3
697.281	29.7
697.687	30.1
698.093	30.51
698.498	30.87
698.904	31.24
699.31	31.6
699.715	31.95
700.12	32.29
700.526	32.62
700.931	32.92
701.337	33.2
701.742	33.48
702.147	33.75
702.552	34.01
702.957	34.26
703.362	34.5
703.767	34.71
704.172	34.91
704.577	35.12
704.981	35.33
705.386	35.52
705.791	35.72
706.195	35.91
706.6	36.11
707.004	36.3
707.408	36.49
707.813	36.68
708.217	36.85
708.621	37.01
709.025	37.17
709.43	37.34
709.834	37.5
710.237	37.65
710.641	37.79
711.045	37.93
711.449	38.07
711.853	38.24
712.256	38.37
712.66	38.49
713.064	38.6
713.467	38.73
713.87	38.83
714.274	38.92
714.677	39.03
715.08	39.14
715.484	39.26
715.887	39.37
716.29	39.43
716.693	39.54
717.096	39.66
717.499	39.77
717.901	39.85
718.304	39.93
718.707	40.04
719.109	40.11
719.512	40.18
719.915	40.26
720.317	40.32
720.719	40.37
721.122	40.42
721.524	40.47
721.926	40.54
722.328	40.61
722.731	40.67
723.133	40.72
723.535	40.79
723.937	40.87
724.338	40.91
724.74	40.97
725.142	41.24
725.544	41.3
725.945	41.41
726.347	41.45
726.748	41.5
727.15	41.54
727.551	41.6
727.952	41.63
728.354	41.67
728.755	41.71
729.156	41.73
729.557	41.55
729.958	41.57
730.359	41.56
730.76	41.6
731.161	41.64
731.562	41.68
731.962	41.67
732.363	41.72
732.763	41.73
733.164	41.73
733.564	41.77
733.965	41.79
734.365	41.83
734.766	41.84
735.166	41.86
735.566	41.88
735.966	41.93
736.366	41.97
736.766	41.96
737.166	41.98
737.566	42.03
737.966	42.04
738.365	42.09
738.765	42.13
739.165	42.16
739.564	42.18
739.964	42.18
740.363	42.16
740.763	42.19
741.162	42.2
741.561	42.22
741.96	42.2
742.36	42.21
742.759	42.21
743.158	42.2
743.557	42.2
743.955	42.2
744.354	42.19
744.753	42.21
745.152	42.22
745.55	42.22
745.949	42.21
746.348	42.22
746.746	42.22
747.144	42.23
747.543	42.22
747.941	42.23
748.339	42.21
748.737	42.22
749.136	42.21
749.534	42.19
749.932	42.2
750.33	42.2
750.727	42.22
751.125	42.23
751.523	42.22
751.921	42.24
752.318	42.26
752.716	42.3
753.113	42.32
753.511	42.33
753.908	42.38
754.305	42.41
754.703	42.41
755.1	42.4
755.497	42.4
755.894	42.39
756.291	42.4
756.688	42.38
757.085	42.36
757.482	42.36
757.878	42.38
758.275	42.35
758.672	42.33
759.068	42.36
759.465	42.37
759.861	42.38
760.258	42.4
760.654	42.39
761.05	42.43
761.447	42.45
761.843	42.45
762.239	42.44
762.635	42.45
763.031	42.46
763.427	42.44
763.822	42.43
764.218	42.43
764.614	42.42
765.01	42.43
765.405	42.4
765.801	42.38
766.196	42.39
766.592	42.41
766.987	42.42
767.382	42.41
767.778	42.4
768.173	42.41
768.568	42.39
768.963	42.39
769.358	42.39
769.753	42.42
770.148	42.43
770.542	42.43
770.937	42.41
771.332	42.41
771.726	42.43
772.121	42.46
772.515	42.45
772.91	42.45
773.304	42.49
773.699	42.49
774.093	42.47
774.487	42.48
774.881	42.51
775.275	42.52
775.669	42.5
776.063	42.5
776.457	42.48
776.851	42.48
777.245	42.47
777.638	42.43
778.032	42.42
778.425	42.43
778.819	42.43
779.212	42.43
779.606	42.44
