Data from C_3_DEC_ON_6N_Splice17_14-24-17-092.txt Node
Date: Sat Mar 07 14:24:17 EST 2020
User: sa697716
Spectrometer: NQ5500242
Trigger mode: 0
Integration Time (sec): 1.450000E-1
Scans to average: 20
Nonlinearity correction enabled: false
Boxcar width: 5
Storing dark spectrum: false
XAxis mode: Wavelengths
Number of Pixels in Spectrum: 512
>>>>>Begin Spectral Data<<<<<
187.83	190.2
188.298	190.65
188.766	159.35
189.233	137.61
189.701	134.82
190.169	163.75
190.636	200.33
191.104	295.9
191.571	365.93
192.039	363.25
192.506	478.64
192.974	72.95
193.441	42.46
193.908	23.76
194.375	48.39
194.842	-4.53
195.31	74.17
195.777	97.43
196.244	65.9
196.711	72.06
197.177	73.52
197.644	72.94
198.111	72.27
198.578	72.32
199.045	72.24
199.511	72.23
199.978	72.34
200.445	72.38
200.911	72.66
201.378	73.05
201.844	72.89
202.31	72.53
202.777	72.67
203.243	72.72
203.709	72.31
204.176	71.64
204.642	71.01
205.108	70.67
205.574	69.97
206.04	69.13
206.506	68.25
206.972	67.83
207.438	67.07
207.903	65.74
208.369	64.3
208.835	63.02
209.301	61.59
209.766	59.88
210.232	58.06
210.697	56.41
211.163	55.12
211.628	53.8
212.094	52.13
212.559	50.91
213.024	49.53
213.49	48.28
213.955	47.05
214.42	45.89
214.885	44.56
215.35	42.83
215.815	40.62
216.28	37.64
216.745	34.48
217.21	31.45
217.675	28.57
218.14	26.07
218.604	23.86
219.069	22.03
219.534	20.49
219.998	19.2
220.463	18.13
220.927	17.14
221.392	16.38
221.856	15.72
222.32	15.15
222.785	14.63
223.249	14.2
223.713	13.8
224.177	13.45
224.642	13.12
225.106	12.79
225.57	12.51
226.034	12.28
226.497	12.03
226.961	11.8
227.425	11.59
227.889	11.41
228.353	11.22
228.816	11.02
229.28	10.83
229.744	10.65
230.207	10.48
230.671	10.3
231.134	10.13
231.597	10.02
232.061	9.87
232.524	9.74
232.987	9.6
233.45	9.48
233.914	9.37
234.377	9.25
234.84	9.15
235.303	9.08
235.766	8.98
236.229	8.9
236.691	8.79
237.154	8.72
237.617	8.64
238.08	8.55
238.542	8.46
239.005	8.38
239.468	8.3
239.93	8.22
240.393	8.14
240.855	8.07
241.317	7.99
241.78	7.92
242.242	7.84
242.704	7.77
243.166	7.69
243.629	7.63
244.091	7.55
244.553	7.49
245.015	7.42
245.477	7.34
245.939	7.28
246.4	7.2
246.862	7.13
247.324	7.07
247.786	7
248.247	6.95
248.709	6.89
249.17	6.83
249.632	6.79
250.093	6.73
250.555	6.67
251.016	6.62
251.477	6.56
251.939	6.52
252.4	6.48
252.861	6.45
253.322	6.42
253.783	6.39
254.244	6.35
254.705	6.3
255.166	6.27
255.627	6.23
256.088	6.21
256.549	6.18
257.009	6.14
257.47	6.11
257.931	6.06
258.391	6.01
258.852	5.95
259.312	5.91
259.773	5.87
260.233	5.84
260.694	5.8
261.154	5.76
261.614	5.72
262.074	5.68
262.534	5.64
262.994	5.6
263.455	5.58
263.915	5.55
264.374	5.52
264.834	5.5
265.294	5.48
265.754	5.46
266.214	5.43
266.673	5.41
267.133	5.4
267.593	5.38
268.052	5.37
268.512	5.36
268.971	5.35
269.431	5.34
269.89	5.32
270.349	5.31
270.809	5.29
271.268	5.29
271.727	5.28
272.186	5.27
272.645	5.26
273.104	5.24
273.563	5.23
274.022	5.23
274.481	5.22
274.94	5.21
275.399	5.2
275.857	5.19
276.316	5.19
276.775	5.17
277.233	5.17
277.692	5.15
278.15	5.14
278.609	5.13
279.067	5.12
279.525	5.11
279.984	5.1
280.442	5.09
280.9	5.09
281.358	5.07
281.816	5.07
282.274	5.07
282.732	5.06
283.19	5.05
283.648	5.05
284.106	5.04
284.564	5.04
285.021	5.04
285.479	5.03
285.937	5.03
286.394	5.04
286.852	5.03
287.309	5.02
287.767	5.02
288.224	5.01
288.682	4.99
289.139	4.98
289.596	4.96
290.053	4.94
290.511	4.92
290.968	4.9
291.425	4.88
291.882	4.86
292.339	4.83
292.796	4.82
293.252	4.81
293.709	4.8
294.166	4.79
294.623	4.78
295.079	4.77
295.536	4.76
295.992	4.75
296.449	4.75
296.905	4.74
297.362	4.74
297.818	4.73
298.274	4.72
298.731	4.71
299.187	4.7
299.643	4.68
300.099	4.68
300.555	4.67
301.011	4.66
301.467	4.65
301.923	4.64
302.379	4.63
302.835	4.63
303.291	4.62
303.746	4.62
304.202	4.62
304.658	4.62
305.113	4.62
305.569	4.63
306.024	4.62
306.479	4.62
306.935	4.62
307.39	4.62
307.845	4.62
308.301	4.63
308.756	4.64
309.211	4.64
309.666	4.66
310.121	4.66
310.576	4.66
311.031	4.67
311.486	4.68
311.94	4.69
312.395	4.7
312.85	4.7
313.305	4.71
313.759	4.71
314.214	4.7
314.668	4.69
315.123	4.69
315.577	4.69
316.032	4.69
316.486	4.68
316.94	4.66
317.394	4.65
317.849	4.63
318.303	4.62
318.757	4.6
319.211	4.6
319.665	4.58
320.119	4.57
320.572	4.56
321.026	4.54
321.48	4.53
321.934	4.52
322.387	4.51
322.841	4.51
323.295	4.52
323.748	4.51
324.202	4.51
324.655	4.5
325.108	4.5
325.562	4.5
326.015	4.5
326.468	4.5
326.921	4.51
327.374	4.5
327.827	4.51
328.28	4.5
328.733	4.51
329.186	4.51
329.639	4.51
330.092	4.52
330.545	4.52
330.997	4.52
331.45	4.53
331.903	4.53
332.355	4.55
332.808	4.55
333.26	4.56
333.713	4.56
334.165	4.56
334.617	4.57
335.069	4.57
335.522	4.58
335.974	4.59
336.426	4.59
336.878	4.58
337.33	4.57
337.782	4.57
338.234	4.57
338.686	4.57
339.137	4.58
339.589	4.57
340.041	4.56
340.493	4.55
340.944	4.53
341.396	4.51
341.847	4.5
342.299	4.49
342.75	4.47
343.201	4.44
343.653	4.43
344.104	4.41
344.555	4.39
345.006	4.38
345.457	4.37
345.908	4.37
346.359	4.36
346.81	4.36
347.261	4.35
347.712	4.35
348.163	4.35
348.613	4.35
349.064	4.35
349.515	4.36
349.965	4.35
350.416	4.34
350.866	4.34
351.317	4.34
351.767	4.34
352.217	4.35
352.668	4.34
353.118	4.34
353.568	4.33
354.018	4.34
354.468	4.34
354.918	4.34
355.368	4.36
355.818	4.36
356.268	4.36
356.718	4.36
357.168	4.35
357.617	4.35
358.067	4.36
358.517	4.38
358.966	4.38
359.416	4.39
359.865	4.39
360.315	4.39
360.764	4.39
361.213	4.4
361.663	4.39
362.112	4.4
362.561	4.41
363.01	4.41
363.459	4.4
363.908	4.39
364.357	4.39
364.806	4.39
365.255	4.39
365.703	4.4
366.152	4.4
366.601	4.41
367.05	4.42
367.498	4.43
367.947	4.43
368.395	4.44
368.844	4.45
369.292	4.46
369.74	4.47
370.189	4.47
370.637	4.47
371.085	4.47
371.533	4.47
371.981	4.47
372.429	4.47
372.877	4.49
373.325	4.5
373.773	4.49
374.221	4.49
374.669	4.49
375.116	4.49
375.564	4.49
376.012	4.49
376.459	4.49
376.907	4.51
377.354	4.51
377.801	4.52
378.249	4.53
378.696	4.53
379.143	4.55
379.591	4.57
380.038	4.59
380.485	4.61
380.932	4.61
381.379	4.63
381.826	4.65
382.273	4.66
382.72	4.66
383.166	4.67
383.613	4.68
384.06	4.68
384.506	4.69
384.953	4.7
385.4	4.71
385.846	4.74
386.292	4.75
386.739	4.75
387.185	4.77
387.631	4.79
388.078	4.8
388.524	4.81
388.97	4.83
389.416	4.85
389.862	4.86
390.308	4.88
390.754	4.9
391.2	4.92
391.645	4.95
392.091	4.98
392.537	5.01
392.983	5.04
393.428	5.07
393.874	5.09
394.319	5.11
394.765	5.12
395.21	5.13
395.655	5.15
396.101	5.17
396.546	5.17
396.991	5.18
397.436	5.18
397.881	5.2
398.326	5.22
398.771	5.25
399.216	5.28
399.661	5.31
400.106	5.33
400.551	5.33
400.995	5.32
401.44	5.34
401.885	5.34
402.329	5.36
402.774	5.36
403.218	5.38
403.663	5.39
404.107	5.4
404.551	5.4
404.995	5.41
405.44	5.42
405.884	5.43
406.328	5.44
406.772	5.46
407.216	5.47
407.66	5.48
408.104	5.47
408.547	5.48
408.991	5.49
409.435	5.5
409.879	5.5
410.322	5.51
410.766	5.53
411.209	5.55
411.653	5.57
412.096	5.58
412.54	5.58
412.983	5.59
413.426	5.63
413.869	5.63
414.312	5.65
414.756	5.68
415.199	5.69
415.642	5.71
416.085	5.72
416.527	5.72
416.97	5.72
417.413	5.73
417.856	5.73
418.298	5.7
418.741	5.7
419.184	5.69
419.626	5.68
420.069	5.69
420.511	5.68
420.953	5.68
421.396	5.68
421.838	5.69
422.28	5.7
422.722	5.73
423.164	5.75
423.606	5.76
424.048	5.79
424.49	5.8
424.932	5.8
425.374	5.8
425.816	5.79
426.258	5.78
426.699	5.76
427.141	5.74
427.582	5.74
428.024	5.74
428.465	5.75
428.907	5.75
429.348	5.75
429.789	5.73
430.231	5.74
430.672	5.75
431.113	5.77
431.554	5.79
431.995	5.82
432.436	5.82
432.877	5.82
433.318	5.83
433.759	5.85
434.2	5.86
434.64	5.9
435.081	5.92
435.522	5.94
435.962	5.97
436.403	6.01
436.843	6.02
437.284	6.03
437.724	6.04
438.164	6.05
438.604	6.07
439.045	6.08
439.485	6.08
439.925	6.09
440.365	6.11
440.805	6.11
441.245	6.11
441.685	6.12
442.125	6.15
442.564	6.17
443.004	6.18
443.444	6.16
443.883	6.18
444.323	6.19
444.762	6.2
445.202	6.21
445.641	6.23
446.081	6.24
446.52	6.25
446.959	6.28
447.398	6.29
447.837	6.3
448.276	6.31
448.716	6.34
449.154	6.36
449.593	6.36
450.032	6.36
450.471	6.36
450.91	6.36
451.349	6.35
451.787	6.33
452.226	6.31
452.664	6.3
453.103	6.29
453.541	6.26
453.98	6.25
454.418	6.22
454.856	6.2
455.295	6.19
455.733	6.15
456.171	6.14
456.609	6.12
457.047	6.1
457.485	6.08
457.923	6.07
458.361	6.05
458.798	6.03
459.236	6.02
459.674	6.02
460.111	6.01
460.549	6.02
460.987	6.01
461.424	6.02
461.862	6.03
462.299	6.03
462.736	6.02
463.173	6.03
463.611	6.03
464.048	6.04
464.485	6.04
464.922	6.02
465.359	6.02
465.796	6.02
466.233	6.04
466.67	6.03
467.106	6.04
467.543	6.04
467.98	6.04
468.416	6.06
468.853	6.07
469.29	6.07
469.726	6.08
470.162	6.09
470.599	6.1
471.035	6.08
471.471	6.08
471.907	6.08
472.344	6.09
472.78	6.09
473.216	6.07
473.652	6.06
474.088	6.04
474.523	6.05
474.959	6.04
475.395	6.02
475.831	6.01
476.266	6.01
476.702	6
477.138	5.98
477.573	5.97
478.008	5.97
478.444	5.95
478.879	5.96
479.314	5.94
479.75	5.94
480.185	5.93
480.62	5.93
481.055	5.92
481.49	5.9
481.925	5.89
482.36	5.88
482.795	5.87
483.229	5.87
483.664	5.86
484.099	5.85
484.534	5.84
484.968	5.83
485.403	5.82
485.837	5.82
486.271	5.83
486.706	5.83
487.14	5.83
487.574	5.84
488.009	5.85
488.443	5.86
488.877	5.87
489.311	5.89
489.745	5.92
490.179	5.94
490.613	5.96
491.046	5.98
491.48	6
491.914	6.03
492.348	6.06
492.781	6.09
493.215	6.12
493.648	6.16
494.082	6.19
494.515	6.21
494.948	6.25
495.382	6.3
495.815	6.35
496.248	6.4
496.681	6.46
497.114	6.52
497.547	6.57
497.98	6.64
498.413	6.7
498.846	6.77
499.279	6.84
499.711	6.91
500.144	6.99
500.577	7.06
501.009	7.14
501.442	7.22
501.874	7.31
502.306	7.4
502.739	7.51
503.171	7.62
503.603	7.73
504.036	7.84
504.468	7.96
504.9	8.08
505.332	8.21
505.764	8.34
506.196	8.49
506.627	8.64
507.059	8.8
507.491	8.95
507.923	9.12
508.354	9.29
508.786	9.47
509.217	9.66
509.649	9.86
510.08	10.06
510.512	10.26
510.943	10.46
511.374	10.66
511.805	10.86
512.237	11.07
512.668	11.29
513.099	11.52
513.53	11.75
513.961	11.97
514.391	12.21
514.822	12.46
515.253	12.71
515.684	12.95
516.114	13.22
516.545	13.48
516.975	13.73
517.406	13.99
517.836	14.24
518.267	14.51
518.697	14.77
519.127	15
519.558	15.25
519.988	15.5
520.418	15.76
520.848	15.99
521.278	16.22
521.708	16.56
522.138	16.8
522.567	17.03
522.997	17.24
523.427	17.47
523.857	17.7
524.286	17.9
524.716	18.11
525.145	18.3
525.575	18.49
526.004	18.69
526.433	18.77
526.863	18.95
527.292	19.13
527.721	19.29
528.15	19.43
528.579	19.58
529.008	19.73
529.437	19.87
529.866	19.99
530.295	20.13
530.724	20.27
531.152	20.38
531.581	20.48
532.01	20.58
532.438	20.69
532.867	20.8
533.295	20.88
533.723	20.96
534.152	21.04
534.58	21.13
535.008	21.2
535.436	21.26
535.865	21.31
536.293	21.36
536.721	21.4
537.149	21.44
537.576	21.47
538.004	21.53
538.432	21.56
538.86	21.59
539.287	21.61
539.715	21.64
540.143	21.66
540.57	21.69
540.998	21.71
541.425	21.76
541.852	21.78
542.28	21.82
542.707	21.84
543.134	21.87
543.561	21.9
543.988	21.93
544.415	21.96
544.842	21.98
545.269	22.02
545.696	22.07
546.123	22.09
546.549	22.12
546.976	22.15
547.403	22.2
547.829	22.22
548.256	22.23
548.682	22.25
549.108	22.26
549.535	22.31
549.961	22.33
550.387	22.34
550.813	22.36
551.24	22.38
551.666	22.39
552.092	22.4
552.518	22.41
552.943	22.4
553.369	22.4
553.795	22.4
554.221	22.37
554.646	22.33
555.072	22.3
555.498	22.26
555.923	22.22
556.349	22.15
556.774	22.1
557.199	22.05
557.625	21.99
558.05	21.92
558.475	21.86
558.9	21.81
559.325	21.74
559.75	21.67
560.175	21.57
560.6	21.48
561.025	21.4
561.449	21.31
561.874	21.21
562.299	21.11
562.723	21.01
563.148	20.88
563.572	20.75
563.997	20.6
564.421	20.46
564.846	20.34
565.27	20.19
565.694	20.06
566.118	19.92
566.542	19.76
566.966	19.6
567.39	19.44
567.814	19.3
568.238	19.15
568.662	19.02
569.086	18.88
569.509	18.74
569.933	18.59
570.357	18.45
570.78	18.29
571.204	18.17
571.627	18.04
572.05	17.92
572.474	17.8
572.897	17.68
573.32	17.56
573.743	17.45
574.166	17.33
574.589	17.23
575.012	17.12
575.435	17.03
575.858	16.93
576.281	16.84
576.704	16.74
577.126	16.65
577.549	16.57
577.972	16.48
578.394	16.4
578.817	16.33
579.239	16.26
579.661	16.2
580.084	16.13
580.506	16.07
580.928	16.01
581.35	15.94
581.772	15.87
582.194	15.79
582.616	15.73
583.038	15.66
583.46	15.59
583.882	15.52
584.303	15.46
584.725	15.39
585.147	15.31
585.568	15.26
585.99	15.2
586.411	15.15
586.833	15.09
587.254	15.04
587.675	14.99
588.096	14.94
588.518	14.89
588.939	14.86
589.36	14.82
589.781	14.77
590.202	14.74
590.623	14.7
591.043	14.66
591.464	14.62
591.885	14.59
592.305	14.55
592.726	14.51
593.147	14.48
593.567	14.44
593.987	14.4
594.408	14.36
594.828	14.33
595.248	14.29
595.669	14.26
596.089	14.24
596.509	14.2
596.929	14.17
597.349	14.13
597.769	14.1
598.189	14.06
598.608	14.03
599.028	14
599.448	13.96
599.867	13.92
600.287	13.88
600.706	13.84
601.126	13.79
601.545	13.75
601.965	13.71
602.384	13.65
602.803	13.6
603.222	13.54
603.641	13.49
604.061	13.45
604.48	13.4
604.898	13.34
605.317	13.29
605.736	13.24
606.155	13.18
606.574	13.12
606.992	13.07
607.411	13.02
607.829	12.94
608.248	12.87
608.666	12.8
609.085	12.75
609.503	12.68
609.921	12.61
610.339	12.56
610.758	12.5
611.176	12.43
611.594	12.38
612.012	12.32
612.43	12.28
612.847	12.22
613.265	12.15
613.683	12.09
614.101	12.05
614.518	12
614.936	11.93
615.353	11.87
615.771	11.83
616.188	11.77
616.606	11.71
617.023	11.67
617.44	11.63
617.857	11.59
618.274	11.54
618.691	11.49
619.108	11.45
619.525	11.42
619.942	11.39
620.359	11.35
620.776	11.33
621.192	11.31
621.609	11.29
622.026	11.27
622.442	11.25
622.859	11.23
623.275	11.22
623.691	11.21
624.108	11.2
624.524	11.17
624.94	11.17
625.356	11.15
625.772	11.13
626.188	11.13
626.604	11.12
627.02	11.11
627.436	11.1
627.852	11.09
628.268	11.07
628.683	11.06
629.099	11.06
629.514	11.04
629.93	11.03
630.345	11.01
630.761	10.97
631.176	10.93
631.591	10.89
632.007	10.85
632.422	10.81
632.837	10.76
633.252	10.7
633.667	10.64
634.082	10.56
634.497	10.49
634.911	10.41
635.326	10.32
635.741	10.25
636.155	10.16
636.57	10.07
636.984	9.97
637.399	9.86
637.813	9.76
638.228	9.65
638.642	9.55
639.056	9.44
639.47	9.33
639.884	9.24
640.298	9.13
640.712	9.03
641.126	8.93
641.54	8.83
641.954	8.73
642.368	8.64
642.781	8.56
643.195	8.47
643.609	8.38
644.022	8.3
644.436	8.22
644.849	8.13
645.262	8.05
645.676	7.97
646.089	7.91
646.502	7.84
646.915	7.79
647.328	7.73
647.741	7.68
648.154	7.63
648.567	7.59
648.98	7.55
649.393	7.53
649.805	7.5
650.218	7.47
650.631	7.46
651.043	7.43
651.456	7.41
651.868	7.38
652.28	7.37
652.693	7.35
653.105	7.34
653.517	7.32
653.929	7.29
654.341	7.27
654.753	7.24
655.165	7.2
655.577	7.17
655.989	7.13
656.401	7.09
656.813	7.05
657.224	7.01
657.636	6.94
658.047	6.9
658.459	6.85
658.87	6.81
659.282	6.74
659.693	6.71
660.104	6.65
660.515	6.6
660.926	6.55
661.338	6.5
661.749	6.44
662.159	6.4
662.57	6.36
662.981	6.32
663.392	6.27
663.803	6.24
664.213	6.2
664.624	6.17
665.035	6.15
665.445	6.13
665.855	6.1
666.266	6.09
666.676	6.09
667.086	6.06
667.497	6.05
667.907	6.04
668.317	6.03
668.727	6.02
669.137	6.02
669.547	6.02
669.956	6.01
670.366	6.02
670.776	6.01
671.186	6.01
671.595	6.02
672.005	6.02
672.414	6.04
672.824	6.05
673.233	6.06
673.642	6.08
674.052	6.09
674.461	6.1
674.87	6.12
675.279	6.14
675.688	6.18
676.097	6.2
676.506	6.24
676.915	6.27
677.323	6.31
677.732	6.34
678.141	6.39
678.549	6.43
678.958	6.49
679.366	6.54
679.775	6.59
680.183	6.64
680.592	6.71
681	6.79
681.408	6.86
681.816	6.94
682.224	7.04
682.632	7.13
683.04	7.25
683.448	7.37
683.856	7.51
684.264	7.66
684.671	7.82
685.079	7.99
685.487	8.18
685.894	8.42
686.302	8.66
686.709	8.92
687.116	9.21
687.524	9.52
687.931	9.85
688.338	10.2
688.745	10.58
689.152	10.98
689.559	11.42
689.966	11.86
690.373	12.31
690.78	12.79
691.187	13.27
691.593	13.79
692	14.3
692.407	14.82
692.813	15.36
693.22	15.9
693.626	16.46
694.032	17.02
694.439	17.57
694.845	18.15
695.251	18.72
695.657	19.28
696.063	19.86
696.469	20.43
696.875	21
697.281	21.55
697.687	22.13
698.093	22.69
698.498	23.24
698.904	23.79
699.31	24.32
699.715	24.85
700.12	25.38
700.526	25.89
700.931	26.4
701.337	26.91
701.742	27.39
702.147	27.86
702.552	28.33
702.957	28.76
703.362	29.21
703.767	29.65
704.172	30.09
704.577	30.51
704.981	30.93
705.386	31.32
705.791	31.71
706.195	32.13
706.6	32.53
707.004	32.91
707.408	33.31
707.813	33.71
708.217	34.05
708.621	34.43
709.025	34.77
709.43	35.13
709.834	35.49
710.237	35.82
710.641	36.13
711.045	36.44
711.449	36.76
711.853	37.09
712.256	37.39
712.66	37.7
713.064	37.99
713.467	38.29
713.87	38.57
714.274	38.85
714.677	39.15
715.08	39.41
715.484	39.7
715.887	39.97
716.29	40.22
716.693	40.49
717.096	40.75
717.499	41
717.901	41.27
718.304	41.51
718.707	41.76
719.109	42
719.512	42.23
719.915	42.48
720.317	42.68
720.719	42.85
721.122	43.01
721.524	43.22
721.926	43.44
722.328	43.62
722.731	43.79
723.133	43.98
723.535	44.14
723.937	44.29
724.338	44.44
724.74	44.63
725.142	44.85
725.544	45.01
725.945	45.15
726.347	45.25
726.748	45.4
727.15	45.52
727.551	45.63
727.952	45.75
728.354	45.89
728.755	45.98
729.156	46.07
729.557	46.13
729.958	46.24
730.359	46.35
730.76	46.46
731.161	46.53
731.562	46.64
731.962	46.72
732.363	46.8
732.763	46.9
733.164	46.98
733.564	47.05
733.965	47.11
734.365	47.17
734.766	47.22
735.166	47.27
735.566	47.33
735.966	47.39
736.366	47.44
736.766	47.49
737.166	47.52
737.566	47.58
737.966	47.63
738.365	47.69
738.765	47.76
739.165	47.81
739.564	47.88
739.964	47.92
740.363	47.95
740.763	48.02
741.162	48.07
741.561	48.1
741.96	48.12
742.36	48.14
742.759	48.16
743.158	48.18
743.557	48.19
743.955	48.22
744.354	48.26
744.753	48.31
745.152	48.35
745.55	48.37
745.949	48.41
746.348	48.45
746.746	48.48
747.144	48.54
747.543	48.56
747.941	48.61
748.339	48.61
748.737	48.64
749.136	48.64
749.534	48.63
749.932	48.64
750.33	48.65
750.727	48.68
751.125	48.7
751.523	48.7
751.921	48.69
752.318	48.7
752.716	48.69
753.113	48.68
753.511	48.69
753.908	48.71
754.305	48.68
754.703	48.68
755.1	48.65
755.497	48.64
755.894	48.62
756.291	48.61
756.688	48.59
757.085	48.6
757.482	48.59
757.878	48.58
758.275	48.55
758.672	48.58
759.068	48.59
759.465	48.58
759.861	48.61
760.258	48.63
760.654	48.64
761.05	48.64
761.447	48.66
761.843	48.66
762.239	48.65
762.635	48.65
763.031	48.65
763.427	48.62
763.822	48.63
764.218	48.63
764.614	48.61
765.01	48.6
765.405	48.59
765.801	48.55
766.196	48.56
766.592	48.56
766.987	48.57
767.382	48.55
767.778	48.55
768.173	48.57
768.568	48.54
768.963	48.54
769.358	48.56
769.753	48.56
770.148	48.56
770.542	48.57
770.937	48.59
771.332	48.59
771.726	48.61
772.121	48.61
772.515	48.62
772.91	48.62
773.304	48.63
773.699	48.61
774.093	48.63
774.487	48.66
774.881	48.68
775.275	48.65
775.669	48.66
776.063	48.64
776.457	48.65
776.851	48.63
777.245	48.62
777.638	48.62
778.032	48.64
778.425	48.68
778.819	48.68
779.212	48.69
779.606	48.73
779.999	48.75
780.392	48.79
780.786	48.8
781.179	48.82
781.572	48.88
781.965	48.9
782.358	48.9
