Data from C_3_HIR_WI_4N_Splice17_14-05-58-804.txt Node
Date: Sat Mar 07 14:05:58 EST 2020
User: sa697716
Spectrometer: NQ5500242
Trigger mode: 0
Integration Time (sec): 1.450000E-1
Scans to average: 20
Nonlinearity correction enabled: false
Boxcar width: 5
Storing dark spectrum: false
XAxis mode: Wavelengths
Number of Pixels in Spectrum: 512
>>>>>Begin Spectral Data<<<<<
187.83	168.17
188.298	183.79
188.766	136.09
189.233	123.88
189.701	116.47
190.169	127.93
190.636	89.17
191.104	33.42
191.571	-199.49
192.039	-45.99
192.506	-734.43
192.974	259.98
193.441	407.39
193.908	12.62
194.375	38.31
194.842	-40.26
195.31	-74.93
195.777	-306.95
196.244	27.96
196.711	51.44
197.177	56.44
197.644	56.19
198.111	56.79
198.578	57.37
199.045	59.05
199.511	59.21
199.978	59.21
200.445	59.38
200.911	59.41
201.378	59.74
201.844	60.15
202.31	59.8
202.777	60.17
203.243	60.15
203.709	59.85
204.176	59.19
204.642	58.77
205.108	58.81
205.574	58.69
206.04	58.08
206.506	57.78
206.972	57.21
207.438	56.64
207.903	55.71
208.369	54.43
208.835	53.24
209.301	52.11
209.766	50.54
210.232	49.07
210.697	47.48
211.163	46.13
211.628	44.86
212.094	43.47
212.559	42.61
213.024	41.65
213.49	40.75
213.955	39.87
214.42	38.94
214.885	37.96
215.35	36.72
215.815	34.97
216.28	32.59
216.745	29.93
217.21	27.41
217.675	24.95
218.14	22.78
218.604	20.9
219.069	19.3
219.534	17.98
219.998	16.92
220.463	15.99
220.927	15.13
221.392	14.52
221.856	13.97
222.32	13.52
222.785	13.13
223.249	12.76
223.713	12.44
224.177	12.2
224.642	11.94
225.106	11.65
225.57	11.39
226.034	11.21
226.497	11
226.961	10.81
227.425	10.61
227.889	10.43
228.353	10.25
228.816	10.08
229.28	9.9
229.744	9.75
230.207	9.61
230.671	9.46
231.134	9.31
231.597	9.2
232.061	9.08
232.524	8.95
232.987	8.83
233.45	8.75
233.914	8.64
234.377	8.53
234.84	8.43
235.303	8.35
235.766	8.26
236.229	8.19
236.691	8.1
237.154	8.03
237.617	7.96
238.08	7.89
238.542	7.8
239.005	7.74
239.468	7.67
239.93	7.59
240.393	7.52
240.855	7.44
241.317	7.36
241.78	7.29
242.242	7.21
242.704	7.15
243.166	7.08
243.629	7.03
244.091	6.95
244.553	6.9
245.015	6.84
245.477	6.78
245.939	6.73
246.4	6.67
246.862	6.62
247.324	6.57
247.786	6.51
248.247	6.45
248.709	6.39
249.17	6.33
249.632	6.29
250.093	6.25
250.555	6.2
251.016	6.16
251.477	6.1
251.939	6.08
252.4	6.04
252.861	6
253.322	5.97
253.783	5.94
254.244	5.91
254.705	5.87
255.166	5.84
255.627	5.8
256.088	5.77
256.549	5.75
257.009	5.7
257.47	5.66
257.931	5.61
258.391	5.57
258.852	5.53
259.312	5.49
259.773	5.45
260.233	5.41
260.694	5.38
261.154	5.33
261.614	5.29
262.074	5.25
262.534	5.22
262.994	5.2
263.455	5.17
263.915	5.14
264.374	5.11
264.834	5.09
265.294	5.06
265.754	5.04
266.214	5.03
266.673	5.01
267.133	5
267.593	4.99
268.052	4.97
268.512	4.96
268.971	4.95
269.431	4.93
269.89	4.92
270.349	4.9
270.809	4.89
271.268	4.88
271.727	4.86
272.186	4.85
272.645	4.84
273.104	4.83
273.563	4.81
274.022	4.8
274.481	4.8
274.94	4.79
275.399	4.78
275.857	4.77
276.316	4.77
276.775	4.76
277.233	4.75
277.692	4.73
278.15	4.72
278.609	4.72
279.067	4.7
279.525	4.7
279.984	4.68
280.442	4.68
280.9	4.67
281.358	4.66
281.816	4.65
282.274	4.64
282.732	4.63
283.19	4.62
283.648	4.61
284.106	4.6
284.564	4.59
285.021	4.59
285.479	4.58
285.937	4.57
286.394	4.56
286.852	4.55
287.309	4.54
287.767	4.53
288.224	4.52
288.682	4.51
289.139	4.49
289.596	4.47
290.053	4.45
290.511	4.43
290.968	4.41
291.425	4.39
291.882	4.38
292.339	4.36
292.796	4.34
293.252	4.33
293.709	4.32
294.166	4.3
294.623	4.29
295.079	4.28
295.536	4.27
295.992	4.25
296.449	4.24
296.905	4.23
297.362	4.22
297.818	4.2
298.274	4.19
298.731	4.18
299.187	4.17
299.643	4.16
300.099	4.15
300.555	4.14
301.011	4.13
301.467	4.13
301.923	4.12
302.379	4.12
302.835	4.11
303.291	4.1
303.746	4.1
304.202	4.1
304.658	4.1
305.113	4.09
305.569	4.09
306.024	4.08
306.479	4.08
306.935	4.07
307.39	4.07
307.845	4.07
308.301	4.07
308.756	4.07
309.211	4.06
309.666	4.07
310.121	4.07
310.576	4.07
311.031	4.07
311.486	4.06
311.94	4.07
312.395	4.06
312.85	4.07
313.305	4.07
313.759	4.07
314.214	4.06
314.668	4.04
315.123	4.03
315.577	4.03
316.032	4.03
316.486	4.03
316.94	4.03
317.394	4.01
317.849	4
318.303	3.99
318.757	3.97
319.211	3.96
319.665	3.95
320.119	3.94
320.572	3.92
321.026	3.91
321.48	3.9
321.934	3.88
322.387	3.87
322.841	3.86
323.295	3.85
323.748	3.85
324.202	3.85
324.655	3.84
325.108	3.84
325.562	3.84
326.015	3.83
326.468	3.83
326.921	3.82
327.374	3.83
327.827	3.83
328.28	3.83
328.733	3.82
329.186	3.82
329.639	3.82
330.092	3.82
330.545	3.82
330.997	3.82
331.45	3.82
331.903	3.84
332.355	3.84
332.808	3.84
333.26	3.84
333.713	3.83
334.165	3.83
334.617	3.83
335.069	3.82
335.522	3.83
335.974	3.84
336.426	3.83
336.878	3.82
337.33	3.82
337.782	3.81
338.234	3.81
338.686	3.81
339.137	3.83
339.589	3.82
340.041	3.82
340.493	3.81
340.944	3.79
341.396	3.78
341.847	3.77
342.299	3.74
342.75	3.73
343.201	3.71
343.653	3.7
344.104	3.67
344.555	3.65
345.006	3.64
345.457	3.63
345.908	3.62
346.359	3.62
346.81	3.61
347.261	3.61
347.712	3.6
348.163	3.59
348.613	3.6
349.064	3.59
349.515	3.59
349.965	3.59
350.416	3.58
350.866	3.58
351.317	3.57
351.767	3.57
352.217	3.56
352.668	3.57
353.118	3.57
353.568	3.56
354.018	3.57
354.468	3.57
354.918	3.57
355.368	3.57
355.818	3.58
356.268	3.59
356.718	3.59
357.168	3.59
357.617	3.58
358.067	3.59
358.517	3.6
358.966	3.6
359.416	3.6
359.865	3.6
360.315	3.61
360.764	3.61
361.213	3.62
361.663	3.62
362.112	3.63
362.561	3.64
363.01	3.64
363.459	3.64
363.908	3.64
364.357	3.66
364.806	3.67
365.255	3.68
365.703	3.69
366.152	3.7
366.601	3.72
367.05	3.73
367.498	3.75
367.947	3.76
368.395	3.79
368.844	3.81
369.292	3.82
369.74	3.84
370.189	3.85
370.637	3.87
371.085	3.88
371.533	3.89
371.981	3.9
372.429	3.92
372.877	3.95
373.325	3.97
373.773	4
374.221	4.02
374.669	4.04
375.116	4.06
375.564	4.07
376.012	4.1
376.459	4.12
376.907	4.15
377.354	4.18
377.801	4.2
378.249	4.21
378.696	4.23
379.143	4.25
379.591	4.28
380.038	4.32
380.485	4.37
380.932	4.4
381.379	4.44
381.826	4.48
382.273	4.51
382.72	4.54
383.166	4.57
383.613	4.61
384.06	4.65
384.506	4.67
384.953	4.71
385.4	4.73
385.846	4.77
386.292	4.8
386.739	4.83
387.185	4.87
387.631	4.91
388.078	4.95
388.524	4.99
388.97	5.02
389.416	5.07
389.862	5.1
390.308	5.13
390.754	5.18
391.2	5.21
391.645	5.25
392.091	5.29
392.537	5.33
392.983	5.36
393.428	5.4
393.874	5.43
394.319	5.46
394.765	5.49
395.21	5.5
395.655	5.52
396.101	5.55
396.546	5.57
396.991	5.6
397.436	5.62
397.881	5.65
398.326	5.69
398.771	5.72
399.216	5.75
399.661	5.78
400.106	5.81
400.551	5.82
400.995	5.83
401.44	5.83
401.885	5.84
402.329	5.85
402.774	5.86
403.218	5.88
403.663	5.89
404.107	5.89
404.551	5.89
404.995	5.89
405.44	5.9
405.884	5.91
406.328	5.93
406.772	5.92
407.216	5.93
407.66	5.93
408.104	5.91
408.547	5.91
408.991	5.91
409.435	5.92
409.879	5.92
410.322	5.93
410.766	5.93
411.209	5.95
411.653	5.97
412.096	5.98
412.54	5.99
412.983	6
413.426	6.03
413.869	6.06
414.312	6.08
414.756	6.1
415.199	6.09
415.642	6.1
416.085	6.1
416.527	6.08
416.97	6.08
417.413	6.07
417.856	6.05
418.298	6.03
418.741	6.02
419.184	6.02
419.626	6.04
420.069	6.06
420.511	6.06
420.953	6.06
421.396	6.07
421.838	6.07
422.28	6.09
422.722	6.12
423.164	6.12
423.606	6.12
424.048	6.11
424.49	6.1
424.932	6.08
425.374	6.06
425.816	6.03
426.258	6.01
426.699	5.99
427.141	5.97
427.582	5.95
428.024	5.96
428.465	5.95
428.907	5.95
429.348	5.93
429.789	5.91
430.231	5.93
430.672	5.93
431.113	5.94
431.554	5.95
431.995	5.96
432.436	5.96
432.877	5.96
433.318	5.97
433.759	5.99
434.2	6.01
434.64	6.04
435.081	6.05
435.522	6.05
435.962	6.07
436.403	6.1
436.843	6.11
437.284	6.13
437.724	6.14
438.164	6.14
438.604	6.15
439.045	6.15
439.485	6.17
439.925	6.18
440.365	6.19
440.805	6.22
441.245	6.25
441.685	6.27
442.125	6.29
442.564	6.32
443.004	6.35
443.444	6.37
443.883	6.39
444.323	6.39
444.762	6.43
445.202	6.45
445.641	6.47
446.081	6.49
446.52	6.51
446.959	6.55
447.398	6.58
447.837	6.62
448.276	6.64
448.716	6.66
449.154	6.71
449.593	6.74
450.032	6.78
450.471	6.79
450.91	6.8
451.349	6.82
451.787	6.81
452.226	6.8
452.664	6.8
453.103	6.8
453.541	6.8
453.98	6.79
454.418	6.77
454.856	6.75
455.295	6.74
455.733	6.71
456.171	6.7
456.609	6.7
457.047	6.69
457.485	6.68
457.923	6.67
458.361	6.66
458.798	6.64
459.236	6.63
459.674	6.64
460.111	6.64
460.549	6.65
460.987	6.66
461.424	6.64
461.862	6.65
462.299	6.65
462.736	6.64
463.173	6.64
463.611	6.65
464.048	6.65
464.485	6.65
464.922	6.65
465.359	6.63
465.796	6.64
466.233	6.65
466.67	6.66
467.106	6.67
467.543	6.66
467.98	6.66
468.416	6.65
468.853	6.65
469.29	6.65
469.726	6.65
470.162	6.65
470.599	6.65
471.035	6.64
471.471	6.64
471.907	6.63
472.344	6.64
472.78	6.65
473.216	6.65
473.652	6.65
474.088	6.64
474.523	6.64
474.959	6.66
475.395	6.64
475.831	6.64
476.266	6.64
476.702	6.64
477.138	6.64
477.573	6.63
478.008	6.64
478.444	6.62
478.879	6.62
479.314	6.61
479.75	6.6
480.185	6.6
480.62	6.6
481.055	6.6
481.49	6.59
481.925	6.59
482.36	6.6
482.795	6.59
483.229	6.6
483.664	6.63
484.099	6.63
484.534	6.64
484.968	6.66
485.403	6.67
485.837	6.68
486.271	6.71
486.706	6.73
487.14	6.74
487.574	6.77
488.009	6.81
488.443	6.83
488.877	6.87
489.311	6.91
489.745	6.95
490.179	7
490.613	7.06
491.046	7.11
491.48	7.16
491.914	7.22
492.348	7.28
492.781	7.34
493.215	7.41
493.648	7.48
494.082	7.56
494.515	7.63
494.948	7.71
495.382	7.79
495.815	7.89
496.248	7.98
496.681	8.09
497.114	8.19
497.547	8.3
497.98	8.42
498.413	8.53
498.846	8.66
499.279	8.77
499.711	8.91
500.144	9.05
500.577	9.19
501.009	9.33
501.442	9.47
501.874	9.63
502.306	9.79
502.739	9.96
503.171	10.13
503.603	10.31
504.036	10.5
504.468	10.69
504.9	10.88
505.332	11.08
505.764	11.29
506.196	11.51
506.627	11.74
507.059	11.96
507.491	12.19
507.923	12.43
508.354	12.68
508.786	12.94
509.217	13.19
509.649	13.46
510.08	13.73
510.512	14.01
510.943	14.28
511.374	14.55
511.805	14.84
512.237	15.12
512.668	15.43
513.099	15.72
513.53	16.02
513.961	16.32
514.391	16.63
514.822	16.94
515.253	17.26
515.684	17.56
516.114	17.87
516.545	18.19
516.975	18.51
517.406	18.81
517.836	19.1
518.267	19.42
518.697	19.73
519.127	20.02
519.558	20.32
519.988	20.62
520.418	20.92
520.848	21.21
521.278	21.49
521.708	21.9
522.138	22.18
522.567	22.46
522.997	22.71
523.427	22.95
523.857	23.2
524.286	23.42
524.716	23.65
525.145	23.88
525.575	24.09
526.004	24.31
526.433	24.38
526.863	24.57
527.292	24.76
527.721	24.92
528.15	25.1
528.579	25.27
529.008	25.44
529.437	25.58
529.866	25.71
530.295	25.86
530.724	25.97
531.152	26.1
531.581	26.21
532.01	26.34
532.438	26.46
532.867	26.57
533.295	26.65
533.723	26.74
534.152	26.81
534.58	26.9
535.008	26.96
535.436	27.04
535.865	27.1
536.293	27.15
536.721	27.18
537.149	27.23
537.576	27.26
538.004	27.31
538.432	27.35
538.86	27.38
539.287	27.4
539.715	27.45
540.143	27.47
540.57	27.5
540.998	27.53
541.425	27.55
541.852	27.58
542.28	27.63
542.707	27.66
543.134	27.69
543.561	27.74
543.988	27.79
544.415	27.82
544.842	27.83
545.269	27.86
545.696	27.9
546.123	27.93
546.549	27.95
546.976	27.97
547.403	27.99
547.829	28.02
548.256	28.03
548.682	28.05
549.108	28.08
549.535	28.12
549.961	28.14
550.387	28.15
550.813	28.17
551.24	28.18
551.666	28.19
552.092	28.18
552.518	28.19
552.943	28.18
553.369	28.19
553.795	28.16
554.221	28.14
554.646	28.1
555.072	28.08
555.498	28.05
555.923	28
556.349	27.94
556.774	27.9
557.199	27.84
557.625	27.78
558.05	27.7
558.475	27.64
558.9	27.54
559.325	27.48
559.75	27.4
560.175	27.3
560.6	27.21
561.025	27.12
561.449	27.02
561.874	26.92
562.299	26.81
562.723	26.69
563.148	26.56
563.572	26.43
563.997	26.29
564.421	26.16
564.846	26.03
565.27	25.88
565.694	25.73
566.118	25.58
566.542	25.43
566.966	25.28
567.39	25.13
567.814	24.98
568.238	24.83
568.662	24.68
569.086	24.51
569.509	24.36
569.933	24.22
570.357	24.07
570.78	23.92
571.204	23.76
571.627	23.61
572.05	23.46
572.474	23.33
572.897	23.19
573.32	23.06
573.743	22.93
574.166	22.8
574.589	22.69
575.012	22.56
575.435	22.45
575.858	22.33
576.281	22.22
576.704	22.12
577.126	22
577.549	21.91
577.972	21.81
578.394	21.7
578.817	21.61
579.239	21.51
579.661	21.43
580.084	21.34
580.506	21.26
580.928	21.17
581.35	21.08
581.772	21.01
582.194	20.92
582.616	20.84
583.038	20.77
583.46	20.68
583.882	20.61
584.303	20.53
584.725	20.45
585.147	20.38
585.568	20.32
585.99	20.26
586.411	20.19
586.833	20.14
587.254	20.07
587.675	20.02
588.096	19.97
588.518	19.92
588.939	19.87
589.36	19.81
589.781	19.78
590.202	19.73
590.623	19.68
591.043	19.62
591.464	19.58
591.885	19.53
592.305	19.49
592.726	19.45
593.147	19.41
593.567	19.37
593.987	19.34
594.408	19.3
594.828	19.26
595.248	19.24
595.669	19.21
596.089	19.18
596.509	19.16
596.929	19.13
597.349	19.09
597.769	19.05
598.189	19.01
598.608	18.98
599.028	18.95
599.448	18.92
599.867	18.87
600.287	18.83
600.706	18.79
601.126	18.71
601.545	18.67
601.965	18.62
602.384	18.57
602.803	18.51
603.222	18.45
603.641	18.38
604.061	18.33
604.48	18.27
604.898	18.2
605.317	18.12
605.736	18.06
606.155	17.99
606.574	17.91
606.992	17.83
607.411	17.75
607.829	17.65
608.248	17.55
608.666	17.44
609.085	17.35
609.503	17.26
609.921	17.18
610.339	17.1
610.758	17.01
611.176	16.91
611.594	16.83
612.012	16.73
612.43	16.66
612.847	16.6
613.265	16.53
613.683	16.45
614.101	16.38
614.518	16.3
614.936	16.23
615.353	16.16
615.771	16.1
616.188	16.02
616.606	15.97
617.023	15.91
617.44	15.85
617.857	15.8
618.274	15.75
618.691	15.68
619.108	15.63
619.525	15.57
619.942	15.53
620.359	15.47
620.776	15.46
621.192	15.42
621.609	15.38
622.026	15.35
622.442	15.3
622.859	15.28
623.275	15.25
623.691	15.23
624.108	15.21
624.524	15.19
624.94	15.17
625.356	15.14
625.772	15.12
626.188	15.11
626.604	15.09
627.02	15.07
627.436	15.06
627.852	15.04
628.268	15.02
628.683	15.01
629.099	14.99
629.514	14.97
629.93	14.94
630.345	14.91
630.761	14.87
631.176	14.83
631.591	14.79
632.007	14.74
632.422	14.69
632.837	14.64
633.252	14.57
633.667	14.49
634.082	14.42
634.497	14.33
634.911	14.26
635.326	14.18
635.741	14.09
636.155	13.99
636.57	13.89
636.984	13.78
637.399	13.66
637.813	13.55
638.228	13.43
638.642	13.3
639.056	13.18
639.47	13.06
639.884	12.92
640.298	12.78
640.712	12.65
641.126	12.52
641.54	12.38
641.954	12.24
642.368	12.11
642.781	11.97
643.195	11.84
643.609	11.71
644.022	11.58
644.436	11.46
644.849	11.34
645.262	11.22
645.676	11.11
646.089	11.01
646.502	10.92
646.915	10.84
647.328	10.76
647.741	10.67
648.154	10.6
648.567	10.54
648.98	10.48
649.393	10.42
649.805	10.38
650.218	10.32
650.631	10.27
651.043	10.22
651.456	10.17
651.868	10.12
652.28	10.07
652.693	10.02
653.105	9.95
653.517	9.89
653.929	9.82
654.341	9.75
654.753	9.67
655.165	9.6
655.577	9.52
655.989	9.43
656.401	9.34
656.813	9.26
657.224	9.16
657.636	9.06
658.047	8.96
658.459	8.85
658.87	8.74
659.282	8.63
659.693	8.53
660.104	8.4
660.515	8.29
660.926	8.19
661.338	8.07
661.749	7.97
662.159	7.87
662.57	7.78
662.981	7.7
663.392	7.61
663.803	7.53
664.213	7.44
664.624	7.37
665.035	7.31
665.445	7.24
665.855	7.19
666.266	7.13
666.676	7.09
667.086	7.03
667.497	6.99
667.907	6.95
668.317	6.91
668.727	6.89
669.137	6.87
669.547	6.85
669.956	6.83
670.366	6.81
670.776	6.8
671.186	6.79
671.595	6.79
672.005	6.79
672.414	6.79
672.824	6.79
673.233	6.79
673.642	6.8
674.052	6.81
674.461	6.83
674.87	6.85
675.279	6.87
675.688	6.89
676.097	6.92
676.506	6.96
676.915	7
677.323	7.06
677.732	7.11
678.141	7.17
678.549	7.24
678.958	7.3
679.366	7.39
679.775	7.47
680.183	7.56
680.592	7.66
681	7.77
681.408	7.9
681.816	8.03
682.224	8.19
682.632	8.35
683.04	8.53
683.448	8.74
683.856	8.95
684.264	9.19
684.671	9.46
685.079	9.74
685.487	10.05
685.894	10.39
686.302	10.75
686.709	11.14
687.116	11.54
687.524	11.97
687.931	12.42
688.338	12.89
688.745	13.38
689.152	13.88
689.559	14.42
689.966	14.96
690.373	15.52
690.78	16.1
691.187	16.67
691.593	17.27
692	17.88
692.407	18.47
692.813	19.08
693.22	19.69
693.626	20.31
694.032	20.93
694.439	21.55
694.845	22.15
695.251	22.74
695.657	23.32
696.063	23.9
696.469	24.48
696.875	25.08
697.281	25.64
697.687	26.2
698.093	26.75
698.498	27.25
698.904	27.78
699.31	28.29
699.715	28.81
700.12	29.3
700.526	29.79
700.931	30.27
701.337	30.72
701.742	31.16
702.147	31.62
702.552	32.07
702.957	32.5
703.362	32.93
703.767	33.33
704.172	33.74
704.577	34.14
704.981	34.55
705.386	34.92
705.791	35.29
706.195	35.68
706.6	36.04
707.004	36.38
707.408	36.74
707.813	37.07
708.217	37.4
708.621	37.73
709.025	38.04
709.43	38.32
709.834	38.64
710.237	38.94
710.641	39.2
711.045	39.48
711.449	39.78
711.853	40.06
712.256	40.34
712.66	40.6
713.064	40.86
713.467	41.11
713.87	41.38
714.274	41.59
714.677	41.85
715.08	42.09
715.484	42.31
715.887	42.51
716.29	42.72
716.693	42.94
717.096	43.15
717.499	43.35
717.901	43.57
718.304	43.76
718.707	43.97
719.109	44.16
719.512	44.34
719.915	44.54
720.317	44.69
720.719	44.82
721.122	44.98
721.524	45.14
721.926	45.31
722.328	45.47
722.731	45.62
723.133	45.79
723.535	45.94
723.937	46.06
724.338	46.17
724.74	46.33
725.142	46.56
725.544	46.67
725.945	46.8
726.347	46.87
726.748	46.94
727.15	47.03
727.551	47.12
727.952	47.2
728.354	47.32
728.755	47.41
729.156	47.48
729.557	47.5
729.958	47.56
730.359	47.64
730.76	47.72
731.161	47.83
731.562	47.93
731.962	47.97
732.363	48.07
732.763	48.13
733.164	48.2
733.564	48.25
733.965	48.31
734.365	48.4
734.766	48.46
735.166	48.5
735.566	48.55
735.966	48.57
736.366	48.63
736.766	48.63
737.166	48.69
737.566	48.72
737.966	48.77
738.365	48.81
738.765	48.85
739.165	48.87
739.564	48.93
739.964	48.95
740.363	48.97
740.763	49
741.162	49.04
741.561	49.05
741.96	49.06
742.36	49.07
742.759	49.11
743.158	49.11
743.557	49.1
743.955	49.11
744.354	49.13
744.753	49.17
745.152	49.23
745.55	49.26
745.949	49.27
746.348	49.32
746.746	49.34
747.144	49.38
747.543	49.4
747.941	49.44
748.339	49.42
748.737	49.45
749.136	49.47
749.534	49.44
749.932	49.45
750.33	49.46
750.727	49.45
751.125	49.45
751.523	49.43
751.921	49.41
752.318	49.42
752.716	49.45
753.113	49.45
753.511	49.44
753.908	49.47
754.305	49.45
754.703	49.44
755.1	49.43
755.497	49.43
755.894	49.44
756.291	49.46
756.688	49.43
757.085	49.43
757.482	49.41
757.878	49.39
758.275	49.37
758.672	49.39
759.068	49.39
759.465	49.37
759.861	49.35
760.258	49.35
760.654	49.35
761.05	49.36
761.447	49.35
761.843	49.35
762.239	49.33
762.635	49.34
763.031	49.33
763.427	49.32
763.822	49.34
764.218	49.34
764.614	49.34
765.01	49.32
765.405	49.29
765.801	49.27
766.196	49.27
766.592	49.29
766.987	49.3
767.382	49.29
767.778	49.3
768.173	49.3
768.568	49.31
768.963	49.3
769.358	49.32
769.753	49.35
770.148	49.35
770.542	49.35
770.937	49.35
771.332	49.35
771.726	49.37
772.121	49.35
772.515	49.36
772.91	49.37
773.304	49.39
773.699	49.39
774.093	49.38
774.487	49.38
774.881	49.39
775.275	49.37
775.669	49.36
776.063	49.32
776.457	49.36
776.851	49.35
777.245	49.32
777.638	49.31
778.032	49.31
778.425	49.35
778.819	49.35
779.212	49.36
779.606	49.38
779.999	49.39
780.392	49.42
780.786	49.4
