Data from C_3_DIV_WI_4N_Splice17_13-51-18-318.txt Node
Date: Sat Mar 07 13:51:18 EST 2020
User: sa697716
Spectrometer: NQ5500242
Trigger mode: 0
Integration Time (sec): 1.450000E-1
Scans to average: 20
Nonlinearity correction enabled: false
Boxcar width: 5
Storing dark spectrum: false
XAxis mode: Wavelengths
Number of Pixels in Spectrum: 512
>>>>>Begin Spectral Data<<<<<
187.83	224.61
188.298	246.49
188.766	221.72
189.233	179.34
189.701	190.85
190.169	212.2
190.636	235.83
191.104	422.95
191.571	222.12
192.039	-148.14
192.506	-360.08
192.974	64.74
193.441	174.38
193.908	84.18
194.375	73.32
194.842	-1.52
195.31	22.88
195.777	-23.65
196.244	50.74
196.711	42.2
197.177	43.43
197.644	42.88
198.111	42.73
198.578	42.5
199.045	42.87
199.511	42.66
199.978	42.86
200.445	42.95
200.911	43.18
201.378	43.02
201.844	42.76
202.31	42.36
202.777	42.19
203.243	41.97
203.709	41.8
204.176	41.14
204.642	40.88
205.108	41.03
205.574	40.45
206.04	39.72
206.506	39.43
206.972	39.32
207.438	38.98
207.903	38.76
208.369	38.18
208.835	37.45
209.301	36.98
209.766	35.83
210.232	34.73
210.697	33.99
211.163	33.32
211.628	32.64
212.094	31.64
212.559	31.12
213.024	30.31
213.49	29.68
213.955	29.02
214.42	28.43
214.885	27.91
215.35	26.92
215.815	25.71
216.28	23.99
216.745	22.05
217.21	20.29
217.675	18.42
218.14	17.01
218.604	15.67
219.069	14.53
219.534	13.61
219.998	12.79
220.463	12.15
220.927	11.58
221.392	11.17
221.856	10.8
222.32	10.47
222.785	10.22
223.249	9.96
223.713	9.73
224.177	9.56
224.642	9.36
225.106	9.19
225.57	9
226.034	8.88
226.497	8.7
226.961	8.56
227.425	8.42
227.889	8.29
228.353	8.16
228.816	8.03
229.28	7.92
229.744	7.8
230.207	7.67
230.671	7.56
231.134	7.44
231.597	7.37
232.061	7.28
232.524	7.2
232.987	7.11
233.45	7.03
233.914	6.95
234.377	6.87
234.84	6.79
235.303	6.74
235.766	6.68
236.229	6.61
236.691	6.54
237.154	6.48
237.617	6.43
238.08	6.37
238.542	6.31
239.005	6.27
239.468	6.2
239.93	6.15
240.393	6.1
240.855	6.03
241.317	5.97
241.78	5.9
242.242	5.83
242.704	5.78
243.166	5.73
243.629	5.69
244.091	5.63
244.553	5.57
245.015	5.53
245.477	5.47
245.939	5.42
246.4	5.37
246.862	5.32
247.324	5.29
247.786	5.24
248.247	5.18
248.709	5.12
249.17	5.07
249.632	5.04
250.093	5
250.555	4.96
251.016	4.93
251.477	4.88
251.939	4.85
252.4	4.81
252.861	4.78
253.322	4.75
253.783	4.72
254.244	4.69
254.705	4.66
255.166	4.62
255.627	4.59
256.088	4.57
256.549	4.55
257.009	4.51
257.47	4.47
257.931	4.43
258.391	4.41
258.852	4.37
259.312	4.33
259.773	4.3
260.233	4.27
260.694	4.24
261.154	4.2
261.614	4.17
262.074	4.13
262.534	4.11
262.994	4.09
263.455	4.06
263.915	4.04
264.374	4.01
264.834	3.99
265.294	3.97
265.754	3.95
266.214	3.94
266.673	3.91
267.133	3.9
267.593	3.88
268.052	3.86
268.512	3.85
268.971	3.84
269.431	3.82
269.89	3.81
270.349	3.8
270.809	3.78
271.268	3.76
271.727	3.75
272.186	3.74
272.645	3.74
273.104	3.72
273.563	3.71
274.022	3.7
274.481	3.68
274.94	3.68
275.399	3.66
275.857	3.66
276.316	3.64
276.775	3.64
277.233	3.63
277.692	3.62
278.15	3.62
278.609	3.61
279.067	3.61
279.525	3.61
279.984	3.6
280.442	3.59
280.9	3.59
281.358	3.59
281.816	3.58
282.274	3.57
282.732	3.56
283.19	3.55
283.648	3.53
284.106	3.52
284.564	3.51
285.021	3.51
285.479	3.5
285.937	3.48
286.394	3.47
286.852	3.46
287.309	3.45
287.767	3.44
288.224	3.43
288.682	3.41
289.139	3.41
289.596	3.39
290.053	3.36
290.511	3.34
290.968	3.33
291.425	3.31
291.882	3.3
292.339	3.29
292.796	3.27
293.252	3.25
293.709	3.24
294.166	3.23
294.623	3.22
295.079	3.2
295.536	3.2
295.992	3.19
296.449	3.19
296.905	3.18
297.362	3.17
297.818	3.16
298.274	3.16
298.731	3.15
299.187	3.14
299.643	3.13
300.099	3.13
300.555	3.12
301.011	3.11
301.467	3.1
301.923	3.09
302.379	3.08
302.835	3.08
303.291	3.07
303.746	3.07
304.202	3.07
304.658	3.06
305.113	3.06
305.569	3.06
306.024	3.05
306.479	3.05
306.935	3.04
307.39	3.04
307.845	3.04
308.301	3.04
308.756	3.05
309.211	3.04
309.666	3.04
310.121	3.04
310.576	3.04
311.031	3.04
311.486	3.04
311.94	3.04
312.395	3.05
312.85	3.04
313.305	3.03
313.759	3.03
314.214	3.02
314.668	3.01
315.123	3.01
315.577	3
316.032	3
316.486	3
316.94	2.99
317.394	2.98
317.849	2.97
318.303	2.96
318.757	2.94
319.211	2.94
319.665	2.92
320.119	2.92
320.572	2.91
321.026	2.89
321.48	2.88
321.934	2.86
322.387	2.85
322.841	2.85
323.295	2.85
323.748	2.85
324.202	2.85
324.655	2.85
325.108	2.85
325.562	2.85
326.015	2.86
326.468	2.85
326.921	2.85
327.374	2.86
327.827	2.87
328.28	2.87
328.733	2.86
329.186	2.86
329.639	2.86
330.092	2.85
330.545	2.85
330.997	2.84
331.45	2.85
331.903	2.85
332.355	2.86
332.808	2.85
333.26	2.84
333.713	2.85
334.165	2.85
334.617	2.84
335.069	2.84
335.522	2.85
335.974	2.86
336.426	2.85
336.878	2.85
337.33	2.85
337.782	2.85
338.234	2.86
338.686	2.86
339.137	2.86
339.589	2.86
340.041	2.85
340.493	2.84
340.944	2.82
341.396	2.83
341.847	2.82
342.299	2.81
342.75	2.81
343.201	2.79
343.653	2.78
344.104	2.76
344.555	2.75
345.006	2.74
345.457	2.75
345.908	2.75
346.359	2.75
346.81	2.74
347.261	2.73
347.712	2.72
348.163	2.71
348.613	2.72
349.064	2.72
349.515	2.72
349.965	2.72
350.416	2.71
350.866	2.71
351.317	2.7
351.767	2.7
352.217	2.7
352.668	2.7
353.118	2.71
353.568	2.7
354.018	2.7
354.468	2.71
354.918	2.71
355.368	2.73
355.818	2.73
356.268	2.73
356.718	2.74
357.168	2.74
357.617	2.73
358.067	2.72
358.517	2.73
358.966	2.74
359.416	2.75
359.865	2.75
360.315	2.74
360.764	2.75
361.213	2.75
361.663	2.74
362.112	2.76
362.561	2.76
363.01	2.77
363.459	2.77
363.908	2.77
364.357	2.77
364.806	2.77
365.255	2.77
365.703	2.79
366.152	2.8
366.601	2.81
367.05	2.81
367.498	2.81
367.947	2.83
368.395	2.85
368.844	2.86
369.292	2.87
369.74	2.88
370.189	2.89
370.637	2.9
371.085	2.91
371.533	2.93
371.981	2.94
372.429	2.96
372.877	2.97
373.325	2.98
373.773	2.99
374.221	3.01
374.669	3.02
375.116	3.03
375.564	3.04
376.012	3.06
376.459	3.07
376.907	3.1
377.354	3.11
377.801	3.13
378.249	3.15
378.696	3.17
379.143	3.19
379.591	3.21
380.038	3.25
380.485	3.27
380.932	3.29
381.379	3.32
381.826	3.35
382.273	3.37
382.72	3.38
383.166	3.4
383.613	3.42
384.06	3.45
384.506	3.47
384.953	3.49
385.4	3.52
385.846	3.54
386.292	3.56
386.739	3.58
387.185	3.6
387.631	3.63
388.078	3.66
388.524	3.68
388.97	3.7
389.416	3.73
389.862	3.76
390.308	3.79
390.754	3.83
391.2	3.85
391.645	3.88
392.091	3.92
392.537	3.96
392.983	3.97
393.428	4
393.874	4.02
394.319	4.06
394.765	4.07
395.21	4.08
395.655	4.09
396.101	4.12
396.546	4.13
396.991	4.15
397.436	4.16
397.881	4.2
398.326	4.22
398.771	4.25
399.216	4.26
399.661	4.28
400.106	4.3
400.551	4.32
400.995	4.32
401.44	4.33
401.885	4.35
402.329	4.36
402.774	4.37
403.218	4.4
403.663	4.42
404.107	4.43
404.551	4.45
404.995	4.46
405.44	4.46
405.884	4.47
406.328	4.49
406.772	4.49
407.216	4.49
407.66	4.5
408.104	4.48
408.547	4.47
408.991	4.49
409.435	4.49
409.879	4.49
410.322	4.51
410.766	4.52
411.209	4.54
411.653	4.56
412.096	4.57
412.54	4.57
412.983	4.58
413.426	4.62
413.869	4.62
414.312	4.65
414.756	4.68
415.199	4.69
415.642	4.7
416.085	4.7
416.527	4.7
416.97	4.7
417.413	4.7
417.856	4.7
418.298	4.68
418.741	4.69
419.184	4.67
419.626	4.67
420.069	4.67
420.511	4.68
420.953	4.69
421.396	4.69
421.838	4.7
422.28	4.69
422.722	4.72
423.164	4.73
423.606	4.74
424.048	4.74
424.49	4.74
424.932	4.73
425.374	4.7
425.816	4.68
426.258	4.69
426.699	4.69
427.141	4.7
427.582	4.7
428.024	4.71
428.465	4.71
428.907	4.7
429.348	4.7
429.789	4.71
430.231	4.76
430.672	4.77
431.113	4.79
431.554	4.81
431.995	4.82
432.436	4.83
432.877	4.84
433.318	4.86
433.759	4.89
434.2	4.91
434.64	4.93
435.081	4.95
435.522	4.96
435.962	4.96
436.403	4.99
436.843	5.01
437.284	5.01
437.724	5
438.164	5
438.604	5
439.045	5.02
439.485	5.03
439.925	5.03
440.365	5.05
440.805	5.07
441.245	5.08
441.685	5.1
442.125	5.14
442.564	5.17
443.004	5.18
443.444	5.2
443.883	5.22
444.323	5.22
444.762	5.22
445.202	5.24
445.641	5.27
446.081	5.28
446.52	5.28
446.959	5.32
447.398	5.33
447.837	5.36
448.276	5.38
448.716	5.42
449.154	5.45
449.593	5.49
450.032	5.5
450.471	5.51
450.91	5.51
451.349	5.54
451.787	5.54
452.226	5.53
452.664	5.53
453.103	5.53
453.541	5.53
453.98	5.54
454.418	5.52
454.856	5.54
455.295	5.53
455.733	5.51
456.171	5.51
456.609	5.51
457.047	5.52
457.485	5.52
457.923	5.51
458.361	5.51
458.798	5.5
459.236	5.51
459.674	5.49
460.111	5.5
460.549	5.52
460.987	5.51
461.424	5.52
461.862	5.52
462.299	5.52
462.736	5.53
463.173	5.53
463.611	5.54
464.048	5.55
464.485	5.55
464.922	5.56
465.359	5.55
465.796	5.58
466.233	5.58
466.67	5.59
467.106	5.61
467.543	5.6
467.98	5.6
468.416	5.58
468.853	5.59
469.29	5.57
469.726	5.57
470.162	5.57
470.599	5.54
471.035	5.53
471.471	5.52
471.907	5.5
472.344	5.51
472.78	5.51
473.216	5.51
473.652	5.5
474.088	5.5
474.523	5.51
474.959	5.5
475.395	5.49
475.831	5.49
476.266	5.49
476.702	5.49
477.138	5.49
477.573	5.49
478.008	5.49
478.444	5.49
478.879	5.5
479.314	5.49
479.75	5.48
480.185	5.47
480.62	5.47
481.055	5.46
481.49	5.46
481.925	5.46
482.36	5.47
482.795	5.46
483.229	5.46
483.664	5.46
484.099	5.46
484.534	5.45
484.968	5.47
485.403	5.47
485.837	5.47
486.271	5.49
486.706	5.5
487.14	5.5
487.574	5.51
488.009	5.53
488.443	5.55
488.877	5.57
489.311	5.6
489.745	5.62
490.179	5.66
490.613	5.71
491.046	5.73
491.48	5.77
491.914	5.8
492.348	5.84
492.781	5.89
493.215	5.92
493.648	5.97
494.082	6.03
494.515	6.08
494.948	6.13
495.382	6.17
495.815	6.23
496.248	6.29
496.681	6.35
497.114	6.42
497.547	6.48
497.98	6.56
498.413	6.64
498.846	6.71
499.279	6.79
499.711	6.87
500.144	6.96
500.577	7.06
501.009	7.15
501.442	7.26
501.874	7.37
502.306	7.48
502.739	7.62
503.171	7.74
503.603	7.87
504.036	8.01
504.468	8.14
504.9	8.28
505.332	8.43
505.764	8.58
506.196	8.74
506.627	8.92
507.059	9.09
507.491	9.24
507.923	9.42
508.354	9.61
508.786	9.82
509.217	10.03
509.649	10.24
510.08	10.45
510.512	10.68
510.943	10.88
511.374	11.1
511.805	11.35
512.237	11.57
512.668	11.81
513.099	12.04
513.53	12.27
513.961	12.52
514.391	12.77
514.822	13.04
515.253	13.29
515.684	13.55
516.114	13.82
516.545	14.08
516.975	14.36
517.406	14.62
517.836	14.88
518.267	15.17
518.697	15.43
519.127	15.68
519.558	15.95
519.988	16.21
520.418	16.47
520.848	16.72
521.278	16.96
521.708	17.43
522.138	17.68
522.567	17.92
522.997	18.15
523.427	18.38
523.857	18.61
524.286	18.8
524.716	19.02
525.145	19.23
525.575	19.42
526.004	19.62
526.433	19.59
526.863	19.78
527.292	19.95
527.721	20.13
528.15	20.29
528.579	20.45
529.008	20.6
529.437	20.73
529.866	20.86
530.295	20.99
530.724	21.12
531.152	21.23
531.581	21.35
532.01	21.46
532.438	21.55
532.867	21.65
533.295	21.73
533.723	21.83
534.152	21.9
534.58	22
535.008	22.07
535.436	22.14
535.865	22.21
536.293	22.24
536.721	22.29
537.149	22.36
537.576	22.39
538.004	22.44
538.432	22.47
538.86	22.51
539.287	22.52
539.715	22.55
540.143	22.57
540.57	22.58
540.998	22.62
541.425	22.65
541.852	22.66
542.28	22.71
542.707	22.74
543.134	22.75
543.561	22.79
543.988	22.84
544.415	22.86
544.842	22.88
545.269	22.91
545.696	22.94
546.123	22.95
546.549	22.98
546.976	22.99
547.403	23
547.829	23.02
548.256	23.04
548.682	23.05
549.108	23.08
549.535	23.11
549.961	23.1
550.387	23.11
550.813	23.12
551.24	23.09
551.666	23.09
552.092	23.1
552.518	23.09
552.943	23.08
553.369	23.05
553.795	23.02
554.221	22.99
554.646	22.98
555.072	22.94
555.498	22.91
555.923	22.87
556.349	22.81
556.774	22.76
557.199	22.7
557.625	22.64
558.05	22.59
558.475	22.52
558.9	22.45
559.325	22.37
559.75	22.31
560.175	22.22
560.6	22.13
561.025	22.04
561.449	21.94
561.874	21.83
562.299	21.74
562.723	21.62
563.148	21.51
563.572	21.38
563.997	21.25
564.421	21.11
564.846	20.98
565.27	20.86
565.694	20.74
566.118	20.6
566.542	20.47
566.966	20.32
567.39	20.18
567.814	20.04
568.238	19.9
568.662	19.76
569.086	19.63
569.509	19.5
569.933	19.37
570.357	19.22
570.78	19.08
571.204	18.94
571.627	18.83
572.05	18.69
572.474	18.58
572.897	18.46
573.32	18.34
573.743	18.23
574.166	18.12
574.589	17.99
575.012	17.88
575.435	17.78
575.858	17.68
576.281	17.58
576.704	17.48
577.126	17.38
577.549	17.28
577.972	17.18
578.394	17.08
578.817	17
579.239	16.93
579.661	16.87
580.084	16.79
580.506	16.71
580.928	16.64
581.35	16.56
581.772	16.48
582.194	16.42
582.616	16.36
583.038	16.28
583.46	16.2
583.882	16.13
584.303	16.04
584.725	15.98
585.147	15.94
585.568	15.87
585.99	15.82
586.411	15.78
586.833	15.71
587.254	15.65
587.675	15.59
588.096	15.54
588.518	15.49
588.939	15.46
589.36	15.41
589.781	15.35
590.202	15.32
590.623	15.28
591.043	15.23
591.464	15.2
591.885	15.16
592.305	15.13
592.726	15.11
593.147	15.08
593.567	15.04
593.987	15
594.408	14.97
594.828	14.92
595.248	14.89
595.669	14.86
596.089	14.82
596.509	14.79
596.929	14.76
597.349	14.72
597.769	14.69
598.189	14.64
598.608	14.62
599.028	14.6
599.448	14.56
599.867	14.51
600.287	14.47
600.706	14.44
601.126	14.4
601.545	14.35
601.965	14.31
602.384	14.26
602.803	14.23
603.222	14.17
603.641	14.12
604.061	14.07
604.48	14.02
604.898	13.96
605.317	13.9
605.736	13.85
606.155	13.8
606.574	13.74
606.992	13.67
607.411	13.59
607.829	13.49
608.248	13.41
608.666	13.33
609.085	13.27
609.503	13.2
609.921	13.14
610.339	13.06
610.758	12.98
611.176	12.9
611.594	12.83
612.012	12.77
612.43	12.71
612.847	12.64
613.265	12.58
613.683	12.51
614.101	12.44
614.518	12.37
614.936	12.3
615.353	12.23
615.771	12.17
616.188	12.11
616.606	12.06
617.023	12.02
617.44	11.98
617.857	11.92
618.274	11.86
618.691	11.81
619.108	11.76
619.525	11.72
619.942	11.69
620.359	11.65
620.776	11.62
621.192	11.58
621.609	11.55
622.026	11.52
622.442	11.49
622.859	11.48
623.275	11.46
623.691	11.43
624.108	11.42
624.524	11.4
624.94	11.37
625.356	11.37
625.772	11.36
626.188	11.35
626.604	11.33
627.02	11.32
627.436	11.32
627.852	11.32
628.268	11.3
628.683	11.29
629.099	11.28
629.514	11.27
629.93	11.25
630.345	11.22
630.761	11.19
631.176	11.17
631.591	11.14
632.007	11.1
632.422	11.05
632.837	11.02
633.252	10.97
633.667	10.92
634.082	10.87
634.497	10.8
634.911	10.74
635.326	10.67
635.741	10.6
636.155	10.52
636.57	10.45
636.984	10.38
637.399	10.29
637.813	10.2
638.228	10.11
638.642	10.02
639.056	9.92
639.47	9.83
639.884	9.74
640.298	9.64
640.712	9.53
641.126	9.42
641.54	9.31
641.954	9.2
642.368	9.09
642.781	9
643.195	8.9
643.609	8.81
644.022	8.71
644.436	8.62
644.849	8.53
645.262	8.44
645.676	8.35
646.089	8.28
646.502	8.22
646.915	8.17
647.328	8.09
647.741	8.03
648.154	7.97
648.567	7.93
648.98	7.88
649.393	7.84
649.805	7.8
650.218	7.76
650.631	7.72
651.043	7.68
651.456	7.64
651.868	7.6
652.28	7.56
652.693	7.52
653.105	7.47
653.517	7.42
653.929	7.39
654.341	7.33
654.753	7.28
655.165	7.22
655.577	7.17
655.989	7.09
656.401	7.02
656.813	6.96
657.224	6.9
657.636	6.82
658.047	6.76
658.459	6.67
658.87	6.6
659.282	6.52
659.693	6.46
660.104	6.38
660.515	6.32
660.926	6.24
661.338	6.17
661.749	6.1
662.159	6.03
662.57	5.97
662.981	5.91
663.392	5.86
663.803	5.8
664.213	5.74
664.624	5.68
665.035	5.63
665.445	5.6
665.855	5.56
666.266	5.53
666.676	5.5
667.086	5.46
667.497	5.44
667.907	5.42
668.317	5.41
668.727	5.4
669.137	5.4
669.547	5.39
669.956	5.39
670.366	5.38
670.776	5.37
671.186	5.37
671.595	5.37
672.005	5.36
672.414	5.36
672.824	5.36
673.233	5.37
673.642	5.38
674.052	5.38
674.461	5.39
674.87	5.4
675.279	5.43
675.688	5.45
676.097	5.47
676.506	5.51
676.915	5.54
677.323	5.58
677.732	5.6
678.141	5.64
678.549	5.68
678.958	5.72
679.366	5.78
679.775	5.83
680.183	5.9
680.592	5.97
681	6.03
681.408	6.11
681.816	6.19
682.224	6.28
682.632	6.38
683.04	6.49
683.448	6.61
683.856	6.74
684.264	6.89
684.671	7.04
685.079	7.2
685.487	7.39
685.894	7.61
686.302	7.84
686.709	8.1
687.116	8.38
687.524	8.67
687.931	8.99
688.338	9.34
688.745	9.69
689.152	10.07
689.559	10.48
689.966	10.89
690.373	11.33
690.78	11.79
691.187	12.25
691.593	12.72
692	13.2
692.407	13.69
692.813	14.19
693.22	14.69
693.626	15.21
694.032	15.73
694.439	16.27
694.845	16.8
695.251	17.32
695.657	17.84
696.063	18.38
696.469	18.92
696.875	19.46
697.281	20
697.687	20.53
698.093	21.06
698.498	21.56
698.904	22.08
699.31	22.58
699.715	23.11
700.12	23.62
700.526	24.11
700.931	24.58
701.337	25.04
701.742	25.49
702.147	25.94
702.552	26.39
702.957	26.84
703.362	27.26
703.767	27.67
704.172	28.06
704.577	28.47
704.981	28.87
705.386	29.27
705.791	29.69
706.195	30.08
706.6	30.47
707.004	30.83
707.408	31.2
707.813	31.58
708.217	31.94
708.621	32.31
709.025	32.64
709.43	32.96
709.834	33.31
710.237	33.62
710.641	33.93
711.045	34.24
711.449	34.55
711.853	34.9
712.256	35.18
712.66	35.49
713.064	35.76
713.467	36.05
713.87	36.36
714.274	36.63
714.677	36.91
715.08	37.17
715.484	37.43
715.887	37.72
716.29	37.95
716.693	38.2
717.096	38.44
717.499	38.69
717.901	38.93
718.304	39.14
718.707	39.35
719.109	39.58
719.512	39.8
719.915	40.03
720.317	40.19
720.719	40.34
721.122	40.51
721.524	40.72
721.926	40.91
722.328	41.09
722.731	41.25
723.133	41.45
723.535	41.6
723.937	41.75
724.338	41.9
724.74	42.09
725.142	42.42
725.544	42.57
725.945	42.73
726.347	42.84
726.748	42.98
727.15	43.09
727.551	43.21
727.952	43.32
728.354	43.43
728.755	43.51
729.156	43.6
729.557	43.54
729.958	43.62
730.359	43.67
730.76	43.76
731.161	43.84
731.562	43.95
731.962	44.01
732.363	44.09
732.763	44.17
733.164	44.25
733.564	44.31
733.965	44.38
734.365	44.47
734.766	44.54
735.166	44.61
735.566	44.67
735.966	44.72
736.366	44.77
736.766	44.83
737.166	44.88
737.566	44.95
737.966	45
738.365	45.04
738.765	45.09
739.165	45.14
739.564	45.18
739.964	45.19
740.363	45.24
740.763	45.28
741.162	45.31
741.561	45.36
741.96	45.38
742.36	45.4
742.759	45.43
743.158	45.46
743.557	45.47
743.955	45.5
744.354	45.53
744.753	45.55
745.152	45.59
745.55	45.61
745.949	45.63
746.348	45.65
746.746	45.66
747.144	45.68
747.543	45.66
747.941	45.69
748.339	45.64
748.737	45.67
749.136	45.67
749.534	45.64
749.932	45.66
750.33	45.65
750.727	45.65
751.125	45.67
751.523	45.68
751.921	45.72
752.318	45.73
752.716	45.76
753.113	45.77
753.511	45.79
753.908	45.83
754.305	45.84
754.703	45.86
755.1	45.87
755.497	45.88
755.894	45.89
756.291	45.88
756.688	45.88
757.085	45.91
757.482	45.91
757.878	45.9
758.275	45.9
758.672	45.9
759.068	45.91
759.465	45.9
759.861	45.92
760.258	45.92
760.654	45.93
761.05	45.95
761.447	45.94
761.843	45.94
762.239	45.92
762.635	45.91
763.031	45.92
763.427	45.88
763.822	45.91
764.218	45.92
764.614	45.91
765.01	45.9
765.405	45.88
765.801	45.88
766.196	45.87
766.592	45.9
766.987	45.89
767.382	45.86
767.778	45.87
768.173	45.86
768.568	45.83
768.963	45.82
769.358	45.83
769.753	45.83
770.148	45.83
770.542	45.82
770.937	45.82
771.332	45.84
771.726	45.85
772.121	45.84
772.515	45.83
772.91	45.84
773.304	45.87
773.699	45.87
774.093	45.87
774.487	45.86
774.881	45.89
775.275	45.87
775.669	45.85
776.063	45.85
776.457	45.88
776.851	45.87
777.245	45.84
777.638	45.8
778.032	45.83
778.425	45.83
778.819	45.84
779.212	45.83
779.606	45.84
779.999	45.83
780.392	45.85
780.786	45.81
781.179	45.8
781.572	45.86
781.965	45.88
782.358	45.86
782.751	45.86
783.143	45.86
