Data from C_3_HIR_WI_4N_Splice17_14-02-15-959.txt Node
Date: Sat Mar 07 14:02:15 EST 2020
User: sa697716
Spectrometer: NQ5500242
Trigger mode: 0
Integration Time (sec): 1.450000E-1
Scans to average: 20
Nonlinearity correction enabled: false
Boxcar width: 5
Storing dark spectrum: false
XAxis mode: Wavelengths
Number of Pixels in Spectrum: 512
>>>>>Begin Spectral Data<<<<<
187.83	101.6
188.298	126.76
188.766	127.18
189.233	115.23
189.701	136.68
190.169	149.34
190.636	134.79
191.104	179.01
191.571	76.2
192.039	139.42
192.506	155.93
192.974	3.08
193.441	69.93
193.908	119.45
194.375	132.41
194.842	157.91
195.31	186.89
195.777	232.47
196.244	59.79
196.711	54.8
197.177	57.01
197.644	56.66
198.111	56.89
198.578	56.94
199.045	57.02
199.511	56.64
199.978	56.78
200.445	57.04
200.911	56.78
201.378	57.14
201.844	57.2
202.31	56.9
202.777	56.83
203.243	56.55
203.709	56.28
204.176	55.78
204.642	55.58
205.108	55.24
205.574	54.68
206.04	54.29
206.506	53.74
206.972	53.49
207.438	52.77
207.903	52.07
208.369	51.12
208.835	50.16
209.301	49.24
209.766	47.73
210.232	46.55
210.697	45.25
211.163	44.36
211.628	43.21
212.094	41.63
212.559	40.68
213.024	39.73
213.49	38.95
213.955	37.99
214.42	36.98
214.885	35.99
215.35	34.65
215.815	32.93
216.28	30.53
216.745	28.07
217.21	25.78
217.675	23.52
218.14	21.47
218.604	19.71
219.069	18.23
219.534	16.99
219.998	15.97
220.463	15.13
220.927	14.39
221.392	13.8
221.856	13.29
222.32	12.85
222.785	12.54
223.249	12.21
223.713	11.9
224.177	11.65
224.642	11.41
225.106	11.14
225.57	10.88
226.034	10.66
226.497	10.47
226.961	10.27
227.425	10.09
227.889	9.88
228.353	9.71
228.816	9.55
229.28	9.38
229.744	9.22
230.207	9.08
230.671	8.95
231.134	8.82
231.597	8.7
232.061	8.6
232.524	8.5
232.987	8.39
233.45	8.29
233.914	8.19
234.377	8.09
234.84	8
235.303	7.94
235.766	7.85
236.229	7.78
236.691	7.69
237.154	7.6
237.617	7.53
238.08	7.45
238.542	7.38
239.005	7.32
239.468	7.26
239.93	7.18
240.393	7.11
240.855	7.05
241.317	6.98
241.78	6.92
242.242	6.85
242.704	6.8
243.166	6.74
243.629	6.68
244.091	6.62
244.553	6.55
245.015	6.5
245.477	6.44
245.939	6.39
246.4	6.33
246.862	6.27
247.324	6.22
247.786	6.18
248.247	6.12
248.709	6.07
249.17	6.02
249.632	5.99
250.093	5.94
250.555	5.89
251.016	5.85
251.477	5.82
251.939	5.78
252.4	5.75
252.861	5.7
253.322	5.66
253.783	5.63
254.244	5.6
254.705	5.56
255.166	5.53
255.627	5.5
256.088	5.47
256.549	5.45
257.009	5.42
257.47	5.38
257.931	5.35
258.391	5.32
258.852	5.29
259.312	5.26
259.773	5.23
260.233	5.2
260.694	5.18
261.154	5.14
261.614	5.11
262.074	5.07
262.534	5.04
262.994	5.02
263.455	5
263.915	4.97
264.374	4.93
264.834	4.92
265.294	4.89
265.754	4.87
266.214	4.86
266.673	4.84
267.133	4.83
267.593	4.81
268.052	4.8
268.512	4.79
268.971	4.78
269.431	4.77
269.89	4.75
270.349	4.74
270.809	4.72
271.268	4.71
271.727	4.7
272.186	4.69
272.645	4.68
273.104	4.67
273.563	4.65
274.022	4.64
274.481	4.64
274.94	4.63
275.399	4.62
275.857	4.61
276.316	4.6
276.775	4.58
277.233	4.57
277.692	4.56
278.15	4.55
278.609	4.55
279.067	4.53
279.525	4.53
279.984	4.52
280.442	4.51
280.9	4.5
281.358	4.5
281.816	4.5
282.274	4.5
282.732	4.49
283.19	4.48
283.648	4.47
284.106	4.46
284.564	4.45
285.021	4.46
285.479	4.45
285.937	4.44
286.394	4.44
286.852	4.43
287.309	4.42
287.767	4.41
288.224	4.4
288.682	4.39
289.139	4.37
289.596	4.36
290.053	4.33
290.511	4.31
290.968	4.29
291.425	4.27
291.882	4.25
292.339	4.23
292.796	4.22
293.252	4.21
293.709	4.19
294.166	4.19
294.623	4.18
295.079	4.16
295.536	4.16
295.992	4.16
296.449	4.14
296.905	4.13
297.362	4.12
297.818	4.11
298.274	4.1
298.731	4.09
299.187	4.07
299.643	4.05
300.099	4.05
300.555	4.03
301.011	4.02
301.467	4.01
301.923	4
302.379	3.99
302.835	3.99
303.291	3.98
303.746	3.98
304.202	3.98
304.658	3.97
305.113	3.96
305.569	3.96
306.024	3.95
306.479	3.95
306.935	3.94
307.39	3.94
307.845	3.93
308.301	3.93
308.756	3.93
309.211	3.92
309.666	3.93
310.121	3.93
310.576	3.92
311.031	3.91
311.486	3.92
311.94	3.92
312.395	3.91
312.85	3.92
313.305	3.92
313.759	3.91
314.214	3.91
314.668	3.9
315.123	3.9
315.577	3.89
316.032	3.89
316.486	3.89
316.94	3.88
317.394	3.87
317.849	3.85
318.303	3.83
318.757	3.81
319.211	3.8
319.665	3.79
320.119	3.77
320.572	3.76
321.026	3.75
321.48	3.73
321.934	3.72
322.387	3.7
322.841	3.7
323.295	3.7
323.748	3.69
324.202	3.68
324.655	3.67
325.108	3.67
325.562	3.66
326.015	3.65
326.468	3.65
326.921	3.65
327.374	3.64
327.827	3.64
328.28	3.64
328.733	3.63
329.186	3.63
329.639	3.63
330.092	3.64
330.545	3.64
330.997	3.63
331.45	3.62
331.903	3.62
332.355	3.63
332.808	3.62
333.26	3.62
333.713	3.62
334.165	3.61
334.617	3.61
335.069	3.6
335.522	3.61
335.974	3.62
336.426	3.62
336.878	3.61
337.33	3.61
337.782	3.61
338.234	3.62
338.686	3.62
339.137	3.63
339.589	3.62
340.041	3.63
340.493	3.61
340.944	3.59
341.396	3.59
341.847	3.57
342.299	3.56
342.75	3.53
343.201	3.51
343.653	3.49
344.104	3.46
344.555	3.44
345.006	3.42
345.457	3.4
345.908	3.4
346.359	3.39
346.81	3.38
347.261	3.38
347.712	3.37
348.163	3.36
348.613	3.36
349.064	3.37
349.515	3.37
349.965	3.37
350.416	3.36
350.866	3.37
351.317	3.36
351.767	3.36
352.217	3.35
352.668	3.36
353.118	3.36
353.568	3.35
354.018	3.35
354.468	3.36
354.918	3.36
355.368	3.36
355.818	3.37
356.268	3.37
356.718	3.38
357.168	3.38
357.617	3.37
358.067	3.37
358.517	3.39
358.966	3.39
359.416	3.39
359.865	3.39
360.315	3.39
360.764	3.4
361.213	3.4
361.663	3.39
362.112	3.4
362.561	3.42
363.01	3.43
363.459	3.42
363.908	3.42
364.357	3.43
364.806	3.43
365.255	3.44
365.703	3.45
366.152	3.47
366.601	3.48
367.05	3.5
367.498	3.51
367.947	3.52
368.395	3.54
368.844	3.56
369.292	3.57
369.74	3.6
370.189	3.61
370.637	3.62
371.085	3.62
371.533	3.64
371.981	3.67
372.429	3.68
372.877	3.71
373.325	3.73
373.773	3.75
374.221	3.78
374.669	3.79
375.116	3.81
375.564	3.84
376.012	3.87
376.459	3.89
376.907	3.91
377.354	3.94
377.801	3.97
378.249	3.99
378.696	4.02
379.143	4.05
379.591	4.08
380.038	4.11
380.485	4.15
380.932	4.17
381.379	4.21
381.826	4.24
382.273	4.27
382.72	4.29
383.166	4.33
383.613	4.36
384.06	4.39
384.506	4.43
384.953	4.47
385.4	4.49
385.846	4.54
386.292	4.57
386.739	4.6
387.185	4.63
387.631	4.68
388.078	4.71
388.524	4.75
388.97	4.79
389.416	4.83
389.862	4.85
390.308	4.89
390.754	4.93
391.2	4.96
391.645	4.99
392.091	5.04
392.537	5.08
392.983	5.11
393.428	5.15
393.874	5.18
394.319	5.2
394.765	5.24
395.21	5.26
395.655	5.28
396.101	5.31
396.546	5.33
396.991	5.37
397.436	5.39
397.881	5.42
398.326	5.45
398.771	5.46
399.216	5.49
399.661	5.51
400.106	5.53
400.551	5.54
400.995	5.56
401.44	5.57
401.885	5.57
402.329	5.57
402.774	5.57
403.218	5.58
403.663	5.6
404.107	5.6
404.551	5.61
404.995	5.61
405.44	5.61
405.884	5.61
406.328	5.62
406.772	5.62
407.216	5.63
407.66	5.63
408.104	5.62
408.547	5.62
408.991	5.62
409.435	5.61
409.879	5.61
410.322	5.62
410.766	5.64
411.209	5.66
411.653	5.66
412.096	5.66
412.54	5.66
412.983	5.66
413.426	5.68
413.869	5.69
414.312	5.71
414.756	5.73
415.199	5.73
415.642	5.73
416.085	5.73
416.527	5.74
416.97	5.73
417.413	5.74
417.856	5.73
418.298	5.71
418.741	5.72
419.184	5.72
419.626	5.71
420.069	5.71
420.511	5.72
420.953	5.72
421.396	5.72
421.838	5.72
422.28	5.72
422.722	5.74
423.164	5.73
423.606	5.72
424.048	5.72
424.49	5.72
424.932	5.71
425.374	5.69
425.816	5.65
426.258	5.63
426.699	5.62
427.141	5.61
427.582	5.59
428.024	5.6
428.465	5.59
428.907	5.58
429.348	5.56
429.789	5.55
430.231	5.55
430.672	5.58
431.113	5.59
431.554	5.6
431.995	5.61
432.436	5.6
432.877	5.61
433.318	5.61
433.759	5.63
434.2	5.66
434.64	5.67
435.081	5.69
435.522	5.71
435.962	5.73
436.403	5.75
436.843	5.78
437.284	5.8
437.724	5.82
438.164	5.82
438.604	5.82
439.045	5.85
439.485	5.87
439.925	5.88
440.365	5.89
440.805	5.89
441.245	5.91
441.685	5.93
442.125	5.95
442.564	5.96
443.004	5.98
443.444	6.02
443.883	6.04
444.323	6.05
444.762	6.07
445.202	6.1
445.641	6.14
446.081	6.17
446.52	6.19
446.959	6.23
447.398	6.29
447.837	6.32
448.276	6.35
448.716	6.38
449.154	6.43
449.593	6.47
450.032	6.5
450.471	6.49
450.91	6.5
451.349	6.53
451.787	6.53
452.226	6.52
452.664	6.53
453.103	6.52
453.541	6.52
453.98	6.53
454.418	6.5
454.856	6.48
455.295	6.48
455.733	6.45
456.171	6.44
456.609	6.43
457.047	6.42
457.485	6.41
457.923	6.4
458.361	6.38
458.798	6.37
459.236	6.36
459.674	6.36
460.111	6.35
460.549	6.36
460.987	6.35
461.424	6.34
461.862	6.35
462.299	6.36
462.736	6.36
463.173	6.36
463.611	6.36
464.048	6.37
464.485	6.37
464.922	6.38
465.359	6.39
465.796	6.4
466.233	6.41
466.67	6.41
467.106	6.42
467.543	6.42
467.98	6.42
468.416	6.42
468.853	6.41
469.29	6.42
469.726	6.42
470.162	6.42
470.599	6.41
471.035	6.41
471.471	6.41
471.907	6.4
472.344	6.4
472.78	6.42
473.216	6.42
473.652	6.43
474.088	6.42
474.523	6.43
474.959	6.43
475.395	6.42
475.831	6.42
476.266	6.42
476.702	6.42
477.138	6.42
477.573	6.41
478.008	6.42
478.444	6.41
478.879	6.4
479.314	6.4
479.75	6.39
480.185	6.39
480.62	6.4
481.055	6.39
481.49	6.39
481.925	6.39
482.36	6.4
482.795	6.39
483.229	6.39
483.664	6.41
484.099	6.42
484.534	6.42
484.968	6.44
485.403	6.45
485.837	6.47
486.271	6.49
486.706	6.52
487.14	6.53
487.574	6.57
488.009	6.6
488.443	6.64
488.877	6.67
489.311	6.72
489.745	6.76
490.179	6.82
490.613	6.88
491.046	6.94
491.48	7.01
491.914	7.07
492.348	7.14
492.781	7.22
493.215	7.29
493.648	7.37
494.082	7.45
494.515	7.53
494.948	7.61
495.382	7.68
495.815	7.77
496.248	7.87
496.681	7.96
497.114	8.06
497.547	8.17
497.98	8.29
498.413	8.42
498.846	8.55
499.279	8.69
499.711	8.82
500.144	8.98
500.577	9.13
501.009	9.27
501.442	9.44
501.874	9.6
502.306	9.76
502.739	9.95
503.171	10.13
503.603	10.31
504.036	10.51
504.468	10.71
504.9	10.91
505.332	11.12
505.764	11.34
506.196	11.57
506.627	11.79
507.059	12.06
507.491	12.29
507.923	12.54
508.354	12.8
508.786	13.07
509.217	13.34
509.649	13.62
510.08	13.9
510.512	14.18
510.943	14.47
511.374	14.77
511.805	15.07
512.237	15.38
512.668	15.69
513.099	16
513.53	16.31
513.961	16.63
514.391	16.96
514.822	17.29
515.253	17.61
515.684	17.94
516.114	18.26
516.545	18.58
516.975	18.9
517.406	19.21
517.836	19.54
518.267	19.86
518.697	20.18
519.127	20.48
519.558	20.79
519.988	21.09
520.418	21.4
520.848	21.7
521.278	21.97
521.708	22.41
522.138	22.69
522.567	22.96
522.997	23.22
523.427	23.48
523.857	23.74
524.286	23.99
524.716	24.24
525.145	24.46
525.575	24.71
526.004	24.94
526.433	25
526.863	25.21
527.292	25.41
527.721	25.59
528.15	25.76
528.579	25.94
529.008	26.11
529.437	26.26
529.866	26.39
530.295	26.53
530.724	26.66
531.152	26.81
531.581	26.94
532.01	27.05
532.438	27.18
532.867	27.29
533.295	27.4
533.723	27.49
534.152	27.58
534.58	27.68
535.008	27.73
535.436	27.8
535.865	27.85
536.293	27.9
536.721	27.95
537.149	27.99
537.576	28.04
538.004	28.07
538.432	28.1
538.86	28.13
539.287	28.14
539.715	28.2
540.143	28.22
540.57	28.25
540.998	28.27
541.425	28.32
541.852	28.36
542.28	28.38
542.707	28.41
543.134	28.44
543.561	28.47
543.988	28.53
544.415	28.53
544.842	28.56
545.269	28.6
545.696	28.64
546.123	28.66
546.549	28.68
546.976	28.73
547.403	28.77
547.829	28.79
548.256	28.82
548.682	28.82
549.108	28.86
549.535	28.9
549.961	28.91
550.387	28.93
550.813	28.93
551.24	28.94
551.666	28.93
552.092	28.92
552.518	28.92
552.943	28.9
553.369	28.91
553.795	28.89
554.221	28.85
554.646	28.82
555.072	28.78
555.498	28.75
555.923	28.7
556.349	28.64
556.774	28.59
557.199	28.54
557.625	28.48
558.05	28.4
558.475	28.34
558.9	28.28
559.325	28.21
559.75	28.13
560.175	28.04
560.6	27.95
561.025	27.87
561.449	27.77
561.874	27.64
562.299	27.52
562.723	27.41
563.148	27.27
563.572	27.14
563.997	27
564.421	26.85
564.846	26.71
565.27	26.57
565.694	26.42
566.118	26.26
566.542	26.11
566.966	25.95
567.39	25.79
567.814	25.63
568.238	25.47
568.662	25.32
569.086	25.16
569.509	24.99
569.933	24.84
570.357	24.67
570.78	24.51
571.204	24.37
571.627	24.23
572.05	24.08
572.474	23.96
572.897	23.81
573.32	23.67
573.743	23.52
574.166	23.41
574.589	23.28
575.012	23.15
575.435	23.05
575.858	22.92
576.281	22.8
576.704	22.69
577.126	22.57
577.549	22.47
577.972	22.37
578.394	22.27
578.817	22.17
579.239	22.07
579.661	21.98
580.084	21.9
580.506	21.82
580.928	21.73
581.35	21.63
581.772	21.55
582.194	21.47
582.616	21.38
583.038	21.31
583.46	21.22
583.882	21.15
584.303	21.09
584.725	20.99
585.147	20.93
585.568	20.87
585.99	20.8
586.411	20.74
586.833	20.68
587.254	20.61
587.675	20.55
588.096	20.49
588.518	20.44
588.939	20.38
589.36	20.33
589.781	20.26
590.202	20.22
590.623	20.18
591.043	20.13
591.464	20.09
591.885	20.05
592.305	20.01
592.726	19.98
593.147	19.94
593.567	19.89
593.987	19.86
594.408	19.83
594.828	19.77
595.248	19.75
595.669	19.72
596.089	19.69
596.509	19.67
596.929	19.62
597.349	19.58
597.769	19.54
598.189	19.51
598.608	19.47
599.028	19.43
599.448	19.4
599.867	19.33
600.287	19.28
600.706	19.23
601.126	19.17
601.545	19.13
601.965	19.07
602.384	19.01
602.803	18.94
603.222	18.88
603.641	18.82
604.061	18.75
604.48	18.68
604.898	18.6
605.317	18.53
605.736	18.44
606.155	18.36
606.574	18.28
606.992	18.2
607.411	18.12
607.829	18.02
608.248	17.92
608.666	17.84
609.085	17.75
609.503	17.68
609.921	17.6
610.339	17.53
610.758	17.44
611.176	17.35
611.594	17.27
612.012	17.18
612.43	17.1
612.847	17.03
613.265	16.94
613.683	16.86
614.101	16.78
614.518	16.68
614.936	16.59
615.353	16.5
615.771	16.43
616.188	16.36
616.606	16.3
617.023	16.23
617.44	16.18
617.857	16.12
618.274	16.05
618.691	15.99
619.108	15.93
619.525	15.88
619.942	15.84
620.359	15.79
620.776	15.75
621.192	15.7
621.609	15.67
622.026	15.62
622.442	15.59
622.859	15.56
623.275	15.53
623.691	15.5
624.108	15.48
624.524	15.47
624.94	15.45
625.356	15.44
625.772	15.41
626.188	15.41
626.604	15.41
627.02	15.39
627.436	15.38
627.852	15.38
628.268	15.36
628.683	15.35
629.099	15.33
629.514	15.31
629.93	15.28
630.345	15.26
630.761	15.22
631.176	15.18
631.591	15.13
632.007	15.09
632.422	15.03
632.837	14.98
633.252	14.92
633.667	14.85
634.082	14.78
634.497	14.7
634.911	14.6
635.326	14.51
635.741	14.41
636.155	14.31
636.57	14.19
636.984	14.08
637.399	13.95
637.813	13.82
638.228	13.69
638.642	13.55
639.056	13.41
639.47	13.28
639.884	13.14
640.298	12.99
640.712	12.85
641.126	12.72
641.54	12.58
641.954	12.44
642.368	12.31
642.781	12.18
643.195	12.05
643.609	11.91
644.022	11.79
644.436	11.68
644.849	11.56
645.262	11.45
645.676	11.34
646.089	11.24
646.502	11.15
646.915	11.06
647.328	10.98
647.741	10.9
648.154	10.83
648.567	10.77
648.98	10.69
649.393	10.63
649.805	10.58
650.218	10.52
650.631	10.46
651.043	10.4
651.456	10.33
651.868	10.28
652.28	10.22
652.693	10.17
653.105	10.1
653.517	10.04
653.929	9.97
654.341	9.89
654.753	9.8
655.165	9.73
655.577	9.65
655.989	9.57
656.401	9.47
656.813	9.38
657.224	9.27
657.636	9.16
658.047	9.06
658.459	8.95
658.87	8.84
659.282	8.74
659.693	8.63
660.104	8.51
660.515	8.4
660.926	8.3
661.338	8.19
661.749	8.09
662.159	7.97
662.57	7.88
662.981	7.79
663.392	7.69
663.803	7.61
664.213	7.52
664.624	7.44
665.035	7.35
665.445	7.28
665.855	7.22
666.266	7.16
666.676	7.13
667.086	7.06
667.497	7
667.907	6.95
668.317	6.93
668.727	6.88
669.137	6.86
669.547	6.84
669.956	6.82
670.366	6.8
670.776	6.78
671.186	6.76
671.595	6.76
672.005	6.75
672.414	6.75
672.824	6.75
673.233	6.76
673.642	6.77
674.052	6.78
674.461	6.79
674.87	6.81
675.279	6.84
675.688	6.86
676.097	6.89
676.506	6.93
676.915	6.98
677.323	7.03
677.732	7.07
678.141	7.12
678.549	7.18
678.958	7.25
679.366	7.33
679.775	7.41
680.183	7.51
680.592	7.61
681	7.73
681.408	7.85
681.816	7.98
682.224	8.15
682.632	8.33
683.04	8.52
683.448	8.72
683.856	8.94
684.264	9.19
684.671	9.45
685.079	9.74
685.487	10.06
685.894	10.41
686.302	10.79
686.709	11.18
687.116	11.6
687.524	12.06
687.931	12.53
688.338	13.03
688.745	13.54
689.152	14.09
689.559	14.66
689.966	15.24
690.373	15.82
690.78	16.42
691.187	17.02
691.593	17.64
692	18.25
692.407	18.87
692.813	19.51
693.22	20.13
693.626	20.74
694.032	21.36
694.439	21.97
694.845	22.6
695.251	23.21
695.657	23.83
696.063	24.45
696.469	25.08
696.875	25.68
697.281	26.26
697.687	26.85
698.093	27.43
698.498	28
698.904	28.54
699.31	29.05
699.715	29.58
700.12	30.1
700.526	30.58
700.931	31.05
701.337	31.52
701.742	31.97
702.147	32.43
702.552	32.88
702.957	33.29
703.362	33.73
703.767	34.14
704.172	34.55
704.577	34.92
704.981	35.32
705.386	35.68
705.791	36.07
706.195	36.45
706.6	36.82
707.004	37.16
707.408	37.52
707.813	37.86
708.217	38.21
708.621	38.54
709.025	38.87
709.43	39.19
709.834	39.53
710.237	39.81
710.641	40.09
711.045	40.37
711.449	40.64
711.853	40.94
712.256	41.2
712.66	41.46
713.064	41.73
713.467	42
713.87	42.26
714.274	42.48
714.677	42.75
715.08	42.98
715.484	43.22
715.887	43.49
716.29	43.69
716.693	43.91
717.096	44.13
717.499	44.34
717.901	44.54
718.304	44.72
718.707	44.92
719.109	45.12
719.512	45.3
719.915	45.47
720.317	45.63
720.719	45.8
721.122	45.96
721.524	46.14
721.926	46.31
722.328	46.46
722.731	46.61
723.133	46.78
723.535	46.92
723.937	47.09
724.338	47.23
724.74	47.38
725.142	47.58
725.544	47.71
725.945	47.84
726.347	47.93
726.748	48.03
727.15	48.15
727.551	48.27
727.952	48.37
728.354	48.47
728.755	48.54
729.156	48.6
729.557	48.61
729.958	48.68
730.359	48.74
730.76	48.83
731.161	48.92
731.562	49.01
731.962	49.04
732.363	49.12
732.763	49.16
733.164	49.24
733.564	49.33
733.965	49.4
734.365	49.47
734.766	49.53
735.166	49.61
735.566	49.66
735.966	49.7
736.366	49.73
736.766	49.75
737.166	49.81
737.566	49.87
737.966	49.9
738.365	49.93
738.765	49.97
739.165	50.01
739.564	50.04
739.964	50.07
740.363	50.09
740.763	50.14
741.162	50.17
741.561	50.17
741.96	50.18
742.36	50.21
742.759	50.24
743.158	50.23
743.557	50.24
743.955	50.26
744.354	50.27
744.753	50.32
745.152	50.36
745.55	50.4
745.949	50.46
746.348	50.51
746.746	50.53
747.144	50.55
747.543	50.6
747.941	50.65
748.339	50.65
748.737	50.66
749.136	50.66
749.534	50.64
749.932	50.64
750.33	50.62
750.727	50.61
751.125	50.61
751.523	50.63
751.921	50.65
752.318	50.64
752.716	50.64
753.113	50.66
753.511	50.66
753.908	50.7
754.305	50.73
754.703	50.72
755.1	50.71
755.497	50.72
755.894	50.68
756.291	50.67
756.688	50.65
757.085	50.65
757.482	50.65
757.878	50.65
758.275	50.61
758.672	50.61
759.068	50.63
759.465	50.63
759.861	50.63
760.258	50.64
760.654	50.65
761.05	50.66
761.447	50.67
761.843	50.66
762.239	50.63
762.635	50.64
763.031	50.62
763.427	50.59
763.822	50.59
764.218	50.6
764.614	50.61
765.01	50.59
765.405	50.58
765.801	50.57
766.196	50.55
766.592	50.57
766.987	50.56
767.382	50.54
767.778	50.58
768.173	50.59
768.568	50.58
768.963	50.57
769.358	50.57
769.753	50.54
770.148	50.54
770.542	50.55
770.937	50.54
771.332	50.54
771.726	50.56
772.121	50.54
772.515	50.56
772.91	50.54
773.304	50.54
773.699	50.56
774.093	50.57
774.487	50.59
774.881	50.61
775.275	50.61
775.669	50.6
776.063	50.56
776.457	50.56
776.851	50.53
777.245	50.54
777.638	50.53
778.032	50.54
778.425	50.58
778.819	50.55
779.212	50.57
779.606	50.6
779.999	50.6
780.392	50.62
