Data from C_3_DIV_OH_2N_Splice17_13-48-13-862.txt Node
Date: Sat Mar 07 13:48:13 EST 2020
User: sa697716
Spectrometer: NQ5500242
Trigger mode: 0
Integration Time (sec): 1.450000E-1
Scans to average: 20
Nonlinearity correction enabled: false
Boxcar width: 5
Storing dark spectrum: false
XAxis mode: Wavelengths
Number of Pixels in Spectrum: 512
>>>>>Begin Spectral Data<<<<<
187.83	179.65
188.298	193.66
188.766	183.84
189.233	139.22
189.701	145.34
190.169	185.42
190.636	189.38
191.104	224.79
191.571	-23.96
192.039	-243.54
192.506	-177.62
192.974	-19.38
193.441	-65.04
193.908	-34.1
194.375	-46.87
194.842	-29.44
195.31	99.02
195.777	370.19
196.244	69.83
196.711	43.59
197.177	43.99
197.644	42.97
198.111	41.69
198.578	42.08
199.045	42.57
199.511	42.58
199.978	41.8
200.445	41.63
200.911	41.32
201.378	40.57
201.844	40.84
202.31	40.56
202.777	40.44
203.243	40.74
203.709	40.23
204.176	39.58
204.642	39.23
205.108	39.31
205.574	38.9
206.04	38.23
206.506	38.07
206.972	37.69
207.438	37.49
207.903	36.94
208.369	36.01
208.835	35.58
209.301	34.92
209.766	33.84
210.232	32.92
210.697	32.07
211.163	31.44
211.628	30.85
212.094	29.95
212.559	29.36
213.024	28.7
213.49	28.12
213.955	27.2
214.42	26.56
214.885	25.91
215.35	25.04
215.815	24.02
216.28	22.41
216.745	20.61
217.21	19.08
217.675	17.38
218.14	16.16
218.604	14.99
219.069	14.02
219.534	13.29
219.998	12.63
220.463	12.08
220.927	11.55
221.392	11.22
221.856	10.95
222.32	10.68
222.785	10.51
223.249	10.31
223.713	10.14
224.177	10.01
224.642	9.83
225.106	9.65
225.57	9.49
226.034	9.39
226.497	9.27
226.961	9.16
227.425	9.05
227.889	8.93
228.353	8.82
228.816	8.73
229.28	8.62
229.744	8.53
230.207	8.45
230.671	8.38
231.134	8.26
231.597	8.19
232.061	8.11
232.524	8.02
232.987	7.94
233.45	7.89
233.914	7.8
234.377	7.73
234.84	7.66
235.303	7.61
235.766	7.55
236.229	7.49
236.691	7.41
237.154	7.35
237.617	7.3
238.08	7.23
238.542	7.16
239.005	7.11
239.468	7.05
239.93	6.99
240.393	6.94
240.855	6.87
241.317	6.81
241.78	6.75
242.242	6.69
242.704	6.65
243.166	6.61
243.629	6.57
244.091	6.51
244.553	6.47
245.015	6.42
245.477	6.36
245.939	6.3
246.4	6.27
246.862	6.22
247.324	6.18
247.786	6.12
248.247	6.07
248.709	6.01
249.17	5.95
249.632	5.93
250.093	5.89
250.555	5.86
251.016	5.82
251.477	5.77
251.939	5.74
252.4	5.71
252.861	5.67
253.322	5.65
253.783	5.61
254.244	5.59
254.705	5.55
255.166	5.52
255.627	5.49
256.088	5.47
256.549	5.44
257.009	5.41
257.47	5.37
257.931	5.33
258.391	5.28
258.852	5.25
259.312	5.21
259.773	5.18
260.233	5.15
260.694	5.13
261.154	5.09
261.614	5.07
262.074	5.04
262.534	5.02
262.994	5
263.455	4.98
263.915	4.97
264.374	4.95
264.834	4.93
265.294	4.91
265.754	4.88
266.214	4.87
266.673	4.85
267.133	4.84
267.593	4.83
268.052	4.82
268.512	4.82
268.971	4.81
269.431	4.8
269.89	4.79
270.349	4.79
270.809	4.78
271.268	4.78
271.727	4.77
272.186	4.75
272.645	4.75
273.104	4.73
273.563	4.72
274.022	4.71
274.481	4.7
274.94	4.7
275.399	4.68
275.857	4.67
276.316	4.67
276.775	4.66
277.233	4.66
277.692	4.66
278.15	4.66
278.609	4.65
279.067	4.65
279.525	4.64
279.984	4.64
280.442	4.64
280.9	4.63
281.358	4.62
281.816	4.62
282.274	4.61
282.732	4.59
283.19	4.58
283.648	4.56
284.106	4.55
284.564	4.54
285.021	4.53
285.479	4.51
285.937	4.5
286.394	4.48
286.852	4.47
287.309	4.45
287.767	4.44
288.224	4.43
288.682	4.41
289.139	4.4
289.596	4.39
290.053	4.37
290.511	4.35
290.968	4.34
291.425	4.33
291.882	4.32
292.339	4.31
292.796	4.3
293.252	4.29
293.709	4.29
294.166	4.28
294.623	4.26
295.079	4.25
295.536	4.25
295.992	4.24
296.449	4.23
296.905	4.23
297.362	4.22
297.818	4.21
298.274	4.22
298.731	4.2
299.187	4.19
299.643	4.18
300.099	4.18
300.555	4.17
301.011	4.17
301.467	4.17
301.923	4.15
302.379	4.15
302.835	4.15
303.291	4.14
303.746	4.14
304.202	4.15
304.658	4.15
305.113	4.14
305.569	4.14
306.024	4.13
306.479	4.12
306.935	4.12
307.39	4.12
307.845	4.11
308.301	4.11
308.756	4.1
309.211	4.09
309.666	4.1
310.121	4.1
310.576	4.09
311.031	4.09
311.486	4.09
311.94	4.08
312.395	4.08
312.85	4.08
313.305	4.08
313.759	4.08
314.214	4.08
314.668	4.06
315.123	4.06
315.577	4.06
316.032	4.05
316.486	4.05
316.94	4.04
317.394	4.03
317.849	4.02
318.303	4
318.757	3.99
319.211	3.98
319.665	3.97
320.119	3.95
320.572	3.94
321.026	3.94
321.48	3.92
321.934	3.91
322.387	3.91
322.841	3.9
323.295	3.91
323.748	3.91
324.202	3.91
324.655	3.9
325.108	3.91
325.562	3.92
326.015	3.92
326.468	3.93
326.921	3.93
327.374	3.93
327.827	3.93
328.28	3.93
328.733	3.93
329.186	3.92
329.639	3.92
330.092	3.92
330.545	3.92
330.997	3.92
331.45	3.92
331.903	3.93
332.355	3.93
332.808	3.92
333.26	3.91
333.713	3.91
334.165	3.9
334.617	3.9
335.069	3.89
335.522	3.88
335.974	3.89
336.426	3.88
336.878	3.86
337.33	3.85
337.782	3.85
338.234	3.86
338.686	3.86
339.137	3.87
339.589	3.86
340.041	3.85
340.493	3.84
340.944	3.82
341.396	3.83
341.847	3.82
342.299	3.81
342.75	3.81
343.201	3.79
343.653	3.78
344.104	3.76
344.555	3.75
345.006	3.74
345.457	3.74
345.908	3.73
346.359	3.73
346.81	3.73
347.261	3.73
347.712	3.72
348.163	3.72
348.613	3.73
349.064	3.74
349.515	3.74
349.965	3.73
350.416	3.73
350.866	3.74
351.317	3.73
351.767	3.73
352.217	3.73
352.668	3.73
353.118	3.74
353.568	3.73
354.018	3.74
354.468	3.75
354.918	3.76
355.368	3.77
355.818	3.77
356.268	3.77
356.718	3.78
357.168	3.79
357.617	3.79
358.067	3.79
358.517	3.81
358.966	3.82
359.416	3.82
359.865	3.84
360.315	3.85
360.764	3.86
361.213	3.89
361.663	3.89
362.112	3.91
362.561	3.93
363.01	3.95
363.459	3.94
363.908	3.95
364.357	3.97
364.806	3.97
365.255	3.99
365.703	4.02
366.152	4.04
366.601	4.07
367.05	4.09
367.498	4.11
367.947	4.14
368.395	4.18
368.844	4.21
369.292	4.24
369.74	4.29
370.189	4.32
370.637	4.35
371.085	4.37
371.533	4.4
371.981	4.45
372.429	4.49
372.877	4.54
373.325	4.58
373.773	4.62
374.221	4.66
374.669	4.71
375.116	4.75
375.564	4.8
376.012	4.86
376.459	4.91
376.907	4.96
377.354	5.02
377.801	5.08
378.249	5.14
378.696	5.2
379.143	5.26
379.591	5.33
380.038	5.4
380.485	5.47
380.932	5.52
381.379	5.59
381.826	5.65
382.273	5.7
382.72	5.75
383.166	5.81
383.613	5.87
384.06	5.93
384.506	6
384.953	6.07
385.4	6.14
385.846	6.21
386.292	6.26
386.739	6.33
387.185	6.4
387.631	6.48
388.078	6.55
388.524	6.61
388.97	6.67
389.416	6.75
389.862	6.81
390.308	6.88
390.754	6.95
391.2	7.02
391.645	7.09
392.091	7.17
392.537	7.23
392.983	7.29
393.428	7.35
393.874	7.4
394.319	7.45
394.765	7.5
395.21	7.54
395.655	7.57
396.101	7.61
396.546	7.64
396.991	7.68
397.436	7.72
397.881	7.78
398.326	7.81
398.771	7.85
399.216	7.87
399.661	7.9
400.106	7.92
400.551	7.93
400.995	7.93
401.44	7.94
401.885	7.94
402.329	7.95
402.774	7.95
403.218	7.97
403.663	7.98
404.107	7.99
404.551	7.99
404.995	7.99
405.44	8
405.884	8.01
406.328	8.01
406.772	7.99
407.216	7.98
407.66	7.96
408.104	7.93
408.547	7.92
408.991	7.91
409.435	7.91
409.879	7.91
410.322	7.91
410.766	7.92
411.209	7.93
411.653	7.95
412.096	7.96
412.54	7.98
412.983	7.99
413.426	8.04
413.869	8.04
414.312	8.06
414.756	8.07
415.199	8.06
415.642	8.05
416.085	8.04
416.527	8.02
416.97	8
417.413	7.98
417.856	7.96
418.298	7.93
418.741	7.92
419.184	7.89
419.626	7.88
420.069	7.89
420.511	7.89
420.953	7.88
421.396	7.9
421.838	7.9
422.28	7.9
422.722	7.91
423.164	7.9
423.606	7.9
424.048	7.89
424.49	7.85
424.932	7.82
425.374	7.77
425.816	7.73
426.258	7.71
426.699	7.69
427.141	7.68
427.582	7.66
428.024	7.65
428.465	7.64
428.907	7.62
429.348	7.62
429.789	7.62
430.231	7.66
430.672	7.68
431.113	7.7
431.554	7.7
431.995	7.7
432.436	7.7
432.877	7.71
433.318	7.75
433.759	7.78
434.2	7.8
434.64	7.8
435.081	7.8
435.522	7.81
435.962	7.81
436.403	7.85
436.843	7.87
437.284	7.87
437.724	7.89
438.164	7.87
438.604	7.88
439.045	7.9
439.485	7.93
439.925	7.96
440.365	7.98
440.805	8
441.245	8.04
441.685	8.08
442.125	8.13
442.564	8.17
443.004	8.23
443.444	8.26
443.883	8.32
444.323	8.37
444.762	8.41
445.202	8.45
445.641	8.55
446.081	8.6
446.52	8.64
446.959	8.73
447.398	8.8
447.837	8.84
448.276	8.91
448.716	8.96
449.154	9.03
449.593	9.1
450.032	9.16
450.471	9.17
450.91	9.19
451.349	9.24
451.787	9.24
452.226	9.26
452.664	9.29
453.103	9.32
453.541	9.33
453.98	9.36
454.418	9.35
454.856	9.37
455.295	9.38
455.733	9.38
456.171	9.39
456.609	9.41
457.047	9.4
457.485	9.41
457.923	9.41
458.361	9.41
458.798	9.4
459.236	9.4
459.674	9.39
460.111	9.39
460.549	9.41
460.987	9.4
461.424	9.4
461.862	9.4
462.299	9.41
462.736	9.42
463.173	9.42
463.611	9.44
464.048	9.44
464.485	9.45
464.922	9.45
465.359	9.44
465.796	9.47
466.233	9.48
466.67	9.5
467.106	9.5
467.543	9.49
467.98	9.48
468.416	9.47
468.853	9.47
469.29	9.48
469.726	9.49
470.162	9.48
470.599	9.46
471.035	9.45
471.471	9.44
471.907	9.44
472.344	9.44
472.78	9.46
473.216	9.48
473.652	9.49
474.088	9.49
474.523	9.5
474.959	9.52
475.395	9.51
475.831	9.53
476.266	9.55
476.702	9.56
477.138	9.56
477.573	9.57
478.008	9.57
478.444	9.58
478.879	9.6
479.314	9.61
479.75	9.62
480.185	9.62
480.62	9.62
481.055	9.63
481.49	9.64
481.925	9.66
482.36	9.69
482.795	9.71
483.229	9.72
483.664	9.74
484.099	9.76
484.534	9.79
484.968	9.84
485.403	9.88
485.837	9.91
486.271	9.95
486.706	9.99
487.14	10.02
487.574	10.07
488.009	10.12
488.443	10.18
488.877	10.25
489.311	10.33
489.745	10.39
490.179	10.46
490.613	10.55
491.046	10.63
491.48	10.72
491.914	10.82
492.348	10.91
492.781	11.02
493.215	11.13
493.648	11.23
494.082	11.33
494.515	11.45
494.948	11.58
495.382	11.69
495.815	11.83
496.248	11.97
496.681	12.11
497.114	12.25
497.547	12.39
497.98	12.54
498.413	12.69
498.846	12.86
499.279	13.02
499.711	13.17
500.144	13.34
500.577	13.52
501.009	13.69
501.442	13.89
501.874	14.1
502.306	14.29
502.739	14.52
503.171	14.73
503.603	14.94
504.036	15.16
504.468	15.4
504.9	15.63
505.332	15.86
505.764	16.1
506.196	16.33
506.627	16.57
507.059	16.83
507.491	17.07
507.923	17.32
508.354	17.6
508.786	17.87
509.217	18.13
509.649	18.41
510.08	18.67
510.512	18.97
510.943	19.24
511.374	19.52
511.805	19.8
512.237	20.08
512.668	20.37
513.099	20.65
513.53	20.94
513.961	21.23
514.391	21.52
514.822	21.83
515.253	22.11
515.684	22.4
516.114	22.68
516.545	22.96
516.975	23.25
517.406	23.51
517.836	23.78
518.267	24.06
518.697	24.3
519.127	24.54
519.558	24.78
519.988	25.03
520.418	25.26
520.848	25.49
521.278	25.7
521.708	26.06
522.138	26.27
522.567	26.47
522.997	26.67
523.427	26.87
523.857	27.05
524.286	27.23
524.716	27.4
525.145	27.57
525.575	27.73
526.004	27.9
526.433	27.91
526.863	28.06
527.292	28.22
527.721	28.35
528.15	28.48
528.579	28.61
529.008	28.75
529.437	28.85
529.866	28.97
530.295	29.08
530.724	29.18
531.152	29.28
531.581	29.38
532.01	29.47
532.438	29.56
532.867	29.65
533.295	29.74
533.723	29.81
534.152	29.89
534.58	29.95
535.008	30
535.436	30.07
535.865	30.12
536.293	30.16
536.721	30.19
537.149	30.24
537.576	30.3
538.004	30.34
538.432	30.38
538.86	30.43
539.287	30.44
539.715	30.49
540.143	30.52
540.57	30.55
540.998	30.59
541.425	30.63
541.852	30.65
542.28	30.66
542.707	30.68
543.134	30.72
543.561	30.73
543.988	30.78
544.415	30.8
544.842	30.82
545.269	30.85
545.696	30.88
546.123	30.9
546.549	30.93
546.976	30.95
547.403	30.96
547.829	30.97
548.256	31
548.682	31.01
549.108	31.05
549.535	31.07
549.961	31.08
550.387	31.08
550.813	31.1
551.24	31.11
551.666	31.13
552.092	31.13
552.518	31.15
552.943	31.16
553.369	31.17
553.795	31.15
554.221	31.14
554.646	31.12
555.072	31.13
555.498	31.1
555.923	31.09
556.349	31.04
556.774	31.02
557.199	30.99
557.625	30.94
558.05	30.91
558.475	30.87
558.9	30.85
559.325	30.82
559.75	30.77
560.175	30.71
560.6	30.66
561.025	30.62
561.449	30.58
561.874	30.51
562.299	30.44
562.723	30.38
563.148	30.28
563.572	30.21
563.997	30.1
564.421	30.01
564.846	29.93
565.27	29.85
565.694	29.76
566.118	29.65
566.542	29.56
566.966	29.47
567.39	29.37
567.814	29.29
568.238	29.19
568.662	29.1
569.086	29.02
569.509	28.94
569.933	28.85
570.357	28.77
570.78	28.67
571.204	28.59
571.627	28.5
572.05	28.4
572.474	28.33
572.897	28.25
573.32	28.17
573.743	28.08
574.166	27.99
574.589	27.91
575.012	27.82
575.435	27.75
575.858	27.68
576.281	27.61
576.704	27.53
577.126	27.45
577.549	27.38
577.972	27.29
578.394	27.22
578.817	27.15
579.239	27.08
579.661	27.01
580.084	26.92
580.506	26.86
580.928	26.78
581.35	26.72
581.772	26.66
582.194	26.61
582.616	26.56
583.038	26.49
583.46	26.41
583.882	26.34
584.303	26.27
584.725	26.22
585.147	26.2
585.568	26.15
585.99	26.09
586.411	26.05
586.833	26
587.254	25.93
587.675	25.9
588.096	25.87
588.518	25.84
588.939	25.81
589.36	25.76
589.781	25.71
590.202	25.69
590.623	25.66
591.043	25.6
591.464	25.57
591.885	25.54
592.305	25.51
592.726	25.5
593.147	25.46
593.567	25.42
593.987	25.39
594.408	25.35
594.828	25.3
595.248	25.28
595.669	25.26
596.089	25.23
596.509	25.21
596.929	25.18
597.349	25.13
597.769	25.1
598.189	25.07
598.608	25.05
599.028	25.02
599.448	24.99
599.867	24.96
600.287	24.93
600.706	24.89
601.126	24.86
601.545	24.84
601.965	24.83
602.384	24.8
602.803	24.76
603.222	24.72
603.641	24.66
604.061	24.63
604.48	24.57
604.898	24.51
605.317	24.46
605.736	24.4
606.155	24.33
606.574	24.26
606.992	24.19
607.411	24.12
607.829	24.01
608.248	23.95
608.666	23.86
609.085	23.8
609.503	23.73
609.921	23.65
610.339	23.58
610.758	23.49
611.176	23.4
611.594	23.32
612.012	23.25
612.43	23.21
612.847	23.13
613.265	23.07
613.683	22.99
614.101	22.92
614.518	22.83
614.936	22.75
615.353	22.68
615.771	22.61
616.188	22.53
616.606	22.49
617.023	22.41
617.44	22.36
617.857	22.3
618.274	22.24
618.691	22.19
619.108	22.14
619.525	22.1
619.942	22.06
620.359	22.03
620.776	22.01
621.192	21.97
621.609	21.92
622.026	21.88
622.442	21.86
622.859	21.83
623.275	21.8
623.691	21.79
624.108	21.76
624.524	21.74
624.94	21.71
625.356	21.69
625.772	21.66
626.188	21.66
626.604	21.66
627.02	21.63
627.436	21.61
627.852	21.6
628.268	21.57
628.683	21.56
629.099	21.55
629.514	21.53
629.93	21.51
630.345	21.48
630.761	21.44
631.176	21.4
631.591	21.37
632.007	21.34
632.422	21.29
632.837	21.24
633.252	21.19
633.667	21.13
634.082	21.05
634.497	20.99
634.911	20.91
635.326	20.84
635.741	20.76
636.155	20.65
636.57	20.54
636.984	20.44
637.399	20.33
637.813	20.2
638.228	20.07
638.642	19.94
639.056	19.79
639.47	19.66
639.884	19.51
640.298	19.34
640.712	19.2
641.126	19.05
641.54	18.88
641.954	18.72
642.368	18.57
642.781	18.42
643.195	18.27
643.609	18.11
644.022	17.96
644.436	17.81
644.849	17.67
645.262	17.53
645.676	17.39
646.089	17.28
646.502	17.18
646.915	17.07
647.328	16.96
647.741	16.86
648.154	16.76
648.567	16.69
648.98	16.6
649.393	16.52
649.805	16.43
650.218	16.36
650.631	16.28
651.043	16.21
651.456	16.13
651.868	16.06
652.28	15.98
652.693	15.92
653.105	15.83
653.517	15.75
653.929	15.67
654.341	15.57
654.753	15.46
655.165	15.35
655.577	15.23
655.989	15.11
656.401	14.98
656.813	14.85
657.224	14.68
657.636	14.52
658.047	14.38
658.459	14.22
658.87	14.06
659.282	13.9
659.693	13.73
660.104	13.55
660.515	13.36
660.926	13.17
661.338	12.98
661.749	12.81
662.159	12.65
662.57	12.47
662.981	12.3
663.392	12.12
663.803	11.95
664.213	11.78
664.624	11.63
665.035	11.49
665.445	11.36
665.855	11.25
666.266	11.12
666.676	11.01
667.086	10.89
667.497	10.77
667.907	10.66
668.317	10.57
668.727	10.5
669.137	10.41
669.547	10.34
669.956	10.27
670.366	10.2
670.776	10.15
671.186	10.09
671.595	10.05
672.005	10.01
672.414	10
672.824	9.96
673.233	9.92
673.642	9.91
674.052	9.89
674.461	9.89
674.87	9.88
675.279	9.89
675.688	9.91
676.097	9.93
676.506	9.96
676.915	9.99
677.323	10.05
677.732	10.1
678.141	10.16
678.549	10.23
678.958	10.33
679.366	10.44
679.775	10.55
680.183	10.7
680.592	10.87
681	11.06
681.408	11.26
681.816	11.49
682.224	11.76
682.632	12.05
683.04	12.35
683.448	12.68
683.856	13.03
684.264	13.42
684.671	13.81
685.079	14.24
685.487	14.68
685.894	15.18
686.302	15.68
686.709	16.2
687.116	16.73
687.524	17.3
687.931	17.86
688.338	18.45
688.745	19.05
689.152	19.65
689.559	20.26
689.966	20.89
690.373	21.5
690.78	22.11
691.187	22.71
691.593	23.31
692	23.88
692.407	24.46
692.813	25.05
693.22	25.6
693.626	26.15
694.032	26.69
694.439	27.2
694.845	27.7
695.251	28.19
695.657	28.67
696.063	29.14
696.469	29.61
696.875	30.06
697.281	30.47
697.687	30.89
698.093	31.29
698.498	31.66
698.904	32.03
699.31	32.39
699.715	32.75
700.12	33.09
700.526	33.42
700.931	33.73
701.337	34.03
701.742	34.31
702.147	34.58
702.552	34.85
702.957	35.1
703.362	35.36
703.767	35.59
704.172	35.79
704.577	36.01
704.981	36.21
705.386	36.43
705.791	36.64
706.195	36.84
706.6	37.05
707.004	37.24
707.408	37.42
707.813	37.61
708.217	37.78
708.621	37.97
709.025	38.15
709.43	38.32
709.834	38.48
710.237	38.62
710.641	38.77
711.045	38.91
711.449	39.06
711.853	39.23
712.256	39.34
712.66	39.48
713.064	39.6
713.467	39.73
713.87	39.83
714.274	39.93
714.677	40.04
715.08	40.14
715.484	40.25
715.887	40.39
716.29	40.45
716.693	40.57
717.096	40.66
717.499	40.75
717.901	40.85
718.304	40.98
718.707	41.08
719.109	41.17
719.512	41.24
719.915	41.35
720.317	41.39
720.719	41.46
721.122	41.54
721.524	41.63
721.926	41.71
722.328	41.76
722.731	41.8
723.133	41.86
723.535	41.94
723.937	42.03
724.338	42.07
724.74	42.14
725.142	42.39
725.544	42.42
725.945	42.54
726.347	42.57
726.748	42.64
727.15	42.69
727.551	42.77
727.952	42.78
728.354	42.81
728.755	42.84
729.156	42.86
729.557	42.71
729.958	42.74
730.359	42.7
730.76	42.72
731.161	42.73
731.562	42.76
731.962	42.75
732.363	42.78
732.763	42.81
733.164	42.81
733.564	42.87
733.965	42.88
734.365	42.92
734.766	42.96
735.166	42.99
735.566	43.02
735.966	43.05
736.366	43.07
736.766	43.1
737.166	43.13
737.566	43.18
737.966	43.19
738.365	43.21
738.765	43.24
739.165	43.24
739.564	43.24
739.964	43.23
740.363	43.22
740.763	43.26
741.162	43.29
741.561	43.29
741.96	43.28
742.36	43.29
742.759	43.3
743.158	43.3
743.557	43.3
743.955	43.33
744.354	43.37
744.753	43.39
745.152	43.4
745.55	43.38
745.949	43.38
746.348	43.38
746.746	43.38
747.144	43.41
747.543	43.39
747.941	43.4
748.339	43.38
748.737	43.37
749.136	43.35
749.534	43.31
749.932	43.31
750.33	43.32
750.727	43.34
751.125	43.32
751.523	43.28
751.921	43.33
752.318	43.34
752.716	43.33
753.113	43.35
753.511	43.37
753.908	43.43
754.305	43.47
754.703	43.46
755.1	43.47
755.497	43.49
755.894	43.5
756.291	43.49
756.688	43.49
757.085	43.52
757.482	43.53
757.878	43.55
758.275	43.52
758.672	43.49
759.068	43.52
759.465	43.52
759.861	43.52
760.258	43.54
760.654	43.55
761.05	43.57
761.447	43.57
761.843	43.56
762.239	43.54
762.635	43.53
763.031	43.55
763.427	43.55
763.822	43.55
764.218	43.57
764.614	43.57
765.01	43.55
765.405	43.55
765.801	43.54
766.196	43.55
766.592	43.54
766.987	43.55
767.382	43.56
767.778	43.55
768.173	43.55
768.568	43.54
768.963	43.53
769.358	43.55
769.753	43.56
770.148	43.58
770.542	43.59
770.937	43.61
771.332	43.62
771.726	43.6
772.121	43.62
772.515	43.62
772.91	43.62
773.304	43.63
773.699	43.63
774.093	43.61
774.487	43.62
774.881	43.65
775.275	43.63
775.669	43.62
776.063	43.61
776.457	43.62
776.851	43.59
777.245	43.58
777.638	43.57
778.032	43.55
