Data from C_3_HIR_WI_4N_Splice17_14-05-20-209.txt Node
Date: Sat Mar 07 14:05:20 EST 2020
User: sa697716
Spectrometer: NQ5500242
Trigger mode: 0
Integration Time (sec): 1.450000E-1
Scans to average: 20
Nonlinearity correction enabled: false
Boxcar width: 5
Storing dark spectrum: false
XAxis mode: Wavelengths
Number of Pixels in Spectrum: 512
>>>>>Begin Spectral Data<<<<<
187.83	133.55
188.298	143.46
188.766	115.33
189.233	99.14
189.701	84.54
190.169	95.42
190.636	69.97
191.104	13.23
191.571	-182.32
192.039	-314.41
192.506	-349.73
192.974	280.21
193.441	366.13
193.908	112.37
194.375	79.16
194.842	-26.71
195.31	-23.85
195.777	-134.51
196.244	45.93
196.711	56.08
197.177	58.19
197.644	57.66
198.111	57.23
198.578	57.26
199.045	57.83
199.511	57.89
199.978	58.3
200.445	58.49
200.911	58.35
201.378	58.25
201.844	58.24
202.31	57.69
202.777	57.73
203.243	57.68
203.709	57.35
204.176	57.02
204.642	56.4
205.108	56.21
205.574	55.59
206.04	55.1
206.506	54.49
206.972	54.18
207.438	53.88
207.903	53.24
208.369	52.31
208.835	51.58
209.301	50.3
209.766	49.03
210.232	47.48
210.697	46.25
211.163	44.97
211.628	44.04
212.094	42.72
212.559	41.57
213.024	40.45
213.49	39.33
213.955	38.26
214.42	37.41
214.885	36.41
215.35	35.08
215.815	33.34
216.28	31.11
216.745	28.55
217.21	26.06
217.675	23.73
218.14	21.77
218.604	20.03
219.069	18.51
219.534	17.23
219.998	16.26
220.463	15.4
220.927	14.64
221.392	14.07
221.856	13.63
222.32	13.2
222.785	12.87
223.249	12.55
223.713	12.27
224.177	12.04
224.642	11.82
225.106	11.55
225.57	11.3
226.034	11.12
226.497	10.92
226.961	10.74
227.425	10.6
227.889	10.44
228.353	10.27
228.816	10.1
229.28	9.94
229.744	9.8
230.207	9.68
230.671	9.56
231.134	9.44
231.597	9.35
232.061	9.22
232.524	9.1
232.987	8.98
233.45	8.91
233.914	8.82
234.377	8.73
234.84	8.64
235.303	8.58
235.766	8.51
236.229	8.43
236.691	8.36
237.154	8.29
237.617	8.23
238.08	8.16
238.542	8.08
239.005	8.02
239.468	7.96
239.93	7.91
240.393	7.85
240.855	7.78
241.317	7.71
241.78	7.64
242.242	7.57
242.704	7.52
243.166	7.46
243.629	7.4
244.091	7.34
244.553	7.27
245.015	7.22
245.477	7.15
245.939	7.09
246.4	7.04
246.862	6.99
247.324	6.94
247.786	6.88
248.247	6.83
248.709	6.77
249.17	6.72
249.632	6.69
250.093	6.64
250.555	6.6
251.016	6.56
251.477	6.52
251.939	6.48
252.4	6.44
252.861	6.41
253.322	6.38
253.783	6.35
254.244	6.33
254.705	6.3
255.166	6.26
255.627	6.22
256.088	6.2
256.549	6.18
257.009	6.14
257.47	6.12
257.931	6.08
258.391	6.04
258.852	5.99
259.312	5.95
259.773	5.91
260.233	5.87
260.694	5.84
261.154	5.8
261.614	5.77
262.074	5.73
262.534	5.69
262.994	5.66
263.455	5.64
263.915	5.62
264.374	5.59
264.834	5.57
265.294	5.55
265.754	5.54
266.214	5.51
266.673	5.49
267.133	5.47
267.593	5.46
268.052	5.44
268.512	5.43
268.971	5.41
269.431	5.4
269.89	5.38
270.349	5.36
270.809	5.34
271.268	5.32
271.727	5.31
272.186	5.3
272.645	5.29
273.104	5.27
273.563	5.25
274.022	5.25
274.481	5.24
274.94	5.23
275.399	5.21
275.857	5.21
276.316	5.2
276.775	5.18
277.233	5.17
277.692	5.16
278.15	5.15
278.609	5.14
279.067	5.12
279.525	5.11
279.984	5.1
280.442	5.09
280.9	5.09
281.358	5.07
281.816	5.08
282.274	5.07
282.732	5.06
283.19	5.06
283.648	5.05
284.106	5.04
284.564	5.03
285.021	5.03
285.479	5.02
285.937	5
286.394	5
286.852	4.98
287.309	4.97
287.767	4.96
288.224	4.95
288.682	4.93
289.139	4.92
289.596	4.92
290.053	4.89
290.511	4.87
290.968	4.86
291.425	4.84
291.882	4.83
292.339	4.81
292.796	4.79
293.252	4.78
293.709	4.77
294.166	4.75
294.623	4.74
295.079	4.74
295.536	4.73
295.992	4.72
296.449	4.71
296.905	4.7
297.362	4.69
297.818	4.68
298.274	4.67
298.731	4.67
299.187	4.65
299.643	4.64
300.099	4.63
300.555	4.62
301.011	4.61
301.467	4.6
301.923	4.6
302.379	4.59
302.835	4.59
303.291	4.59
303.746	4.58
304.202	4.58
304.658	4.57
305.113	4.57
305.569	4.56
306.024	4.56
306.479	4.56
306.935	4.55
307.39	4.56
307.845	4.56
308.301	4.56
308.756	4.57
309.211	4.57
309.666	4.56
310.121	4.56
310.576	4.57
311.031	4.57
311.486	4.57
311.94	4.56
312.395	4.56
312.85	4.56
313.305	4.55
313.759	4.55
314.214	4.54
314.668	4.54
315.123	4.54
315.577	4.52
316.032	4.52
316.486	4.51
316.94	4.5
317.394	4.49
317.849	4.47
318.303	4.46
318.757	4.45
319.211	4.43
319.665	4.42
320.119	4.4
320.572	4.39
321.026	4.38
321.48	4.37
321.934	4.36
322.387	4.35
322.841	4.34
323.295	4.34
323.748	4.33
324.202	4.33
324.655	4.32
325.108	4.32
325.562	4.32
326.015	4.31
326.468	4.31
326.921	4.3
327.374	4.3
327.827	4.3
328.28	4.29
328.733	4.3
329.186	4.29
329.639	4.29
330.092	4.29
330.545	4.29
330.997	4.28
331.45	4.28
331.903	4.28
332.355	4.28
332.808	4.28
333.26	4.28
333.713	4.28
334.165	4.27
334.617	4.27
335.069	4.26
335.522	4.27
335.974	4.28
336.426	4.27
336.878	4.26
337.33	4.26
337.782	4.26
338.234	4.26
338.686	4.26
339.137	4.26
339.589	4.25
340.041	4.25
340.493	4.24
340.944	4.21
341.396	4.2
341.847	4.19
342.299	4.17
342.75	4.16
343.201	4.15
343.653	4.13
344.104	4.11
344.555	4.1
345.006	4.08
345.457	4.07
345.908	4.06
346.359	4.06
346.81	4.04
347.261	4.04
347.712	4.03
348.163	4.01
348.613	4.01
349.064	4.01
349.515	4.01
349.965	4
350.416	3.99
350.866	3.99
351.317	3.99
351.767	4
352.217	3.99
352.668	3.99
353.118	3.99
353.568	3.99
354.018	3.99
354.468	3.99
354.918	3.99
355.368	3.99
355.818	4
356.268	4
356.718	4
357.168	4
357.617	4
358.067	3.99
358.517	4.01
358.966	4.01
359.416	4
359.865	4
360.315	4
360.764	4.01
361.213	4.01
361.663	4.01
362.112	4.02
362.561	4.03
363.01	4.04
363.459	4.02
363.908	4.02
364.357	4.03
364.806	4.03
365.255	4.05
365.703	4.06
366.152	4.07
366.601	4.08
367.05	4.09
367.498	4.1
367.947	4.11
368.395	4.13
368.844	4.16
369.292	4.17
369.74	4.19
370.189	4.2
370.637	4.2
371.085	4.21
371.533	4.22
371.981	4.24
372.429	4.26
372.877	4.29
373.325	4.31
373.773	4.32
374.221	4.33
374.669	4.36
375.116	4.37
375.564	4.38
376.012	4.41
376.459	4.43
376.907	4.46
377.354	4.47
377.801	4.49
378.249	4.52
378.696	4.55
379.143	4.58
379.591	4.6
380.038	4.63
380.485	4.67
380.932	4.7
381.379	4.73
381.826	4.77
382.273	4.8
382.72	4.82
383.166	4.85
383.613	4.88
384.06	4.9
384.506	4.93
384.953	4.96
385.4	4.98
385.846	5.01
386.292	5.04
386.739	5.07
387.185	5.09
387.631	5.13
388.078	5.16
388.524	5.19
388.97	5.22
389.416	5.25
389.862	5.28
390.308	5.32
390.754	5.37
391.2	5.4
391.645	5.43
392.091	5.47
392.537	5.51
392.983	5.54
393.428	5.57
393.874	5.6
394.319	5.63
394.765	5.66
395.21	5.67
395.655	5.68
396.101	5.71
396.546	5.73
396.991	5.75
397.436	5.76
397.881	5.79
398.326	5.81
398.771	5.83
399.216	5.86
399.661	5.88
400.106	5.9
400.551	5.91
400.995	5.91
401.44	5.92
401.885	5.93
402.329	5.94
402.774	5.94
403.218	5.96
403.663	5.97
404.107	5.96
404.551	5.96
404.995	5.96
405.44	5.97
405.884	5.99
406.328	6
406.772	5.99
407.216	6
407.66	6.01
408.104	5.99
408.547	5.99
408.991	6.01
409.435	6
409.879	6
410.322	6.01
410.766	6.01
411.209	6.02
411.653	6.04
412.096	6.04
412.54	6.05
412.983	6.05
413.426	6.09
413.869	6.11
414.312	6.14
414.756	6.15
415.199	6.15
415.642	6.15
416.085	6.16
416.527	6.16
416.97	6.16
417.413	6.15
417.856	6.15
418.298	6.12
418.741	6.1
419.184	6.08
419.626	6.07
420.069	6.07
420.511	6.07
420.953	6.05
421.396	6.05
421.838	6.05
422.28	6.04
422.722	6.06
423.164	6.05
423.606	6.06
424.048	6.06
424.49	6.06
424.932	6.06
425.374	6.03
425.816	6
426.258	5.99
426.699	5.97
427.141	5.96
427.582	5.96
428.024	5.97
428.465	5.97
428.907	5.96
429.348	5.94
429.789	5.94
430.231	5.95
430.672	5.97
431.113	5.98
431.554	5.99
431.995	5.98
432.436	5.97
432.877	5.96
433.318	5.95
433.759	5.98
434.2	5.99
434.64	6
435.081	6.01
435.522	6.04
435.962	6.05
436.403	6.08
436.843	6.1
437.284	6.11
437.724	6.11
438.164	6.13
438.604	6.12
439.045	6.14
439.485	6.14
439.925	6.15
440.365	6.16
440.805	6.17
441.245	6.18
441.685	6.21
442.125	6.23
442.564	6.25
443.004	6.26
443.444	6.29
443.883	6.31
444.323	6.32
444.762	6.35
445.202	6.36
445.641	6.37
446.081	6.4
446.52	6.41
446.959	6.44
447.398	6.48
447.837	6.51
448.276	6.54
448.716	6.57
449.154	6.6
449.593	6.61
450.032	6.62
450.471	6.62
450.91	6.62
451.349	6.64
451.787	6.63
452.226	6.63
452.664	6.63
453.103	6.62
453.541	6.61
453.98	6.63
454.418	6.61
454.856	6.61
455.295	6.61
455.733	6.57
456.171	6.57
456.609	6.57
457.047	6.54
457.485	6.53
457.923	6.52
458.361	6.5
458.798	6.48
459.236	6.47
459.674	6.46
460.111	6.46
460.549	6.48
460.987	6.47
461.424	6.48
461.862	6.49
462.299	6.5
462.736	6.49
463.173	6.49
463.611	6.5
464.048	6.5
464.485	6.51
464.922	6.5
465.359	6.51
465.796	6.51
466.233	6.5
466.67	6.49
467.106	6.5
467.543	6.51
467.98	6.51
468.416	6.52
468.853	6.53
469.29	6.54
469.726	6.55
470.162	6.54
470.599	6.54
471.035	6.53
471.471	6.54
471.907	6.53
472.344	6.53
472.78	6.52
473.216	6.5
473.652	6.5
474.088	6.48
474.523	6.48
474.959	6.49
475.395	6.48
475.831	6.49
476.266	6.49
476.702	6.48
477.138	6.48
477.573	6.48
478.008	6.49
478.444	6.48
478.879	6.49
479.314	6.48
479.75	6.49
480.185	6.48
480.62	6.48
481.055	6.47
481.49	6.47
481.925	6.46
482.36	6.46
482.795	6.46
483.229	6.45
483.664	6.46
484.099	6.47
484.534	6.45
484.968	6.47
485.403	6.47
485.837	6.49
486.271	6.51
486.706	6.53
487.14	6.54
487.574	6.57
488.009	6.6
488.443	6.62
488.877	6.65
489.311	6.69
489.745	6.72
490.179	6.77
490.613	6.82
491.046	6.85
491.48	6.9
491.914	6.96
492.348	7.02
492.781	7.07
493.215	7.14
493.648	7.2
494.082	7.26
494.515	7.33
494.948	7.39
495.382	7.46
495.815	7.54
496.248	7.62
496.681	7.72
497.114	7.8
497.547	7.9
497.98	7.99
498.413	8.1
498.846	8.21
499.279	8.32
499.711	8.44
500.144	8.57
500.577	8.7
501.009	8.84
501.442	8.96
501.874	9.1
502.306	9.24
502.739	9.41
503.171	9.56
503.603	9.71
504.036	9.89
504.468	10.06
504.9	10.22
505.332	10.39
505.764	10.59
506.196	10.78
506.627	10.98
507.059	11.19
507.491	11.39
507.923	11.61
508.354	11.84
508.786	12.08
509.217	12.33
509.649	12.59
510.08	12.84
510.512	13.09
510.943	13.35
511.374	13.61
511.805	13.87
512.237	14.13
512.668	14.41
513.099	14.69
513.53	14.96
513.961	15.22
514.391	15.5
514.822	15.8
515.253	16.09
515.684	16.38
516.114	16.68
516.545	16.97
516.975	17.26
517.406	17.54
517.836	17.82
518.267	18.12
518.697	18.4
519.127	18.66
519.558	18.95
519.988	19.21
520.418	19.49
520.848	19.74
521.278	20.01
521.708	20.4
522.138	20.66
522.567	20.92
522.997	21.16
523.427	21.4
523.857	21.64
524.286	21.84
524.716	22.08
525.145	22.3
525.575	22.53
526.004	22.74
526.433	22.81
526.863	22.99
527.292	23.19
527.721	23.36
528.15	23.53
528.579	23.68
529.008	23.86
529.437	24
529.866	24.12
530.295	24.26
530.724	24.37
531.152	24.5
531.581	24.62
532.01	24.72
532.438	24.83
532.867	24.94
533.295	25.04
533.723	25.12
534.152	25.2
534.58	25.29
535.008	25.35
535.436	25.42
535.865	25.46
536.293	25.51
536.721	25.55
537.149	25.59
537.576	25.63
538.004	25.69
538.432	25.72
538.86	25.77
539.287	25.79
539.715	25.83
540.143	25.87
540.57	25.92
540.998	25.95
541.425	26
541.852	26.03
542.28	26.06
542.707	26.08
543.134	26.09
543.561	26.12
543.988	26.16
544.415	26.18
544.842	26.2
545.269	26.23
545.696	26.26
546.123	26.28
546.549	26.31
546.976	26.35
547.403	26.38
547.829	26.4
548.256	26.44
548.682	26.45
549.108	26.49
549.535	26.51
549.961	26.53
550.387	26.54
550.813	26.55
551.24	26.56
551.666	26.56
552.092	26.55
552.518	26.55
552.943	26.54
553.369	26.54
553.795	26.51
554.221	26.49
554.646	26.45
555.072	26.44
555.498	26.4
555.923	26.35
556.349	26.29
556.774	26.24
557.199	26.19
557.625	26.13
558.05	26.07
558.475	26
558.9	25.94
559.325	25.88
559.75	25.79
560.175	25.71
560.6	25.63
561.025	25.57
561.449	25.47
561.874	25.38
562.299	25.27
562.723	25.15
563.148	25.03
563.572	24.91
563.997	24.78
564.421	24.65
564.846	24.52
565.27	24.39
565.694	24.23
566.118	24.09
566.542	23.95
566.966	23.8
567.39	23.66
567.814	23.51
568.238	23.36
568.662	23.22
569.086	23.08
569.509	22.93
569.933	22.78
570.357	22.63
570.78	22.5
571.204	22.36
571.627	22.23
572.05	22.09
572.474	21.97
572.897	21.84
573.32	21.71
573.743	21.58
574.166	21.46
574.589	21.34
575.012	21.23
575.435	21.1
575.858	20.98
576.281	20.86
576.704	20.75
577.126	20.63
577.549	20.53
577.972	20.42
578.394	20.33
578.817	20.26
579.239	20.19
579.661	20.12
580.084	20.03
580.506	19.97
580.928	19.9
581.35	19.82
581.772	19.75
582.194	19.68
582.616	19.63
583.038	19.56
583.46	19.48
583.882	19.41
584.303	19.33
584.725	19.26
585.147	19.2
585.568	19.14
585.99	19.09
586.411	19.04
586.833	18.98
587.254	18.92
587.675	18.86
588.096	18.8
588.518	18.73
588.939	18.69
589.36	18.65
589.781	18.59
590.202	18.56
590.623	18.51
591.043	18.46
591.464	18.42
591.885	18.37
592.305	18.34
592.726	18.3
593.147	18.29
593.567	18.25
593.987	18.22
594.408	18.19
594.828	18.14
595.248	18.11
595.669	18.09
596.089	18.07
596.509	18.04
596.929	18
597.349	17.97
597.769	17.94
598.189	17.9
598.608	17.86
599.028	17.83
599.448	17.79
599.867	17.74
600.287	17.7
600.706	17.66
601.126	17.62
601.545	17.58
601.965	17.54
602.384	17.49
602.803	17.44
603.222	17.37
603.641	17.31
604.061	17.25
604.48	17.19
604.898	17.11
605.317	17.05
605.736	16.98
606.155	16.91
606.574	16.83
606.992	16.74
607.411	16.66
607.829	16.56
608.248	16.49
608.666	16.4
609.085	16.34
609.503	16.26
609.921	16.18
610.339	16.1
610.758	16.02
611.176	15.93
611.594	15.86
612.012	15.79
612.43	15.73
612.847	15.65
613.265	15.58
613.683	15.5
614.101	15.43
614.518	15.35
614.936	15.28
615.353	15.2
615.771	15.14
616.188	15.08
616.606	15.02
617.023	14.96
617.44	14.91
617.857	14.85
618.274	14.79
618.691	14.74
619.108	14.69
619.525	14.64
619.942	14.61
620.359	14.57
620.776	14.52
621.192	14.5
621.609	14.46
622.026	14.42
622.442	14.41
622.859	14.39
623.275	14.37
623.691	14.34
624.108	14.33
624.524	14.31
624.94	14.29
625.356	14.27
625.772	14.25
626.188	14.24
626.604	14.23
627.02	14.21
627.436	14.2
627.852	14.18
628.268	14.18
628.683	14.17
629.099	14.14
629.514	14.13
629.93	14.12
630.345	14.11
630.761	14.07
631.176	14.02
631.591	13.99
632.007	13.95
632.422	13.91
632.837	13.85
633.252	13.77
633.667	13.72
634.082	13.64
634.497	13.57
634.911	13.47
635.326	13.4
635.741	13.32
636.155	13.23
636.57	13.13
636.984	13.02
637.399	12.92
637.813	12.81
638.228	12.69
638.642	12.58
639.056	12.44
639.47	12.34
639.884	12.22
640.298	12.1
640.712	11.97
641.126	11.85
641.54	11.72
641.954	11.6
642.368	11.48
642.781	11.36
643.195	11.24
643.609	11.12
644.022	11
644.436	10.89
644.849	10.77
645.262	10.67
645.676	10.57
646.089	10.48
646.502	10.41
646.915	10.34
647.328	10.27
647.741	10.21
648.154	10.15
648.567	10.09
648.98	10.02
649.393	9.99
649.805	9.94
650.218	9.88
650.631	9.83
651.043	9.77
651.456	9.73
651.868	9.67
652.28	9.62
652.693	9.58
653.105	9.54
653.517	9.49
653.929	9.42
654.341	9.35
654.753	9.28
655.165	9.21
655.577	9.13
655.989	9.06
656.401	8.98
656.813	8.91
657.224	8.81
657.636	8.72
658.047	8.61
658.459	8.52
658.87	8.42
659.282	8.31
659.693	8.21
660.104	8.1
660.515	8
660.926	7.9
661.338	7.8
661.749	7.7
662.159	7.6
662.57	7.53
662.981	7.45
663.392	7.37
663.803	7.3
664.213	7.23
664.624	7.16
665.035	7.09
665.445	7.04
665.855	6.98
666.266	6.94
666.676	6.9
667.086	6.84
667.497	6.8
667.907	6.76
668.317	6.73
668.727	6.71
669.137	6.7
669.547	6.68
669.956	6.65
670.366	6.64
670.776	6.63
671.186	6.62
671.595	6.62
672.005	6.61
672.414	6.62
672.824	6.63
673.233	6.64
673.642	6.65
674.052	6.66
674.461	6.67
674.87	6.69
675.279	6.71
675.688	6.73
676.097	6.77
676.506	6.8
676.915	6.84
677.323	6.88
677.732	6.91
678.141	6.95
678.549	7
678.958	7.06
679.366	7.13
679.775	7.19
680.183	7.28
680.592	7.38
681	7.48
681.408	7.59
681.816	7.71
682.224	7.86
682.632	8.01
683.04	8.18
683.448	8.37
683.856	8.57
684.264	8.79
684.671	9.03
685.079	9.28
685.487	9.57
685.894	9.88
686.302	10.23
686.709	10.58
687.116	10.96
687.524	11.36
687.931	11.78
688.338	12.22
688.745	12.7
689.152	13.16
689.559	13.66
689.966	14.17
690.373	14.7
690.78	15.22
691.187	15.75
691.593	16.31
692	16.87
692.407	17.43
692.813	18
693.22	18.55
693.626	19.12
694.032	19.7
694.439	20.25
694.845	20.82
695.251	21.38
695.657	21.94
696.063	22.5
696.469	23.05
696.875	23.61
697.281	24.16
697.687	24.71
698.093	25.25
698.498	25.77
698.904	26.3
699.31	26.79
699.715	27.27
700.12	27.76
700.526	28.22
700.931	28.67
701.337	29.09
701.742	29.5
702.147	29.91
702.552	30.33
702.957	30.73
703.362	31.11
703.767	31.47
704.172	31.86
704.577	32.23
704.981	32.6
705.386	32.95
705.791	33.31
706.195	33.67
706.6	34.02
707.004	34.34
707.408	34.69
707.813	35.04
708.217	35.38
708.621	35.7
709.025	36.01
709.43	36.29
709.834	36.61
710.237	36.89
710.641	37.18
711.045	37.44
711.449	37.74
711.853	38
712.256	38.24
712.66	38.5
713.064	38.73
713.467	38.98
713.87	39.26
714.274	39.49
714.677	39.71
715.08	39.94
715.484	40.19
715.887	40.42
716.29	40.61
716.693	40.84
717.096	41.04
717.499	41.26
717.901	41.47
718.304	41.66
718.707	41.86
719.109	42.05
719.512	42.23
719.915	42.39
720.317	42.53
720.719	42.7
721.122	42.85
721.524	43
721.926	43.15
722.328	43.29
722.731	43.43
723.133	43.57
723.535	43.7
723.937	43.85
724.338	44
724.74	44.14
725.142	44.33
725.544	44.43
725.945	44.58
726.347	44.65
726.748	44.77
727.15	44.87
727.551	44.97
727.952	45.08
728.354	45.16
728.755	45.22
729.156	45.31
729.557	45.33
729.958	45.4
730.359	45.47
730.76	45.58
731.161	45.64
731.562	45.73
731.962	45.78
732.363	45.86
732.763	45.93
733.164	46
733.564	46.07
733.965	46.14
734.365	46.23
734.766	46.29
735.166	46.37
735.566	46.42
735.966	46.47
736.366	46.51
736.766	46.53
737.166	46.58
737.566	46.63
737.966	46.65
738.365	46.68
738.765	46.69
739.165	46.73
739.564	46.74
739.964	46.76
740.363	46.79
740.763	46.83
741.162	46.85
741.561	46.86
741.96	46.87
742.36	46.89
742.759	46.91
743.158	46.95
743.557	46.94
743.955	46.97
744.354	47
744.753	47.02
745.152	47.06
745.55	47.1
745.949	47.15
746.348	47.19
746.746	47.21
747.144	47.24
747.543	47.24
747.941	47.29
748.339	47.3
748.737	47.3
749.136	47.32
749.534	47.29
749.932	47.31
750.33	47.29
750.727	47.29
751.125	47.3
751.523	47.28
751.921	47.29
752.318	47.27
752.716	47.27
753.113	47.26
753.511	47.26
753.908	47.28
754.305	47.26
754.703	47.25
755.1	47.25
755.497	47.24
755.894	47.22
756.291	47.23
756.688	47.2
757.085	47.19
757.482	47.18
757.878	47.17
758.275	47.16
758.672	47.16
759.068	47.16
759.465	47.16
759.861	47.16
760.258	47.15
760.654	47.14
761.05	47.15
761.447	47.16
761.843	47.17
762.239	47.16
762.635	47.15
763.031	47.14
763.427	47.12
763.822	47.14
764.218	47.14
764.614	47.17
765.01	47.15
765.405	47.14
765.801	47.11
766.196	47.11
766.592	47.13
766.987	47.14
767.382	47.14
767.778	47.14
768.173	47.14
768.568	47.12
768.963	47.11
769.358	47.15
769.753	47.18
770.148	47.17
770.542	47.18
770.937	47.17
771.332	47.17
771.726	47.18
772.121	47.19
772.515	47.19
772.91	47.19
773.304	47.22
773.699	47.21
774.093	47.22
774.487	47.23
774.881	47.24
775.275	47.24
775.669	47.21
776.063	47.23
776.457	47.26
776.851	47.22
777.245	47.23
777.638	47.2
778.032	47.22
778.425	47.23
778.819	47.23
779.212	47.24
779.606	47.26
779.999	47.28
780.392	47.3
780.786	47.26
781.179	47.31
781.572	47.34
781.965	47.36
782.358	47.35
782.751	47.33
