Data from C_3_DEC_ON_6N_Splice17_14-23-53-344.txt Node
Date: Sat Mar 07 14:23:53 EST 2020
User: sa697716
Spectrometer: NQ5500242
Trigger mode: 0
Integration Time (sec): 1.450000E-1
Scans to average: 20
Nonlinearity correction enabled: false
Boxcar width: 5
Storing dark spectrum: false
XAxis mode: Wavelengths
Number of Pixels in Spectrum: 512
>>>>>Begin Spectral Data<<<<<
187.83	170.67
188.298	195.69
188.766	175.36
189.233	154.22
189.701	147.92
190.169	168.25
190.636	153.09
191.104	188.41
191.571	120.85
192.039	171.43
192.506	-209.45
192.974	109.44
193.441	332.55
193.908	164.34
194.375	135.95
194.842	43.08
195.31	63.08
195.777	-71.9
196.244	59.97
196.711	64.82
197.177	65.72
197.644	65.49
198.111	64.79
198.578	64.98
199.045	65.43
199.511	65.55
199.978	65.83
200.445	65.84
200.911	65.88
201.378	65.96
201.844	65.84
202.31	65.69
202.777	65.41
203.243	65.59
203.709	65.06
204.176	64.47
204.642	63.9
205.108	63.52
205.574	63.11
206.04	62.48
206.506	61.83
206.972	61.59
207.438	60.92
207.903	60.34
208.369	58.75
208.835	57.44
209.301	56.09
209.766	54.38
210.232	52.88
210.697	51.28
211.163	50.06
211.628	48.61
212.094	47.03
212.559	45.74
213.024	44.31
213.49	43.43
213.955	42.32
214.42	41.3
214.885	40.13
215.35	38.4
215.815	36.24
216.28	33.43
216.745	30.41
217.21	27.2
217.675	24.36
218.14	21.91
218.604	19.75
219.069	17.89
219.534	16.33
219.998	15.01
220.463	13.94
220.927	13.01
221.392	12.27
221.856	11.66
222.32	11.22
222.785	10.78
223.249	10.4
223.713	10.06
224.177	9.77
224.642	9.48
225.106	9.21
225.57	8.95
226.034	8.74
226.497	8.55
226.961	8.35
227.425	8.16
227.889	8
228.353	7.81
228.816	7.64
229.28	7.49
229.744	7.36
230.207	7.23
230.671	7.11
231.134	6.98
231.597	6.87
232.061	6.76
232.524	6.64
232.987	6.53
233.45	6.46
233.914	6.37
234.377	6.27
234.84	6.18
235.303	6.11
235.766	6.05
236.229	5.98
236.691	5.9
237.154	5.83
237.617	5.77
238.08	5.72
238.542	5.65
239.005	5.61
239.468	5.55
239.93	5.5
240.393	5.45
240.855	5.39
241.317	5.33
241.78	5.28
242.242	5.22
242.704	5.18
243.166	5.12
243.629	5.08
244.091	5.02
244.553	4.97
245.015	4.92
245.477	4.87
245.939	4.83
246.4	4.79
246.862	4.75
247.324	4.72
247.786	4.67
248.247	4.61
248.709	4.56
249.17	4.51
249.632	4.48
250.093	4.45
250.555	4.41
251.016	4.38
251.477	4.34
251.939	4.31
252.4	4.28
252.861	4.25
253.322	4.24
253.783	4.21
254.244	4.2
254.705	4.17
255.166	4.15
255.627	4.12
256.088	4.1
256.549	4.08
257.009	4.04
257.47	4.01
257.931	3.98
258.391	3.94
258.852	3.91
259.312	3.87
259.773	3.84
260.233	3.81
260.694	3.78
261.154	3.75
261.614	3.72
262.074	3.69
262.534	3.66
262.994	3.63
263.455	3.61
263.915	3.58
264.374	3.56
264.834	3.54
265.294	3.51
265.754	3.5
266.214	3.47
266.673	3.46
267.133	3.44
267.593	3.43
268.052	3.41
268.512	3.4
268.971	3.38
269.431	3.37
269.89	3.36
270.349	3.35
270.809	3.33
271.268	3.32
271.727	3.31
272.186	3.3
272.645	3.29
273.104	3.29
273.563	3.27
274.022	3.27
274.481	3.27
274.94	3.26
275.399	3.26
275.857	3.25
276.316	3.25
276.775	3.25
277.233	3.24
277.692	3.24
278.15	3.23
278.609	3.23
279.067	3.23
279.525	3.22
279.984	3.22
280.442	3.21
280.9	3.21
281.358	3.21
281.816	3.21
282.274	3.2
282.732	3.2
283.19	3.2
283.648	3.2
284.106	3.2
284.564	3.2
285.021	3.21
285.479	3.21
285.937	3.2
286.394	3.2
286.852	3.2
287.309	3.2
287.767	3.19
288.224	3.18
288.682	3.17
289.139	3.16
289.596	3.14
290.053	3.13
290.511	3.1
290.968	3.09
291.425	3.08
291.882	3.07
292.339	3.05
292.796	3.04
293.252	3.03
293.709	3.02
294.166	3.02
294.623	3.01
295.079	3
295.536	3
295.992	2.99
296.449	2.99
296.905	2.98
297.362	2.98
297.818	2.97
298.274	2.97
298.731	2.96
299.187	2.96
299.643	2.95
300.099	2.95
300.555	2.94
301.011	2.94
301.467	2.94
301.923	2.93
302.379	2.93
302.835	2.94
303.291	2.93
303.746	2.94
304.202	2.94
304.658	2.95
305.113	2.94
305.569	2.95
306.024	2.96
306.479	2.96
306.935	2.96
307.39	2.96
307.845	2.97
308.301	2.98
308.756	2.98
309.211	2.98
309.666	2.99
310.121	2.99
310.576	2.99
311.031	3
311.486	3
311.94	3.01
312.395	3.01
312.85	3.01
313.305	3.02
313.759	3.03
314.214	3.03
314.668	3.02
315.123	3.03
315.577	3.03
316.032	3.03
316.486	3.03
316.94	3.03
317.394	3.02
317.849	3
318.303	2.99
318.757	2.97
319.211	2.97
319.665	2.96
320.119	2.94
320.572	2.93
321.026	2.92
321.48	2.91
321.934	2.89
322.387	2.89
322.841	2.88
323.295	2.88
323.748	2.89
324.202	2.89
324.655	2.89
325.108	2.9
325.562	2.9
326.015	2.91
326.468	2.91
326.921	2.91
327.374	2.92
327.827	2.93
328.28	2.92
328.733	2.92
329.186	2.92
329.639	2.92
330.092	2.92
330.545	2.92
330.997	2.92
331.45	2.93
331.903	2.94
332.355	2.94
332.808	2.94
333.26	2.96
333.713	2.95
334.165	2.96
334.617	2.97
335.069	2.96
335.522	2.98
335.974	2.99
336.426	2.99
336.878	2.98
337.33	2.98
337.782	2.99
338.234	2.98
338.686	2.99
339.137	3
339.589	2.99
340.041	2.99
340.493	2.98
340.944	2.96
341.396	2.96
341.847	2.95
342.299	2.93
342.75	2.92
343.201	2.9
343.653	2.9
344.104	2.87
344.555	2.86
345.006	2.85
345.457	2.84
345.908	2.83
346.359	2.82
346.81	2.82
347.261	2.82
347.712	2.82
348.163	2.81
348.613	2.81
349.064	2.81
349.515	2.81
349.965	2.82
350.416	2.81
350.866	2.81
351.317	2.82
351.767	2.82
352.217	2.82
352.668	2.82
353.118	2.83
353.568	2.82
354.018	2.83
354.468	2.84
354.918	2.84
355.368	2.85
355.818	2.85
356.268	2.85
356.718	2.86
357.168	2.85
357.617	2.86
358.067	2.86
358.517	2.88
358.966	2.88
359.416	2.88
359.865	2.88
360.315	2.89
360.764	2.9
361.213	2.9
361.663	2.9
362.112	2.92
362.561	2.92
363.01	2.93
363.459	2.92
363.908	2.92
364.357	2.92
364.806	2.92
365.255	2.92
365.703	2.93
366.152	2.93
366.601	2.94
367.05	2.94
367.498	2.94
367.947	2.95
368.395	2.96
368.844	2.97
369.292	2.97
369.74	2.98
370.189	2.98
370.637	2.98
371.085	2.97
371.533	2.98
371.981	2.98
372.429	2.99
372.877	2.99
373.325	2.99
373.773	2.99
374.221	3
374.669	3
375.116	3.01
375.564	3.01
376.012	3.03
376.459	3.03
376.907	3.04
377.354	3.06
377.801	3.07
378.249	3.08
378.696	3.08
379.143	3.1
379.591	3.11
380.038	3.12
380.485	3.14
380.932	3.14
381.379	3.16
381.826	3.16
382.273	3.17
382.72	3.17
383.166	3.18
383.613	3.19
384.06	3.19
384.506	3.2
384.953	3.21
385.4	3.22
385.846	3.25
386.292	3.26
386.739	3.28
387.185	3.29
387.631	3.32
388.078	3.34
388.524	3.35
388.97	3.38
389.416	3.39
389.862	3.42
390.308	3.44
390.754	3.46
391.2	3.48
391.645	3.5
392.091	3.52
392.537	3.55
392.983	3.57
393.428	3.6
393.874	3.63
394.319	3.66
394.765	3.69
395.21	3.71
395.655	3.73
396.101	3.77
396.546	3.8
396.991	3.84
397.436	3.87
397.881	3.92
398.326	3.95
398.771	3.99
399.216	4.02
399.661	4.07
400.106	4.1
400.551	4.12
400.995	4.13
401.44	4.15
401.885	4.17
402.329	4.19
402.774	4.21
403.218	4.24
403.663	4.27
404.107	4.3
404.551	4.31
404.995	4.33
405.44	4.35
405.884	4.39
406.328	4.43
406.772	4.46
407.216	4.49
407.66	4.53
408.104	4.54
408.547	4.55
408.991	4.56
409.435	4.59
409.879	4.62
410.322	4.65
410.766	4.68
411.209	4.71
411.653	4.74
412.096	4.77
412.54	4.79
412.983	4.81
413.426	4.86
413.869	4.89
414.312	4.93
414.756	4.96
415.199	4.99
415.642	5.02
416.085	5.02
416.527	5.03
416.97	5.02
417.413	5.01
417.856	5.01
418.298	5
418.741	5
419.184	5
419.626	5
420.069	5
420.511	5
420.953	5.01
421.396	5.03
421.838	5.05
422.28	5.09
422.722	5.12
423.164	5.15
423.606	5.17
424.048	5.18
424.49	5.18
424.932	5.18
425.374	5.15
425.816	5.11
426.258	5.07
426.699	5.05
427.141	5.03
427.582	5.04
428.024	5.05
428.465	5.07
428.907	5.08
429.348	5.07
429.789	5.08
430.231	5.13
430.672	5.19
431.113	5.28
431.554	5.35
431.995	5.41
432.436	5.44
432.877	5.48
433.318	5.5
433.759	5.56
434.2	5.62
434.64	5.68
435.081	5.73
435.522	5.77
435.962	5.79
436.403	5.84
436.843	5.87
437.284	5.89
437.724	5.9
438.164	5.92
438.604	5.94
439.045	5.97
439.485	6
439.925	6.01
440.365	6.03
440.805	6.03
441.245	6.04
441.685	6.06
442.125	6.09
442.564	6.12
443.004	6.15
443.444	6.17
443.883	6.19
444.323	6.19
444.762	6.23
445.202	6.26
445.641	6.29
446.081	6.32
446.52	6.33
446.959	6.36
447.398	6.38
447.837	6.39
448.276	6.39
448.716	6.41
449.154	6.45
449.593	6.46
450.032	6.46
450.471	6.45
450.91	6.43
451.349	6.42
451.787	6.39
452.226	6.38
452.664	6.37
453.103	6.34
453.541	6.31
453.98	6.28
454.418	6.24
454.856	6.2
455.295	6.17
455.733	6.12
456.171	6.1
456.609	6.07
457.047	6.04
457.485	6.03
457.923	6.03
458.361	6.02
458.798	6.02
459.236	6.02
459.674	6.01
460.111	6.01
460.549	6.04
460.987	6.05
461.424	6.07
461.862	6.07
462.299	6.09
462.736	6.09
463.173	6.11
463.611	6.12
464.048	6.13
464.485	6.17
464.922	6.2
465.359	6.23
465.796	6.25
466.233	6.28
466.67	6.31
467.106	6.34
467.543	6.37
467.98	6.4
468.416	6.42
468.853	6.44
469.29	6.44
469.726	6.46
470.162	6.48
470.599	6.49
471.035	6.5
471.471	6.5
471.907	6.5
472.344	6.5
472.78	6.51
473.216	6.52
473.652	6.52
474.088	6.52
474.523	6.52
474.959	6.5
475.395	6.49
475.831	6.49
476.266	6.5
476.702	6.48
477.138	6.48
477.573	6.47
478.008	6.46
478.444	6.43
478.879	6.41
479.314	6.39
479.75	6.37
480.185	6.32
480.62	6.28
481.055	6.21
481.49	6.15
481.925	6.08
482.36	6.02
482.795	5.97
483.229	5.93
483.664	5.91
484.099	5.88
484.534	5.85
484.968	5.85
485.403	5.84
485.837	5.86
486.271	5.88
486.706	5.88
487.14	5.9
487.574	5.9
488.009	5.9
488.443	5.89
488.877	5.91
489.311	5.92
489.745	5.94
490.179	5.96
490.613	5.97
491.046	5.98
491.48	6.01
491.914	6.04
492.348	6.07
492.781	6.12
493.215	6.16
493.648	6.2
494.082	6.23
494.515	6.25
494.948	6.28
495.382	6.33
495.815	6.37
496.248	6.41
496.681	6.45
497.114	6.5
497.547	6.54
497.98	6.59
498.413	6.64
498.846	6.7
499.279	6.76
499.711	6.83
500.144	6.9
500.577	6.98
501.009	7.07
501.442	7.16
501.874	7.25
502.306	7.35
502.739	7.46
503.171	7.57
503.603	7.67
504.036	7.78
504.468	7.89
504.9	8.01
505.332	8.14
505.764	8.27
506.196	8.41
506.627	8.55
507.059	8.7
507.491	8.85
507.923	9
508.354	9.17
508.786	9.34
509.217	9.52
509.649	9.7
510.08	9.88
510.512	10.07
510.943	10.24
511.374	10.43
511.805	10.62
512.237	10.78
512.668	10.96
513.099	11.14
513.53	11.33
513.961	11.53
514.391	11.73
514.822	11.95
515.253	12.17
515.684	12.4
516.114	12.63
516.545	12.88
516.975	13.16
517.406	13.43
517.836	13.71
518.267	13.98
518.697	14.24
519.127	14.49
519.558	14.76
519.988	15.02
520.418	15.28
520.848	15.53
521.278	15.77
521.708	16.08
522.138	16.29
522.567	16.48
522.997	16.69
523.427	16.91
523.857	17.13
524.286	17.32
524.716	17.51
525.145	17.69
525.575	17.88
526.004	18.09
526.433	18.18
526.863	18.39
527.292	18.59
527.721	18.76
528.15	18.9
528.579	19.03
529.008	19.17
529.437	19.29
529.866	19.41
530.295	19.52
530.724	19.62
531.152	19.72
531.581	19.81
532.01	19.89
532.438	19.97
532.867	20.05
533.295	20.13
533.723	20.21
534.152	20.28
534.58	20.35
535.008	20.39
535.436	20.43
535.865	20.46
536.293	20.5
536.721	20.53
537.149	20.58
537.576	20.62
538.004	20.66
538.432	20.69
538.86	20.73
539.287	20.75
539.715	20.79
540.143	20.84
540.57	20.87
540.998	20.91
541.425	20.95
541.852	20.98
542.28	21.03
542.707	21.06
543.134	21.08
543.561	21.12
543.988	21.16
544.415	21.19
544.842	21.22
545.269	21.26
545.696	21.31
546.123	21.35
546.549	21.38
546.976	21.41
547.403	21.45
547.829	21.47
548.256	21.5
548.682	21.54
549.108	21.59
549.535	21.62
549.961	21.65
550.387	21.67
550.813	21.69
551.24	21.71
551.666	21.72
552.092	21.71
552.518	21.71
552.943	21.68
553.369	21.67
553.795	21.63
554.221	21.58
554.646	21.54
555.072	21.49
555.498	21.44
555.923	21.37
556.349	21.31
556.774	21.25
557.199	21.18
557.625	21.13
558.05	21.05
558.475	20.98
558.9	20.92
559.325	20.84
559.75	20.76
560.175	20.67
560.6	20.58
561.025	20.48
561.449	20.37
561.874	20.25
562.299	20.12
562.723	20.01
563.148	19.86
563.572	19.72
563.997	19.57
564.421	19.43
564.846	19.27
565.27	19.12
565.694	18.97
566.118	18.82
566.542	18.65
566.966	18.49
567.39	18.32
567.814	18.18
568.238	18.03
568.662	17.89
569.086	17.75
569.509	17.62
569.933	17.48
570.357	17.34
570.78	17.2
571.204	17.08
571.627	16.97
572.05	16.85
572.474	16.75
572.897	16.63
573.32	16.52
573.743	16.4
574.166	16.29
574.589	16.18
575.012	16.08
575.435	15.98
575.858	15.89
576.281	15.81
576.704	15.73
577.126	15.64
577.549	15.56
577.972	15.48
578.394	15.41
578.817	15.35
579.239	15.3
579.661	15.23
580.084	15.18
580.506	15.14
580.928	15.07
581.35	15
581.772	14.94
582.194	14.87
582.616	14.81
583.038	14.77
583.46	14.71
583.882	14.64
584.303	14.57
584.725	14.48
585.147	14.41
585.568	14.35
585.99	14.28
586.411	14.22
586.833	14.17
587.254	14.11
587.675	14.05
588.096	14
588.518	13.95
588.939	13.92
589.36	13.9
589.781	13.87
590.202	13.84
590.623	13.82
591.043	13.79
591.464	13.75
591.885	13.71
592.305	13.66
592.726	13.64
593.147	13.6
593.567	13.57
593.987	13.53
594.408	13.49
594.828	13.45
595.248	13.42
595.669	13.39
596.089	13.36
596.509	13.32
596.929	13.28
597.349	13.23
597.769	13.2
598.189	13.15
598.608	13.12
599.028	13.09
599.448	13.05
599.867	13
600.287	12.96
600.706	12.93
601.126	12.89
601.545	12.85
601.965	12.82
602.384	12.78
602.803	12.74
603.222	12.69
603.641	12.64
604.061	12.59
604.48	12.54
604.898	12.47
605.317	12.41
605.736	12.36
606.155	12.3
606.574	12.23
606.992	12.16
607.411	12.1
607.829	12
608.248	11.93
608.666	11.86
609.085	11.8
609.503	11.74
609.921	11.68
610.339	11.6
610.758	11.55
611.176	11.49
611.594	11.42
612.012	11.36
612.43	11.31
612.847	11.25
613.265	11.19
613.683	11.13
614.101	11.08
614.518	11.02
614.936	10.96
615.353	10.9
615.771	10.86
616.188	10.81
616.606	10.77
617.023	10.73
617.44	10.7
617.857	10.65
618.274	10.6
618.691	10.55
619.108	10.52
619.525	10.48
619.942	10.44
620.359	10.41
620.776	10.37
621.192	10.32
621.609	10.3
622.026	10.26
622.442	10.24
622.859	10.21
623.275	10.18
623.691	10.16
624.108	10.14
624.524	10.12
624.94	10.1
625.356	10.09
625.772	10.08
626.188	10.07
626.604	10.05
627.02	10.03
627.436	10.01
627.852	10
628.268	9.98
628.683	9.96
629.099	9.95
629.514	9.94
629.93	9.92
630.345	9.9
630.761	9.87
631.176	9.84
631.591	9.82
632.007	9.79
632.422	9.75
632.837	9.71
633.252	9.67
633.667	9.61
634.082	9.53
634.497	9.46
634.911	9.38
635.326	9.31
635.741	9.24
636.155	9.16
636.57	9.08
636.984	9
637.399	8.9
637.813	8.81
638.228	8.73
638.642	8.64
639.056	8.54
639.47	8.47
639.884	8.39
640.298	8.28
640.712	8.18
641.126	8.08
641.54	7.98
641.954	7.89
642.368	7.8
642.781	7.72
643.195	7.64
643.609	7.56
644.022	7.46
644.436	7.39
644.849	7.31
645.262	7.24
645.676	7.18
646.089	7.12
646.502	7.07
646.915	7.03
647.328	6.98
647.741	6.93
648.154	6.89
648.567	6.86
648.98	6.83
649.393	6.81
649.805	6.79
650.218	6.76
650.631	6.74
651.043	6.7
651.456	6.67
651.868	6.61
652.28	6.58
652.693	6.54
653.105	6.5
653.517	6.46
653.929	6.43
654.341	6.4
654.753	6.36
655.165	6.33
655.577	6.3
655.989	6.28
656.401	6.26
656.813	6.24
657.224	6.21
657.636	6.17
658.047	6.14
658.459	6.09
658.87	6.05
659.282	6.01
659.693	5.97
660.104	5.91
660.515	5.86
660.926	5.81
661.338	5.77
661.749	5.73
662.159	5.69
662.57	5.65
662.981	5.61
663.392	5.57
663.803	5.53
664.213	5.5
664.624	5.48
665.035	5.45
665.445	5.43
665.855	5.4
666.266	5.37
666.676	5.36
667.086	5.33
667.497	5.32
667.907	5.31
668.317	5.3
668.727	5.29
669.137	5.29
669.547	5.28
669.956	5.27
670.366	5.28
670.776	5.27
671.186	5.27
671.595	5.27
672.005	5.26
672.414	5.26
672.824	5.27
673.233	5.28
673.642	5.29
674.052	5.29
674.461	5.31
674.87	5.32
675.279	5.34
675.688	5.37
676.097	5.4
676.506	5.43
676.915	5.45
677.323	5.49
677.732	5.51
678.141	5.55
678.549	5.59
678.958	5.63
679.366	5.68
679.775	5.72
680.183	5.76
680.592	5.82
681	5.87
681.408	5.94
681.816	6
682.224	6.07
682.632	6.14
683.04	6.21
683.448	6.28
683.856	6.36
684.264	6.47
684.671	6.59
685.079	6.72
685.487	6.89
685.894	7.06
686.302	7.26
686.709	7.49
687.116	7.75
687.524	8.04
687.931	8.35
688.338	8.68
688.745	9.02
689.152	9.38
689.559	9.76
689.966	10.15
690.373	10.57
690.78	11
691.187	11.44
691.593	11.88
692	12.33
692.407	12.78
692.813	13.26
693.22	13.75
693.626	14.23
694.032	14.72
694.439	15.23
694.845	15.73
695.251	16.22
695.657	16.7
696.063	17.19
696.469	17.68
696.875	18.17
697.281	18.65
697.687	19.14
698.093	19.63
698.498	20.11
698.904	20.58
699.31	21.05
699.715	21.5
700.12	21.96
700.526	22.42
700.931	22.86
701.337	23.31
701.742	23.74
702.147	24.17
702.552	24.58
702.957	24.99
703.362	25.39
703.767	25.76
704.172	26.15
704.577	26.54
704.981	26.93
705.386	27.29
705.791	27.65
706.195	28
706.6	28.36
707.004	28.69
707.408	29.04
707.813	29.38
708.217	29.71
708.621	30.04
709.025	30.36
709.43	30.65
709.834	30.99
710.237	31.28
710.641	31.57
711.045	31.86
711.449	32.15
711.853	32.43
712.256	32.69
712.66	32.94
713.064	33.2
713.467	33.44
713.87	33.66
714.274	33.86
714.677	34.09
715.08	34.29
715.484	34.51
715.887	34.71
716.29	34.91
716.693	35.15
717.096	35.39
717.499	35.62
717.901	35.85
718.304	36.11
718.707	36.37
719.109	36.6
719.512	36.85
719.915	37.08
720.317	37.28
720.719	37.48
721.122	37.65
721.524	37.81
721.926	37.99
722.328	38.17
722.731	38.3
723.133	38.45
723.535	38.61
723.937	38.76
724.338	38.89
724.74	39.05
725.142	39.22
725.544	39.34
725.945	39.49
726.347	39.61
726.748	39.74
727.15	39.86
727.551	40
727.952	40.09
728.354	40.24
728.755	40.35
729.156	40.48
729.557	40.58
729.958	40.73
730.359	40.83
730.76	40.95
731.161	41.06
731.562	41.17
731.962	41.23
732.363	41.34
732.763	41.41
733.164	41.5
733.564	41.56
733.965	41.63
734.365	41.67
734.766	41.77
735.166	41.8
735.566	41.84
735.966	41.91
736.366	41.97
736.766	41.99
737.166	42.05
737.566	42.08
737.966	42.11
738.365	42.16
738.765	42.22
739.165	42.24
739.564	42.28
739.964	42.32
740.363	42.33
740.763	42.36
741.162	42.4
741.561	42.41
741.96	42.46
742.36	42.49
742.759	42.51
743.158	42.51
743.557	42.51
743.955	42.56
744.354	42.58
744.753	42.64
745.152	42.67
745.55	42.72
745.949	42.77
746.348	42.79
746.746	42.81
747.144	42.85
747.543	42.88
747.941	42.94
748.339	42.93
748.737	42.94
749.136	42.93
749.534	42.92
749.932	42.91
750.33	42.92
750.727	42.92
751.125	42.91
751.523	42.89
751.921	42.9
752.318	42.88
752.716	42.88
753.113	42.88
753.511	42.88
753.908	42.89
754.305	42.86
754.703	42.79
755.1	42.7
755.497	42.57
755.894	42.37
756.291	42.12
756.688	41.87
757.085	41.68
757.482	41.47
757.878	41.27
758.275	41.08
758.672	40.91
759.068	40.77
759.465	40.67
759.861	40.61
760.258	40.65
760.654	40.73
761.05	40.83
761.447	40.92
761.843	41.01
762.239	41.09
762.635	41.17
763.031	41.28
763.427	41.4
763.822	41.53
764.218	41.68
764.614	41.82
765.01	41.92
765.405	42.03
765.801	42.1
766.196	42.19
766.592	42.27
766.987	42.33
767.382	42.35
767.778	42.38
768.173	42.39
768.568	42.41
768.963	42.42
769.358	42.45
769.753	42.45
770.148	42.47
770.542	42.48
770.937	42.49
771.332	42.5
771.726	42.53
772.121	42.53
772.515	42.53
772.91	42.53
773.304	42.51
773.699	42.5
774.093	42.52
774.487	42.51
774.881	42.51
775.275	42.5
775.669	42.47
776.063	42.46
776.457	42.49
776.851	42.46
777.245	42.42
777.638	42.43
778.032	42.42
778.425	42.41
778.819	42.38
779.212	42.38
779.606	42.38
779.999	42.38
780.392	42.36
780.786	42.33
781.179	42.34
781.572	42.39
781.965	42.39
782.358	42.37
782.751	42.37
783.143	42.37
783.536	42.36
783.929	42.33
784.322	42.35
