Data from C_3_DEC_ON_6N_Splice17_14-24-29-164.txt Node
Date: Sat Mar 07 14:24:29 EST 2020
User: sa697716
Spectrometer: NQ5500242
Trigger mode: 0
Integration Time (sec): 1.450000E-1
Scans to average: 20
Nonlinearity correction enabled: false
Boxcar width: 5
Storing dark spectrum: false
XAxis mode: Wavelengths
Number of Pixels in Spectrum: 512
>>>>>Begin Spectral Data<<<<<
187.83	149.05
188.298	152.58
188.766	127.03
189.233	110.11
189.701	124.38
190.169	148.66
190.636	187.43
191.104	287.69
191.571	351.99
192.039	164.47
192.506	202.61
192.974	57.76
193.441	94.88
193.908	4.35
194.375	20.51
194.842	24.98
195.31	39.62
195.777	-26.9
196.244	54.83
196.711	66.33
197.177	69.87
197.644	69.89
198.111	69.38
198.578	68.92
199.045	69.65
199.511	69.82
199.978	70.24
200.445	70.57
200.911	70.67
201.378	70.79
201.844	70.55
202.31	69.84
202.777	69.89
203.243	69.99
203.709	69.81
204.176	69.2
204.642	68.65
205.108	68.12
205.574	67.44
206.04	66.71
206.506	65.94
206.972	65.31
207.438	64.76
207.903	63.91
208.369	62.44
208.835	61.03
209.301	59.57
209.766	57.77
210.232	56.1
210.697	54.53
211.163	53.2
211.628	51.8
212.094	50.57
212.559	49.19
213.024	47.95
213.49	46.91
213.955	45.97
214.42	44.73
214.885	43.58
215.35	41.71
215.815	39.37
216.28	36.61
216.745	33.55
217.21	30.44
217.675	27.58
218.14	24.9
218.604	22.63
219.069	20.67
219.534	19.08
219.998	17.74
220.463	16.75
220.927	15.8
221.392	15.03
221.856	14.4
222.32	13.86
222.785	13.42
223.249	13.02
223.713	12.68
224.177	12.39
224.642	12.13
225.106	11.86
225.57	11.56
226.034	11.35
226.497	11.14
226.961	10.93
227.425	10.71
227.889	10.51
228.353	10.33
228.816	10.13
229.28	9.96
229.744	9.77
230.207	9.61
230.671	9.45
231.134	9.3
231.597	9.16
232.061	9.02
232.524	8.9
232.987	8.79
233.45	8.68
233.914	8.57
234.377	8.45
234.84	8.35
235.303	8.28
235.766	8.19
236.229	8.1
236.691	8.01
237.154	7.93
237.617	7.86
238.08	7.78
238.542	7.69
239.005	7.63
239.468	7.55
239.93	7.49
240.393	7.42
240.855	7.34
241.317	7.28
241.78	7.21
242.242	7.14
242.704	7.07
243.166	7
243.629	6.95
244.091	6.88
244.553	6.83
245.015	6.76
245.477	6.69
245.939	6.63
246.4	6.57
246.862	6.52
247.324	6.46
247.786	6.4
248.247	6.35
248.709	6.28
249.17	6.22
249.632	6.18
250.093	6.14
250.555	6.09
251.016	6.05
251.477	6.01
251.939	5.97
252.4	5.94
252.861	5.9
253.322	5.87
253.783	5.84
254.244	5.82
254.705	5.77
255.166	5.73
255.627	5.7
256.088	5.68
256.549	5.65
257.009	5.61
257.47	5.57
257.931	5.54
258.391	5.49
258.852	5.45
259.312	5.41
259.773	5.37
260.233	5.34
260.694	5.3
261.154	5.26
261.614	5.23
262.074	5.19
262.534	5.16
262.994	5.13
263.455	5.1
263.915	5.08
264.374	5.06
264.834	5.04
265.294	5.02
265.754	5
266.214	4.99
266.673	4.97
267.133	4.96
267.593	4.94
268.052	4.93
268.512	4.92
268.971	4.9
269.431	4.89
269.89	4.87
270.349	4.86
270.809	4.85
271.268	4.84
271.727	4.83
272.186	4.82
272.645	4.82
273.104	4.8
273.563	4.79
274.022	4.78
274.481	4.78
274.94	4.77
275.399	4.76
275.857	4.75
276.316	4.75
276.775	4.74
277.233	4.73
277.692	4.72
278.15	4.72
278.609	4.71
279.067	4.7
279.525	4.7
279.984	4.69
280.442	4.69
280.9	4.68
281.358	4.67
281.816	4.67
282.274	4.66
282.732	4.66
283.19	4.65
283.648	4.66
284.106	4.65
284.564	4.65
285.021	4.64
285.479	4.63
285.937	4.63
286.394	4.63
286.852	4.63
287.309	4.62
287.767	4.61
288.224	4.6
288.682	4.58
289.139	4.57
289.596	4.55
290.053	4.53
290.511	4.52
290.968	4.5
291.425	4.48
291.882	4.47
292.339	4.46
292.796	4.45
293.252	4.44
293.709	4.43
294.166	4.41
294.623	4.4
295.079	4.39
295.536	4.39
295.992	4.38
296.449	4.37
296.905	4.37
297.362	4.36
297.818	4.35
298.274	4.35
298.731	4.33
299.187	4.33
299.643	4.32
300.099	4.32
300.555	4.31
301.011	4.31
301.467	4.3
301.923	4.29
302.379	4.28
302.835	4.28
303.291	4.28
303.746	4.28
304.202	4.29
304.658	4.29
305.113	4.29
305.569	4.29
306.024	4.29
306.479	4.29
306.935	4.29
307.39	4.3
307.845	4.3
308.301	4.3
308.756	4.31
309.211	4.3
309.666	4.31
310.121	4.31
310.576	4.32
311.031	4.32
311.486	4.33
311.94	4.35
312.395	4.35
312.85	4.35
313.305	4.36
313.759	4.36
314.214	4.36
314.668	4.35
315.123	4.35
315.577	4.34
316.032	4.34
316.486	4.33
316.94	4.32
317.394	4.31
317.849	4.29
318.303	4.28
318.757	4.27
319.211	4.26
319.665	4.25
320.119	4.24
320.572	4.23
321.026	4.22
321.48	4.21
321.934	4.2
322.387	4.19
322.841	4.19
323.295	4.18
323.748	4.18
324.202	4.18
324.655	4.17
325.108	4.17
325.562	4.17
326.015	4.17
326.468	4.17
326.921	4.18
327.374	4.18
327.827	4.18
328.28	4.18
328.733	4.18
329.186	4.19
329.639	4.2
330.092	4.2
330.545	4.2
330.997	4.2
331.45	4.21
331.903	4.22
332.355	4.23
332.808	4.24
333.26	4.24
333.713	4.25
334.165	4.24
334.617	4.25
335.069	4.25
335.522	4.27
335.974	4.27
336.426	4.27
336.878	4.26
337.33	4.25
337.782	4.25
338.234	4.25
338.686	4.24
339.137	4.25
339.589	4.24
340.041	4.24
340.493	4.22
340.944	4.21
341.396	4.19
341.847	4.18
342.299	4.16
342.75	4.14
343.201	4.13
343.653	4.12
344.104	4.1
344.555	4.08
345.006	4.07
345.457	4.06
345.908	4.06
346.359	4.06
346.81	4.05
347.261	4.05
347.712	4.05
348.163	4.04
348.613	4.04
349.064	4.04
349.515	4.05
349.965	4.04
350.416	4.03
350.866	4.03
351.317	4.02
351.767	4.03
352.217	4.02
352.668	4.03
353.118	4.04
353.568	4.03
354.018	4.04
354.468	4.04
354.918	4.05
355.368	4.06
355.818	4.06
356.268	4.07
356.718	4.07
357.168	4.07
357.617	4.07
358.067	4.07
358.517	4.08
358.966	4.09
359.416	4.09
359.865	4.08
360.315	4.09
360.764	4.1
361.213	4.08
361.663	4.08
362.112	4.08
362.561	4.09
363.01	4.09
363.459	4.08
363.908	4.08
364.357	4.08
364.806	4.08
365.255	4.08
365.703	4.09
366.152	4.11
366.601	4.13
367.05	4.13
367.498	4.12
367.947	4.13
368.395	4.14
368.844	4.16
369.292	4.16
369.74	4.16
370.189	4.17
370.637	4.16
371.085	4.15
371.533	4.15
371.981	4.15
372.429	4.17
372.877	4.17
373.325	4.17
373.773	4.17
374.221	4.17
374.669	4.17
375.116	4.17
375.564	4.18
376.012	4.2
376.459	4.2
376.907	4.22
377.354	4.23
377.801	4.24
378.249	4.25
378.696	4.26
379.143	4.27
379.591	4.29
380.038	4.29
380.485	4.29
380.932	4.29
381.379	4.3
381.826	4.31
382.273	4.32
382.72	4.33
383.166	4.34
383.613	4.35
384.06	4.35
384.506	4.35
384.953	4.37
385.4	4.39
385.846	4.41
386.292	4.43
386.739	4.43
387.185	4.43
387.631	4.46
388.078	4.46
388.524	4.47
388.97	4.48
389.416	4.51
389.862	4.52
390.308	4.54
390.754	4.56
391.2	4.58
391.645	4.6
392.091	4.63
392.537	4.65
392.983	4.67
393.428	4.7
393.874	4.72
394.319	4.74
394.765	4.76
395.21	4.76
395.655	4.77
396.101	4.79
396.546	4.81
396.991	4.83
397.436	4.83
397.881	4.87
398.326	4.88
398.771	4.91
399.216	4.92
399.661	4.95
400.106	4.97
400.551	4.98
400.995	4.98
401.44	4.99
401.885	4.99
402.329	5.01
402.774	5
403.218	5.03
403.663	5.04
404.107	5.06
404.551	5.05
404.995	5.06
405.44	5.07
405.884	5.08
406.328	5.1
406.772	5.1
407.216	5.12
407.66	5.13
408.104	5.13
408.547	5.13
408.991	5.14
409.435	5.15
409.879	5.15
410.322	5.18
410.766	5.18
411.209	5.19
411.653	5.21
412.096	5.23
412.54	5.23
412.983	5.23
413.426	5.27
413.869	5.28
414.312	5.31
414.756	5.34
415.199	5.34
415.642	5.36
416.085	5.37
416.527	5.37
416.97	5.36
417.413	5.37
417.856	5.37
418.298	5.36
418.741	5.35
419.184	5.34
419.626	5.34
420.069	5.34
420.511	5.34
420.953	5.34
421.396	5.35
421.838	5.36
422.28	5.37
422.722	5.4
423.164	5.4
423.606	5.43
424.048	5.44
424.49	5.45
424.932	5.45
425.374	5.44
425.816	5.43
426.258	5.42
426.699	5.4
427.141	5.37
427.582	5.36
428.024	5.37
428.465	5.37
428.907	5.36
429.348	5.36
429.789	5.36
430.231	5.38
430.672	5.4
431.113	5.43
431.554	5.46
431.995	5.5
432.436	5.51
432.877	5.52
433.318	5.52
433.759	5.54
434.2	5.56
434.64	5.6
435.081	5.62
435.522	5.63
435.962	5.65
436.403	5.67
436.843	5.68
437.284	5.69
437.724	5.71
438.164	5.72
438.604	5.74
439.045	5.74
439.485	5.74
439.925	5.73
440.365	5.74
440.805	5.74
441.245	5.76
441.685	5.76
442.125	5.78
442.564	5.78
443.004	5.79
443.444	5.8
443.883	5.82
444.323	5.81
444.762	5.83
445.202	5.84
445.641	5.86
446.081	5.87
446.52	5.88
446.959	5.9
447.398	5.92
447.837	5.91
448.276	5.93
448.716	5.95
449.154	5.98
449.593	5.99
450.032	6
450.471	5.99
450.91	5.97
451.349	5.99
451.787	5.97
452.226	5.95
452.664	5.95
453.103	5.92
453.541	5.91
453.98	5.89
454.418	5.87
454.856	5.84
455.295	5.83
455.733	5.79
456.171	5.76
456.609	5.75
457.047	5.74
457.485	5.71
457.923	5.71
458.361	5.68
458.798	5.68
459.236	5.65
459.674	5.65
460.111	5.64
460.549	5.65
460.987	5.65
461.424	5.65
461.862	5.65
462.299	5.66
462.736	5.64
463.173	5.65
463.611	5.64
464.048	5.64
464.485	5.65
464.922	5.66
465.359	5.66
465.796	5.66
466.233	5.67
466.67	5.68
467.106	5.68
467.543	5.69
467.98	5.7
468.416	5.71
468.853	5.72
469.29	5.72
469.726	5.72
470.162	5.72
470.599	5.72
471.035	5.71
471.471	5.7
471.907	5.69
472.344	5.69
472.78	5.68
473.216	5.67
473.652	5.67
474.088	5.65
474.523	5.64
474.959	5.65
475.395	5.63
475.831	5.62
476.266	5.63
476.702	5.63
477.138	5.62
477.573	5.63
478.008	5.63
478.444	5.61
478.879	5.61
479.314	5.6
479.75	5.6
480.185	5.59
480.62	5.58
481.055	5.56
481.49	5.54
481.925	5.53
482.36	5.52
482.795	5.51
483.229	5.49
483.664	5.49
484.099	5.47
484.534	5.46
484.968	5.46
485.403	5.45
485.837	5.46
486.271	5.47
486.706	5.47
487.14	5.48
487.574	5.48
488.009	5.5
488.443	5.5
488.877	5.52
489.311	5.53
489.745	5.55
490.179	5.58
490.613	5.6
491.046	5.61
491.48	5.63
491.914	5.65
492.348	5.68
492.781	5.71
493.215	5.74
493.648	5.77
494.082	5.81
494.515	5.83
494.948	5.87
495.382	5.89
495.815	5.94
496.248	5.99
496.681	6.04
497.114	6.09
497.547	6.14
497.98	6.2
498.413	6.25
498.846	6.31
499.279	6.38
499.711	6.44
500.144	6.53
500.577	6.6
501.009	6.67
501.442	6.75
501.874	6.85
502.306	6.94
502.739	7.05
503.171	7.15
503.603	7.26
504.036	7.37
504.468	7.48
504.9	7.59
505.332	7.72
505.764	7.85
506.196	7.99
506.627	8.12
507.059	8.26
507.491	8.4
507.923	8.55
508.354	8.71
508.786	8.88
509.217	9.06
509.649	9.24
510.08	9.42
510.512	9.6
510.943	9.79
511.374	9.98
511.805	10.17
512.237	10.37
512.668	10.58
513.099	10.78
513.53	11
513.961	11.21
514.391	11.43
514.822	11.65
515.253	11.87
515.684	12.09
516.114	12.34
516.545	12.57
516.975	12.81
517.406	13.05
517.836	13.3
518.267	13.54
518.697	13.77
519.127	14
519.558	14.23
519.988	14.47
520.418	14.71
520.848	14.93
521.278	15.16
521.708	15.48
522.138	15.69
522.567	15.89
522.997	16.1
523.427	16.32
523.857	16.51
524.286	16.7
524.716	16.9
525.145	17.08
525.575	17.26
526.004	17.45
526.433	17.51
526.863	17.68
527.292	17.85
527.721	18
528.15	18.13
528.579	18.27
529.008	18.41
529.437	18.53
529.866	18.64
530.295	18.77
530.724	18.88
531.152	18.99
531.581	19.1
532.01	19.2
532.438	19.28
532.867	19.38
533.295	19.46
533.723	19.52
534.152	19.59
534.58	19.67
535.008	19.71
535.436	19.76
535.865	19.81
536.293	19.84
536.721	19.88
537.149	19.93
537.576	19.95
538.004	20
538.432	20.05
538.86	20.09
539.287	20.1
539.715	20.14
540.143	20.18
540.57	20.2
540.998	20.23
541.425	20.27
541.852	20.29
542.28	20.34
542.707	20.36
543.134	20.39
543.561	20.43
543.988	20.47
544.415	20.49
544.842	20.52
545.269	20.56
545.696	20.59
546.123	20.61
546.549	20.63
546.976	20.66
547.403	20.68
547.829	20.7
548.256	20.72
548.682	20.74
549.108	20.77
549.535	20.79
549.961	20.8
550.387	20.82
550.813	20.85
551.24	20.86
551.666	20.86
552.092	20.86
552.518	20.86
552.943	20.86
553.369	20.86
553.795	20.84
554.221	20.82
554.646	20.79
555.072	20.77
555.498	20.73
555.923	20.7
556.349	20.64
556.774	20.6
557.199	20.55
557.625	20.5
558.05	20.43
558.475	20.39
558.9	20.33
559.325	20.29
559.75	20.21
560.175	20.14
560.6	20.05
561.025	19.97
561.449	19.87
561.874	19.78
562.299	19.66
562.723	19.56
563.148	19.44
563.572	19.3
563.997	19.17
564.421	19.05
564.846	18.92
565.27	18.8
565.694	18.67
566.118	18.54
566.542	18.41
566.966	18.28
567.39	18.14
567.814	18.01
568.238	17.87
568.662	17.73
569.086	17.6
569.509	17.46
569.933	17.34
570.357	17.2
570.78	17.07
571.204	16.94
571.627	16.83
572.05	16.7
572.474	16.6
572.897	16.5
573.32	16.38
573.743	16.27
574.166	16.18
574.589	16.07
575.012	15.99
575.435	15.89
575.858	15.81
576.281	15.72
576.704	15.64
577.126	15.55
577.549	15.45
577.972	15.38
578.394	15.3
578.817	15.23
579.239	15.17
579.661	15.09
580.084	15.01
580.506	14.95
580.928	14.88
581.35	14.82
581.772	14.76
582.194	14.71
582.616	14.65
583.038	14.59
583.46	14.53
583.882	14.46
584.303	14.41
584.725	14.36
585.147	14.29
585.568	14.24
585.99	14.18
586.411	14.14
586.833	14.08
587.254	14.04
587.675	14
588.096	13.94
588.518	13.9
588.939	13.87
589.36	13.82
589.781	13.78
590.202	13.75
590.623	13.71
591.043	13.68
591.464	13.65
591.885	13.6
592.305	13.56
592.726	13.55
593.147	13.51
593.567	13.48
593.987	13.44
594.408	13.42
594.828	13.38
595.248	13.34
595.669	13.31
596.089	13.27
596.509	13.25
596.929	13.22
597.349	13.19
597.769	13.16
598.189	13.12
598.608	13.09
599.028	13.05
599.448	13.01
599.867	12.98
600.287	12.95
600.706	12.91
601.126	12.88
601.545	12.84
601.965	12.79
602.384	12.74
602.803	12.7
603.222	12.65
603.641	12.62
604.061	12.57
604.48	12.52
604.898	12.46
605.317	12.41
605.736	12.36
606.155	12.3
606.574	12.24
606.992	12.19
607.411	12.15
607.829	12.08
608.248	12.01
608.666	11.96
609.085	11.91
609.503	11.86
609.921	11.8
610.339	11.74
610.758	11.69
611.176	11.63
611.594	11.58
612.012	11.51
612.43	11.48
612.847	11.42
613.265	11.36
613.683	11.31
614.101	11.25
614.518	11.21
614.936	11.16
615.353	11.1
615.771	11.05
616.188	11
616.606	10.97
617.023	10.92
617.44	10.88
617.857	10.84
618.274	10.79
618.691	10.75
619.108	10.71
619.525	10.69
619.942	10.66
620.359	10.63
620.776	10.61
621.192	10.58
621.609	10.57
622.026	10.54
622.442	10.53
622.859	10.51
623.275	10.51
623.691	10.49
624.108	10.47
624.524	10.45
624.94	10.44
625.356	10.43
625.772	10.42
626.188	10.41
626.604	10.39
627.02	10.38
627.436	10.37
627.852	10.35
628.268	10.34
628.683	10.33
629.099	10.32
629.514	10.3
629.93	10.29
630.345	10.27
630.761	10.24
631.176	10.21
631.591	10.19
632.007	10.15
632.422	10.11
632.837	10.07
633.252	10.02
633.667	9.96
634.082	9.89
634.497	9.83
634.911	9.76
635.326	9.69
635.741	9.62
636.155	9.53
636.57	9.45
636.984	9.36
637.399	9.26
637.813	9.17
638.228	9.07
638.642	8.98
639.056	8.86
639.47	8.76
639.884	8.67
640.298	8.57
640.712	8.46
641.126	8.36
641.54	8.26
641.954	8.17
642.368	8.07
642.781	7.99
643.195	7.9
643.609	7.83
644.022	7.75
644.436	7.66
644.849	7.59
645.262	7.52
645.676	7.46
646.089	7.39
646.502	7.34
646.915	7.3
647.328	7.25
647.741	7.2
648.154	7.16
648.567	7.12
648.98	7.1
649.393	7.07
649.805	7.05
650.218	7.03
650.631	7.01
651.043	6.99
651.456	6.97
651.868	6.94
652.28	6.92
652.693	6.92
653.105	6.9
653.517	6.86
653.929	6.84
654.341	6.81
654.753	6.77
655.165	6.75
655.577	6.71
655.989	6.67
656.401	6.64
656.813	6.6
657.224	6.54
657.636	6.5
658.047	6.47
658.459	6.42
658.87	6.38
659.282	6.33
659.693	6.29
660.104	6.23
660.515	6.19
660.926	6.14
661.338	6.09
661.749	6.06
662.159	6.01
662.57	5.97
662.981	5.94
663.392	5.9
663.803	5.87
664.213	5.83
664.624	5.8
665.035	5.78
665.445	5.76
665.855	5.75
666.266	5.73
666.676	5.72
667.086	5.7
667.497	5.68
667.907	5.67
668.317	5.67
668.727	5.67
669.137	5.66
669.547	5.66
669.956	5.66
670.366	5.66
670.776	5.65
671.186	5.67
671.595	5.67
672.005	5.68
672.414	5.69
672.824	5.7
673.233	5.72
673.642	5.75
674.052	5.76
674.461	5.78
674.87	5.79
675.279	5.82
675.688	5.84
676.097	5.88
676.506	5.91
676.915	5.93
677.323	5.97
677.732	5.99
678.141	6.02
678.549	6.05
678.958	6.1
679.366	6.15
679.775	6.2
680.183	6.26
680.592	6.33
681	6.4
681.408	6.47
681.816	6.56
682.224	6.65
682.632	6.75
683.04	6.86
683.448	6.98
683.856	7.09
684.264	7.23
684.671	7.38
685.079	7.55
685.487	7.73
685.894	7.94
686.302	8.16
686.709	8.41
687.116	8.68
687.524	8.97
687.931	9.27
688.338	9.61
688.745	9.96
689.152	10.34
689.559	10.74
689.966	11.16
690.373	11.58
690.78	12.02
691.187	12.47
691.593	12.94
692	13.41
692.407	13.9
692.813	14.4
693.22	14.9
693.626	15.42
694.032	15.92
694.439	16.44
694.845	16.98
695.251	17.51
695.657	18.02
696.063	18.56
696.469	19.1
696.875	19.63
697.281	20.15
697.687	20.67
698.093	21.18
698.498	21.69
698.904	22.19
699.31	22.69
699.715	23.19
700.12	23.68
700.526	24.17
700.931	24.64
701.337	25.1
701.742	25.56
702.147	26.01
702.552	26.45
702.957	26.88
703.362	27.31
703.767	27.71
704.172	28.1
704.577	28.48
704.981	28.86
705.386	29.24
705.791	29.62
706.195	29.99
706.6	30.38
707.004	30.72
707.408	31.09
707.813	31.41
708.217	31.76
708.621	32.11
709.025	32.45
709.43	32.77
709.834	33.11
710.237	33.41
710.641	33.7
711.045	33.99
711.449	34.32
711.853	34.61
712.256	34.91
712.66	35.2
713.064	35.48
713.467	35.76
713.87	36.03
714.274	36.28
714.677	36.57
715.08	36.83
715.484	37.08
715.887	37.32
716.29	37.57
716.693	37.82
717.096	38.04
717.499	38.27
717.901	38.49
718.304	38.69
718.707	38.91
719.109	39.12
719.512	39.34
719.915	39.55
720.317	39.73
720.719	39.9
721.122	40.09
721.524	40.28
721.926	40.44
722.328	40.62
722.731	40.82
723.133	41
723.535	41.16
723.937	41.33
724.338	41.48
724.74	41.65
725.142	41.84
725.544	41.96
725.945	42.11
726.347	42.25
726.748	42.37
727.15	42.48
727.551	42.59
727.952	42.69
728.354	42.78
728.755	42.88
729.156	42.97
729.557	43.05
729.958	43.16
730.359	43.24
730.76	43.33
731.161	43.41
731.562	43.51
731.962	43.58
732.363	43.68
732.763	43.76
733.164	43.83
733.564	43.92
733.965	43.97
734.365	44.04
734.766	44.1
735.166	44.16
735.566	44.21
735.966	44.28
736.366	44.33
736.766	44.37
737.166	44.41
737.566	44.47
737.966	44.49
738.365	44.54
738.765	44.61
739.165	44.68
739.564	44.74
739.964	44.8
740.363	44.83
740.763	44.87
741.162	44.91
741.561	44.93
741.96	44.95
742.36	45
742.759	45.03
743.158	45.03
743.557	45.02
743.955	45.04
744.354	45.06
744.753	45.12
745.152	45.17
745.55	45.18
745.949	45.25
746.348	45.3
746.746	45.35
747.144	45.39
747.543	45.43
747.941	45.48
748.339	45.48
748.737	45.51
749.136	45.5
749.534	45.5
749.932	45.51
750.33	45.49
750.727	45.5
751.125	45.5
751.523	45.48
751.921	45.5
752.318	45.49
752.716	45.51
753.113	45.5
753.511	45.51
753.908	45.52
754.305	45.51
754.703	45.51
755.1	45.48
755.497	45.5
755.894	45.51
756.291	45.5
756.688	45.49
757.085	45.5
757.482	45.49
757.878	45.47
758.275	45.44
758.672	45.45
759.068	45.48
759.465	45.47
759.861	45.45
760.258	45.43
760.654	45.42
761.05	45.42
761.447	45.42
761.843	45.4
762.239	45.4
762.635	45.4
763.031	45.4
763.427	45.34
763.822	45.33
764.218	45.34
764.614	45.33
765.01	45.32
765.405	45.32
765.801	45.28
766.196	45.31
766.592	45.33
766.987	45.32
767.382	45.3
767.778	45.32
768.173	45.36
768.568	45.34
768.963	45.36
769.358	45.39
769.753	45.4
770.148	45.43
770.542	45.43
770.937	45.43
771.332	45.45
771.726	45.47
772.121	45.47
772.515	45.48
772.91	45.49
773.304	45.5
773.699	45.52
774.093	45.51
774.487	45.52
774.881	45.53
775.275	45.53
775.669	45.53
776.063	45.55
776.457	45.57
776.851	45.57
777.245	45.56
777.638	45.55
778.032	45.54
778.425	45.58
778.819	45.56
779.212	45.58
779.606	45.57
779.999	45.57
780.392	45.59
780.786	45.61
781.179	45.62
781.572	45.65
781.965	45.65
782.358	45.67
782.751	45.66
783.143	45.7
