Data from C_3_DEC_VA_2N_Splice17_14-18-39-336.txt Node
Date: Sat Mar 07 14:18:39 EST 2020
User: sa697716
Spectrometer: NQ5500242
Trigger mode: 0
Integration Time (sec): 1.450000E-1
Scans to average: 20
Nonlinearity correction enabled: false
Boxcar width: 5
Storing dark spectrum: false
XAxis mode: Wavelengths
Number of Pixels in Spectrum: 512
>>>>>Begin Spectral Data<<<<<
187.83	135.65
188.298	148.72
188.766	112.74
189.233	96.45
189.701	91.28
190.169	104.49
190.636	113.88
191.104	24.73
191.571	67.11
192.039	242.18
192.506	151.38
192.974	200.22
193.441	357.35
193.908	101.77
194.375	59.26
194.842	26.46
195.31	83.66
195.777	184.61
196.244	52.31
196.711	71.7
197.177	75.46
197.644	76.43
198.111	75.91
198.578	75.77
199.045	76.22
199.511	76.41
199.978	76.5
200.445	76.57
200.911	76.52
201.378	77.03
201.844	76.97
202.31	76.46
202.777	76.2
203.243	76.25
203.709	75.93
204.176	75.34
204.642	74.75
205.108	74.16
205.574	73.5
206.04	72.93
206.506	71.97
206.972	71.29
207.438	70.49
207.903	69.19
208.369	67.4
208.835	65.85
209.301	64.04
209.766	62.13
210.232	60.24
210.697	58.37
211.163	56.42
211.628	54.9
212.094	53.25
212.559	51.91
213.024	50.66
213.49	49.45
213.955	48.11
214.42	47.13
214.885	45.61
215.35	43.8
215.815	41.22
216.28	38.1
216.745	34.52
217.21	30.94
217.675	27.68
218.14	24.77
218.604	22.27
219.069	20.16
219.534	18.27
219.998	16.81
220.463	15.54
220.927	14.47
221.392	13.65
221.856	12.97
222.32	12.41
222.785	11.87
223.249	11.44
223.713	11.03
224.177	10.7
224.642	10.4
225.106	10.08
225.57	9.8
226.034	9.54
226.497	9.3
226.961	9.07
227.425	8.88
227.889	8.69
228.353	8.48
228.816	8.31
229.28	8.12
229.744	7.96
230.207	7.82
230.671	7.68
231.134	7.54
231.597	7.43
232.061	7.31
232.524	7.18
232.987	7.08
233.45	6.99
233.914	6.89
234.377	6.8
234.84	6.71
235.303	6.63
235.766	6.56
236.229	6.5
236.691	6.43
237.154	6.36
237.617	6.3
238.08	6.23
238.542	6.17
239.005	6.12
239.468	6.06
239.93	6.01
240.393	5.96
240.855	5.89
241.317	5.83
241.78	5.78
242.242	5.72
242.704	5.67
243.166	5.61
243.629	5.57
244.091	5.51
244.553	5.45
245.015	5.4
245.477	5.35
245.939	5.32
246.4	5.27
246.862	5.22
247.324	5.18
247.786	5.12
248.247	5.08
248.709	5.02
249.17	4.97
249.632	4.94
250.093	4.91
250.555	4.87
251.016	4.83
251.477	4.79
251.939	4.76
252.4	4.73
252.861	4.7
253.322	4.67
253.783	4.65
254.244	4.64
254.705	4.6
255.166	4.57
255.627	4.54
256.088	4.52
256.549	4.5
257.009	4.48
257.47	4.45
257.931	4.43
258.391	4.39
258.852	4.36
259.312	4.33
259.773	4.3
260.233	4.27
260.694	4.24
261.154	4.21
261.614	4.18
262.074	4.15
262.534	4.11
262.994	4.09
263.455	4.07
263.915	4.04
264.374	4.02
264.834	4.01
265.294	3.99
265.754	3.98
266.214	3.96
266.673	3.94
267.133	3.93
267.593	3.93
268.052	3.91
268.512	3.91
268.971	3.9
269.431	3.89
269.89	3.88
270.349	3.87
270.809	3.86
271.268	3.86
271.727	3.86
272.186	3.85
272.645	3.85
273.104	3.85
273.563	3.85
274.022	3.84
274.481	3.84
274.94	3.84
275.399	3.83
275.857	3.83
276.316	3.83
276.775	3.83
277.233	3.83
277.692	3.82
278.15	3.82
278.609	3.82
279.067	3.83
279.525	3.83
279.984	3.82
280.442	3.82
280.9	3.83
281.358	3.82
281.816	3.83
282.274	3.82
282.732	3.83
283.19	3.82
283.648	3.82
284.106	3.82
284.564	3.82
285.021	3.83
285.479	3.83
285.937	3.82
286.394	3.82
286.852	3.81
287.309	3.82
287.767	3.81
288.224	3.81
288.682	3.79
289.139	3.78
289.596	3.77
290.053	3.75
290.511	3.73
290.968	3.72
291.425	3.71
291.882	3.7
292.339	3.68
292.796	3.66
293.252	3.65
293.709	3.64
294.166	3.63
294.623	3.63
295.079	3.62
295.536	3.62
295.992	3.61
296.449	3.6
296.905	3.58
297.362	3.57
297.818	3.56
298.274	3.56
298.731	3.55
299.187	3.54
299.643	3.53
300.099	3.53
300.555	3.53
301.011	3.52
301.467	3.52
301.923	3.51
302.379	3.52
302.835	3.52
303.291	3.52
303.746	3.51
304.202	3.52
304.658	3.52
305.113	3.52
305.569	3.51
306.024	3.52
306.479	3.52
306.935	3.52
307.39	3.52
307.845	3.52
308.301	3.53
308.756	3.54
309.211	3.54
309.666	3.55
310.121	3.56
310.576	3.56
311.031	3.56
311.486	3.57
311.94	3.58
312.395	3.58
312.85	3.58
313.305	3.58
313.759	3.59
314.214	3.59
314.668	3.58
315.123	3.59
315.577	3.59
316.032	3.6
316.486	3.6
316.94	3.59
317.394	3.59
317.849	3.57
318.303	3.57
318.757	3.55
319.211	3.54
319.665	3.53
320.119	3.51
320.572	3.49
321.026	3.48
321.48	3.47
321.934	3.46
322.387	3.45
322.841	3.45
323.295	3.45
323.748	3.45
324.202	3.44
324.655	3.44
325.108	3.44
325.562	3.44
326.015	3.45
326.468	3.45
326.921	3.45
327.374	3.46
327.827	3.45
328.28	3.45
328.733	3.45
329.186	3.45
329.639	3.45
330.092	3.46
330.545	3.46
330.997	3.45
331.45	3.46
331.903	3.47
332.355	3.48
332.808	3.48
333.26	3.49
333.713	3.5
334.165	3.5
334.617	3.51
335.069	3.51
335.522	3.52
335.974	3.53
336.426	3.53
336.878	3.53
337.33	3.53
337.782	3.54
338.234	3.54
338.686	3.54
339.137	3.54
339.589	3.53
340.041	3.53
340.493	3.52
340.944	3.5
341.396	3.5
341.847	3.48
342.299	3.46
342.75	3.44
343.201	3.42
343.653	3.41
344.104	3.38
344.555	3.37
345.006	3.36
345.457	3.35
345.908	3.34
346.359	3.33
346.81	3.33
347.261	3.33
347.712	3.32
348.163	3.31
348.613	3.32
349.064	3.32
349.515	3.32
349.965	3.33
350.416	3.32
350.866	3.32
351.317	3.31
351.767	3.32
352.217	3.32
352.668	3.31
353.118	3.32
353.568	3.32
354.018	3.32
354.468	3.33
354.918	3.33
355.368	3.34
355.818	3.35
356.268	3.35
356.718	3.36
357.168	3.36
357.617	3.36
358.067	3.35
358.517	3.36
358.966	3.36
359.416	3.36
359.865	3.36
360.315	3.36
360.764	3.36
361.213	3.36
361.663	3.35
362.112	3.35
362.561	3.36
363.01	3.36
363.459	3.34
363.908	3.34
364.357	3.34
364.806	3.33
365.255	3.33
365.703	3.33
366.152	3.34
366.601	3.35
367.05	3.36
367.498	3.36
367.947	3.37
368.395	3.37
368.844	3.38
369.292	3.38
369.74	3.38
370.189	3.39
370.637	3.39
371.085	3.37
371.533	3.37
371.981	3.37
372.429	3.36
372.877	3.37
373.325	3.37
373.773	3.35
374.221	3.36
374.669	3.35
375.116	3.35
375.564	3.35
376.012	3.36
376.459	3.36
376.907	3.36
377.354	3.37
377.801	3.38
378.249	3.38
378.696	3.39
379.143	3.4
379.591	3.41
380.038	3.42
380.485	3.42
380.932	3.43
381.379	3.44
381.826	3.45
382.273	3.46
382.72	3.46
383.166	3.47
383.613	3.48
384.06	3.48
384.506	3.49
384.953	3.5
385.4	3.52
385.846	3.54
386.292	3.55
386.739	3.57
387.185	3.59
387.631	3.62
388.078	3.63
388.524	3.65
388.97	3.67
389.416	3.7
389.862	3.72
390.308	3.75
390.754	3.77
391.2	3.81
391.645	3.84
392.091	3.87
392.537	3.91
392.983	3.95
393.428	3.98
393.874	4.02
394.319	4.05
394.765	4.07
395.21	4.1
395.655	4.13
396.101	4.16
396.546	4.18
396.991	4.22
397.436	4.25
397.881	4.3
398.326	4.34
398.771	4.39
399.216	4.43
399.661	4.48
400.106	4.51
400.551	4.54
400.995	4.55
401.44	4.57
401.885	4.59
402.329	4.61
402.774	4.61
403.218	4.64
403.663	4.65
404.107	4.67
404.551	4.68
404.995	4.7
405.44	4.72
405.884	4.75
406.328	4.78
406.772	4.8
407.216	4.83
407.66	4.85
408.104	4.86
408.547	4.88
408.991	4.9
409.435	4.9
409.879	4.92
410.322	4.95
410.766	4.97
411.209	5
411.653	5.03
412.096	5.04
412.54	5.06
412.983	5.08
413.426	5.12
413.869	5.14
414.312	5.18
414.756	5.2
415.199	5.21
415.642	5.23
416.085	5.24
416.527	5.25
416.97	5.24
417.413	5.25
417.856	5.25
418.298	5.23
418.741	5.23
419.184	5.22
419.626	5.22
420.069	5.23
420.511	5.22
420.953	5.22
421.396	5.22
421.838	5.23
422.28	5.23
422.722	5.26
423.164	5.27
423.606	5.28
424.048	5.28
424.49	5.29
424.932	5.28
425.374	5.27
425.816	5.25
426.258	5.23
426.699	5.21
427.141	5.19
427.582	5.18
428.024	5.18
428.465	5.19
428.907	5.18
429.348	5.16
429.789	5.15
430.231	5.16
430.672	5.18
431.113	5.21
431.554	5.23
431.995	5.25
432.436	5.25
432.877	5.23
433.318	5.24
433.759	5.26
434.2	5.3
434.64	5.33
435.081	5.33
435.522	5.35
435.962	5.37
436.403	5.41
436.843	5.43
437.284	5.43
437.724	5.45
438.164	5.46
438.604	5.47
439.045	5.48
439.485	5.49
439.925	5.51
440.365	5.54
440.805	5.55
441.245	5.56
441.685	5.6
442.125	5.65
442.564	5.69
443.004	5.71
443.444	5.75
443.883	5.78
444.323	5.81
444.762	5.86
445.202	5.87
445.641	5.92
446.081	5.95
446.52	5.99
446.959	6.03
447.398	6.08
447.837	6.13
448.276	6.15
448.716	6.19
449.154	6.24
449.593	6.27
450.032	6.31
450.471	6.33
450.91	6.34
451.349	6.35
451.787	6.35
452.226	6.35
452.664	6.35
453.103	6.36
453.541	6.36
453.98	6.35
454.418	6.34
454.856	6.32
455.295	6.3
455.733	6.28
456.171	6.27
456.609	6.26
457.047	6.24
457.485	6.22
457.923	6.2
458.361	6.19
458.798	6.18
459.236	6.17
459.674	6.16
460.111	6.15
460.549	6.16
460.987	6.16
461.424	6.16
461.862	6.17
462.299	6.18
462.736	6.16
463.173	6.15
463.611	6.15
464.048	6.15
464.485	6.14
464.922	6.14
465.359	6.14
465.796	6.13
466.233	6.13
466.67	6.13
467.106	6.13
467.543	6.14
467.98	6.14
468.416	6.15
468.853	6.16
469.29	6.17
469.726	6.18
470.162	6.18
470.599	6.19
471.035	6.19
471.471	6.18
471.907	6.17
472.344	6.19
472.78	6.2
473.216	6.19
473.652	6.19
474.088	6.17
474.523	6.18
474.959	6.19
475.395	6.17
475.831	6.17
476.266	6.18
476.702	6.19
477.138	6.18
477.573	6.18
478.008	6.17
478.444	6.16
478.879	6.18
479.314	6.17
479.75	6.15
480.185	6.15
480.62	6.14
481.055	6.14
481.49	6.13
481.925	6.13
482.36	6.13
482.795	6.14
483.229	6.16
483.664	6.17
484.099	6.18
484.534	6.2
484.968	6.22
485.403	6.24
485.837	6.27
486.271	6.3
486.706	6.33
487.14	6.36
487.574	6.39
488.009	6.43
488.443	6.47
488.877	6.53
489.311	6.58
489.745	6.65
490.179	6.71
490.613	6.78
491.046	6.85
491.48	6.93
491.914	7
492.348	7.09
492.781	7.18
493.215	7.27
493.648	7.37
494.082	7.47
494.515	7.57
494.948	7.68
495.382	7.79
495.815	7.9
496.248	8.03
496.681	8.17
497.114	8.3
497.547	8.44
497.98	8.58
498.413	8.72
498.846	8.87
499.279	9.02
499.711	9.18
500.144	9.35
500.577	9.53
501.009	9.7
501.442	9.88
501.874	10.07
502.306	10.25
502.739	10.45
503.171	10.66
503.603	10.87
504.036	11.09
504.468	11.3
504.9	11.51
505.332	11.74
505.764	11.97
506.196	12.2
506.627	12.44
507.059	12.69
507.491	12.93
507.923	13.18
508.354	13.46
508.786	13.73
509.217	13.99
509.649	14.27
510.08	14.54
510.512	14.83
510.943	15.11
511.374	15.39
511.805	15.67
512.237	15.96
512.668	16.25
513.099	16.52
513.53	16.81
513.961	17.1
514.391	17.38
514.822	17.68
515.253	17.95
515.684	18.24
516.114	18.52
516.545	18.81
516.975	19.08
517.406	19.35
517.836	19.62
518.267	19.9
518.697	20.16
519.127	20.41
519.558	20.65
519.988	20.91
520.418	21.14
520.848	21.38
521.278	21.61
521.708	21.94
522.138	22.16
522.567	22.37
522.997	22.55
523.427	22.76
523.857	22.96
524.286	23.14
524.716	23.31
525.145	23.49
525.575	23.67
526.004	23.84
526.433	23.89
526.863	24.04
527.292	24.2
527.721	24.34
528.15	24.47
528.579	24.59
529.008	24.73
529.437	24.84
529.866	24.96
530.295	25.05
530.724	25.15
531.152	25.24
531.581	25.34
532.01	25.41
532.438	25.49
532.867	25.57
533.295	25.64
533.723	25.68
534.152	25.75
534.58	25.8
535.008	25.83
535.436	25.88
535.865	25.94
536.293	25.98
536.721	26.01
537.149	26.05
537.576	26.07
538.004	26.11
538.432	26.14
538.86	26.17
539.287	26.19
539.715	26.24
540.143	26.24
540.57	26.24
540.998	26.25
541.425	26.26
541.852	26.28
542.28	26.31
542.707	26.31
543.134	26.34
543.561	26.37
543.988	26.39
544.415	26.4
544.842	26.42
545.269	26.46
545.696	26.49
546.123	26.53
546.549	26.56
546.976	26.57
547.403	26.6
547.829	26.62
548.256	26.63
548.682	26.66
549.108	26.68
549.535	26.71
549.961	26.73
550.387	26.74
550.813	26.75
551.24	26.75
551.666	26.75
552.092	26.76
552.518	26.76
552.943	26.74
553.369	26.73
553.795	26.72
554.221	26.71
554.646	26.68
555.072	26.67
555.498	26.65
555.923	26.62
556.349	26.6
556.774	26.57
557.199	26.53
557.625	26.51
558.05	26.46
558.475	26.41
558.9	26.37
559.325	26.32
559.75	26.24
560.175	26.17
560.6	26.09
561.025	26.02
561.449	25.94
561.874	25.88
562.299	25.8
562.723	25.72
563.148	25.61
563.572	25.5
563.997	25.4
564.421	25.3
564.846	25.2
565.27	25.1
565.694	24.99
566.118	24.88
566.542	24.75
566.966	24.62
567.39	24.51
567.814	24.39
568.238	24.26
568.662	24.15
569.086	24.03
569.509	23.91
569.933	23.79
570.357	23.65
570.78	23.51
571.204	23.39
571.627	23.28
572.05	23.16
572.474	23.06
572.897	22.96
573.32	22.85
573.743	22.75
574.166	22.65
574.589	22.55
575.012	22.46
575.435	22.37
575.858	22.3
576.281	22.21
576.704	22.13
577.126	22.05
577.549	21.98
577.972	21.9
578.394	21.81
578.817	21.74
579.239	21.67
579.661	21.6
580.084	21.53
580.506	21.45
580.928	21.38
581.35	21.31
581.772	21.23
582.194	21.17
582.616	21.12
583.038	21.07
583.46	20.99
583.882	20.93
584.303	20.86
584.725	20.8
585.147	20.75
585.568	20.7
585.99	20.64
586.411	20.59
586.833	20.55
587.254	20.48
587.675	20.42
588.096	20.38
588.518	20.35
588.939	20.31
589.36	20.28
589.781	20.23
590.202	20.2
590.623	20.17
591.043	20.13
591.464	20.08
591.885	20.05
592.305	20.02
592.726	19.99
593.147	19.94
593.567	19.89
593.987	19.85
594.408	19.82
594.828	19.78
595.248	19.74
595.669	19.72
596.089	19.69
596.509	19.67
596.929	19.63
597.349	19.59
597.769	19.57
598.189	19.54
598.608	19.52
599.028	19.48
599.448	19.45
599.867	19.41
600.287	19.37
600.706	19.32
601.126	19.27
601.545	19.23
601.965	19.18
602.384	19.14
602.803	19.12
603.222	19.06
603.641	19.02
604.061	18.97
604.48	18.91
604.898	18.85
605.317	18.8
605.736	18.75
606.155	18.7
606.574	18.63
606.992	18.55
607.411	18.49
607.829	18.39
608.248	18.31
608.666	18.23
609.085	18.18
609.503	18.13
609.921	18.06
610.339	18
610.758	17.93
611.176	17.86
611.594	17.8
612.012	17.72
612.43	17.69
612.847	17.63
613.265	17.57
613.683	17.5
614.101	17.43
614.518	17.35
614.936	17.28
615.353	17.21
615.771	17.16
616.188	17.1
616.606	17.06
617.023	17
617.44	16.97
617.857	16.92
618.274	16.86
618.691	16.81
619.108	16.77
619.525	16.74
619.942	16.71
620.359	16.67
620.776	16.64
621.192	16.6
621.609	16.58
622.026	16.54
622.442	16.52
622.859	16.5
623.275	16.49
623.691	16.46
624.108	16.44
624.524	16.42
624.94	16.41
625.356	16.39
625.772	16.37
626.188	16.36
626.604	16.35
627.02	16.34
627.436	16.32
627.852	16.31
628.268	16.29
628.683	16.28
629.099	16.28
629.514	16.24
629.93	16.22
630.345	16.2
630.761	16.14
631.176	16.11
631.591	16.05
632.007	16
632.422	15.94
632.837	15.87
633.252	15.79
633.667	15.69
634.082	15.59
634.497	15.49
634.911	15.38
635.326	15.26
635.741	15.14
636.155	15.01
636.57	14.89
636.984	14.75
637.399	14.6
637.813	14.45
638.228	14.32
638.642	14.16
639.056	14
639.47	13.85
639.884	13.69
640.298	13.51
640.712	13.34
641.126	13.17
641.54	13
641.954	12.84
642.368	12.66
642.781	12.5
643.195	12.34
643.609	12.18
644.022	12.02
644.436	11.88
644.849	11.74
645.262	11.6
645.676	11.48
646.089	11.36
646.502	11.25
646.915	11.16
647.328	11.06
647.741	10.98
648.154	10.91
648.567	10.84
648.98	10.77
649.393	10.72
649.805	10.67
650.218	10.62
650.631	10.58
651.043	10.54
651.456	10.49
651.868	10.44
652.28	10.39
652.693	10.33
653.105	10.28
653.517	10.23
653.929	10.17
654.341	10.09
654.753	10.02
655.165	9.95
655.577	9.88
655.989	9.81
656.401	9.72
656.813	9.63
657.224	9.53
657.636	9.42
658.047	9.33
658.459	9.2
658.87	9.1
659.282	8.98
659.693	8.85
660.104	8.71
660.515	8.58
660.926	8.46
661.338	8.34
661.749	8.22
662.159	8.09
662.57	7.98
662.981	7.87
663.392	7.74
663.803	7.64
664.213	7.53
664.624	7.43
665.035	7.34
665.445	7.25
665.855	7.15
666.266	7.07
666.676	7
667.086	6.92
667.497	6.86
667.907	6.81
668.317	6.76
668.727	6.7
669.137	6.67
669.547	6.63
669.956	6.59
670.366	6.57
670.776	6.55
671.186	6.52
671.595	6.51
672.005	6.49
672.414	6.48
672.824	6.47
673.233	6.48
673.642	6.49
674.052	6.49
674.461	6.5
674.87	6.51
675.279	6.55
675.688	6.58
676.097	6.63
676.506	6.67
676.915	6.72
677.323	6.78
677.732	6.83
678.141	6.9
678.549	6.98
678.958	7.08
679.366	7.19
679.775	7.3
680.183	7.44
680.592	7.59
681	7.75
681.408	7.95
681.816	8.17
682.224	8.41
682.632	8.67
683.04	8.96
683.448	9.26
683.856	9.6
684.264	9.96
684.671	10.33
685.079	10.73
685.487	11.16
685.894	11.61
686.302	12.07
686.709	12.56
687.116	13.07
687.524	13.6
687.931	14.16
688.338	14.72
688.745	15.3
689.152	15.89
689.559	16.49
689.966	17.08
690.373	17.69
690.78	18.3
691.187	18.92
691.593	19.52
692	20.11
692.407	20.68
692.813	21.26
693.22	21.84
693.626	22.4
694.032	22.96
694.439	23.52
694.845	24.06
695.251	24.59
695.657	25.1
696.063	25.6
696.469	26.09
696.875	26.59
697.281	27.05
697.687	27.5
698.093	27.95
698.498	28.37
698.904	28.78
699.31	29.17
699.715	29.55
700.12	29.93
700.526	30.3
700.931	30.65
701.337	30.97
701.742	31.29
702.147	31.61
702.552	31.93
702.957	32.21
703.362	32.5
703.767	32.77
704.172	33.04
704.577	33.3
704.981	33.55
705.386	33.79
705.791	34.03
706.195	34.28
706.6	34.5
707.004	34.71
707.408	34.93
707.813	35.14
708.217	35.34
708.621	35.55
709.025	35.74
709.43	35.92
709.834	36.12
710.237	36.3
710.641	36.47
711.045	36.66
711.449	36.84
711.853	37.03
712.256	37.18
712.66	37.34
713.064	37.48
713.467	37.62
713.87	37.77
714.274	37.89
714.677	38.02
715.08	38.13
715.484	38.26
715.887	38.38
716.29	38.5
716.693	38.62
717.096	38.75
717.499	38.89
717.901	39.02
718.304	39.13
718.707	39.27
719.109	39.4
719.512	39.53
719.915	39.63
720.317	39.72
720.719	39.81
721.122	39.91
721.524	39.99
721.926	40.06
722.328	40.15
722.731	40.24
723.133	40.3
723.535	40.37
723.937	40.43
724.338	40.5
724.74	40.56
725.142	40.66
725.544	40.71
725.945	40.79
726.347	40.85
726.748	40.93
727.15	40.98
727.551	41.03
727.952	41.07
728.354	41.15
728.755	41.17
729.156	41.22
729.557	41.26
729.958	41.3
730.359	41.32
730.76	41.35
731.161	41.34
731.562	41.39
731.962	41.4
732.363	41.45
732.763	41.46
733.164	41.52
733.564	41.57
733.965	41.57
734.365	41.6
734.766	41.64
735.166	41.67
735.566	41.72
735.966	41.74
736.366	41.78
736.766	41.8
737.166	41.82
737.566	41.83
737.966	41.83
738.365	41.85
738.765	41.91
739.165	41.92
739.564	41.94
739.964	41.95
740.363	41.95
740.763	41.97
741.162	41.98
741.561	41.98
741.96	41.99
742.36	42.01
742.759	42.01
743.158	41.99
743.557	41.98
743.955	41.97
744.354	41.98
744.753	42
745.152	42.03
745.55	42.03
745.949	42.05
746.348	42.1
746.746	42.08
747.144	42.11
747.543	42.14
747.941	42.18
748.339	42.19
748.737	42.2
749.136	42.2
749.534	42.18
749.932	42.21
750.33	42.21
750.727	42.19
751.125	42.2
751.523	42.19
751.921	42.17
752.318	42.17
752.716	42.16
753.113	42.17
753.511	42.17
753.908	42.16
754.305	42.14
754.703	42.13
755.1	42.14
755.497	42.13
755.894	42.11
756.291	42.08
756.688	42.05
757.085	42.05
757.482	42.02
757.878	42.01
758.275	42
758.672	41.97
759.068	41.98
759.465	41.97
759.861	41.97
760.258	41.98
760.654	42
761.05	42
761.447	42.01
761.843	42
762.239	41.99
762.635	42
763.031	42.02
763.427	42.01
763.822	42.02
764.218	42.02
764.614	42
765.01	42
765.405	41.99
765.801	41.99
766.196	42.02
766.592	42.02
766.987	42.02
767.382	42.02
767.778	42.03
768.173	42.02
768.568	42.02
768.963	42.03
769.358	42.04
769.753	42.05
770.148	42.06
770.542	42.04
770.937	42.07
771.332	42.07
771.726	42.07
772.121	42.06
772.515	42.07
772.91	42.08
773.304	42.09
773.699	42.1
774.093	42.08
774.487	42.07
774.881	42.08
775.275	42.04
775.669	42.04
776.063	42.03
776.457	42.02
776.851	42.02
777.245	41.99
777.638	41.99
778.032	42
778.425	42.05
778.819	42.04
779.212	42.05
779.606	42.09
779.999	42.08
780.392	42.11
780.786	42.13
781.179	42.13
