Data from C_3_DEC_VA_2N_Splice17_14-18-09-005.txt Node
Date: Sat Mar 07 14:18:09 EST 2020
User: sa697716
Spectrometer: NQ5500242
Trigger mode: 0
Integration Time (sec): 1.450000E-1
Scans to average: 20
Nonlinearity correction enabled: false
Boxcar width: 5
Storing dark spectrum: false
XAxis mode: Wavelengths
Number of Pixels in Spectrum: 512
>>>>>Begin Spectral Data<<<<<
187.83	166.51
188.298	174.52
188.766	145.86
189.233	132.95
189.701	129.44
190.169	137.28
190.636	144.57
191.104	107.52
191.571	-20.84
192.039	104.36
192.506	-300.1
192.974	150.41
193.441	147.53
193.908	39.6
194.375	89.67
194.842	20.28
195.31	50.72
195.777	14
196.244	54.88
196.711	70.77
197.177	75.18
197.644	75.03
198.111	75.45
198.578	76.19
199.045	76.7
199.511	76.16
199.978	76.53
200.445	76.63
200.911	76.54
201.378	76.67
201.844	76.57
202.31	76
202.777	75.83
203.243	75.56
203.709	75.03
204.176	74.34
204.642	74.21
205.108	73.88
205.574	73.21
206.04	72.79
206.506	72.03
206.972	71.68
207.438	70.87
207.903	70.02
208.369	68.5
208.835	66.91
209.301	65.15
209.766	63.08
210.232	61.04
210.697	59.15
211.163	57.4
211.628	55.87
212.094	54.2
212.559	52.8
213.024	51.37
213.49	50.31
213.955	49.15
214.42	47.94
214.885	46.49
215.35	44.51
215.815	41.99
216.28	38.84
216.745	35.46
217.21	31.94
217.675	28.59
218.14	25.74
218.604	23.19
219.069	21.1
219.534	19.33
219.998	17.86
220.463	16.68
220.927	15.66
221.392	14.83
221.856	14.13
222.32	13.55
222.785	13.1
223.249	12.64
223.713	12.26
224.177	11.92
224.642	11.63
225.106	11.32
225.57	11.02
226.034	10.76
226.497	10.54
226.961	10.32
227.425	10.12
227.889	9.93
228.353	9.75
228.816	9.55
229.28	9.36
229.744	9.17
230.207	9
230.671	8.86
231.134	8.72
231.597	8.58
232.061	8.44
232.524	8.3
232.987	8.16
233.45	8.06
233.914	7.94
234.377	7.83
234.84	7.74
235.303	7.66
235.766	7.57
236.229	7.48
236.691	7.39
237.154	7.31
237.617	7.24
238.08	7.17
238.542	7.09
239.005	7.05
239.468	6.98
239.93	6.93
240.393	6.86
240.855	6.79
241.317	6.73
241.78	6.67
242.242	6.61
242.704	6.55
243.166	6.49
243.629	6.44
244.091	6.36
244.553	6.31
245.015	6.25
245.477	6.2
245.939	6.14
246.4	6.09
246.862	6.04
247.324	5.98
247.786	5.94
248.247	5.88
248.709	5.81
249.17	5.76
249.632	5.72
250.093	5.67
250.555	5.62
251.016	5.59
251.477	5.54
251.939	5.51
252.4	5.48
252.861	5.44
253.322	5.42
253.783	5.4
254.244	5.38
254.705	5.35
255.166	5.33
255.627	5.31
256.088	5.29
256.549	5.27
257.009	5.24
257.47	5.21
257.931	5.18
258.391	5.14
258.852	5.1
259.312	5.07
259.773	5.04
260.233	5.01
260.694	4.98
261.154	4.94
261.614	4.9
262.074	4.87
262.534	4.84
262.994	4.82
263.455	4.8
263.915	4.78
264.374	4.76
264.834	4.74
265.294	4.72
265.754	4.71
266.214	4.7
266.673	4.68
267.133	4.67
267.593	4.67
268.052	4.66
268.512	4.65
268.971	4.63
269.431	4.62
269.89	4.61
270.349	4.6
270.809	4.59
271.268	4.58
271.727	4.58
272.186	4.57
272.645	4.56
273.104	4.55
273.563	4.54
274.022	4.54
274.481	4.54
274.94	4.54
275.399	4.52
275.857	4.52
276.316	4.52
276.775	4.51
277.233	4.51
277.692	4.5
278.15	4.5
278.609	4.51
279.067	4.5
279.525	4.49
279.984	4.49
280.442	4.49
280.9	4.49
281.358	4.49
281.816	4.49
282.274	4.49
282.732	4.49
283.19	4.48
283.648	4.48
284.106	4.47
284.564	4.47
285.021	4.47
285.479	4.47
285.937	4.47
286.394	4.46
286.852	4.45
287.309	4.44
287.767	4.43
288.224	4.43
288.682	4.42
289.139	4.4
289.596	4.39
290.053	4.37
290.511	4.35
290.968	4.33
291.425	4.31
291.882	4.29
292.339	4.27
292.796	4.26
293.252	4.24
293.709	4.23
294.166	4.22
294.623	4.21
295.079	4.2
295.536	4.19
295.992	4.18
296.449	4.16
296.905	4.16
297.362	4.15
297.818	4.13
298.274	4.12
298.731	4.12
299.187	4.1
299.643	4.09
300.099	4.09
300.555	4.08
301.011	4.08
301.467	4.07
301.923	4.06
302.379	4.06
302.835	4.06
303.291	4.05
303.746	4.06
304.202	4.06
304.658	4.06
305.113	4.05
305.569	4.05
306.024	4.05
306.479	4.05
306.935	4.05
307.39	4.06
307.845	4.06
308.301	4.07
308.756	4.06
309.211	4.06
309.666	4.08
310.121	4.08
310.576	4.08
311.031	4.09
311.486	4.1
311.94	4.1
312.395	4.1
312.85	4.1
313.305	4.1
313.759	4.11
314.214	4.11
314.668	4.1
315.123	4.1
315.577	4.09
316.032	4.09
316.486	4.09
316.94	4.08
317.394	4.08
317.849	4.06
318.303	4.06
318.757	4.04
319.211	4.04
319.665	4.02
320.119	4
320.572	3.99
321.026	3.98
321.48	3.97
321.934	3.95
322.387	3.94
322.841	3.94
323.295	3.93
323.748	3.93
324.202	3.92
324.655	3.92
325.108	3.92
325.562	3.93
326.015	3.93
326.468	3.92
326.921	3.92
327.374	3.92
327.827	3.92
328.28	3.92
328.733	3.92
329.186	3.92
329.639	3.91
330.092	3.91
330.545	3.91
330.997	3.92
331.45	3.93
331.903	3.93
332.355	3.94
332.808	3.95
333.26	3.96
333.713	3.96
334.165	3.96
334.617	3.96
335.069	3.97
335.522	3.98
335.974	3.99
336.426	3.98
336.878	3.99
337.33	3.99
337.782	4
338.234	4
338.686	4
339.137	4.02
339.589	4.01
340.041	4
340.493	3.99
340.944	3.97
341.396	3.96
341.847	3.94
342.299	3.92
342.75	3.9
343.201	3.88
343.653	3.87
344.104	3.84
344.555	3.83
345.006	3.82
345.457	3.81
345.908	3.8
346.359	3.8
346.81	3.8
347.261	3.79
347.712	3.79
348.163	3.79
348.613	3.79
349.064	3.78
349.515	3.79
349.965	3.79
350.416	3.79
350.866	3.78
351.317	3.77
351.767	3.78
352.217	3.78
352.668	3.77
353.118	3.77
353.568	3.77
354.018	3.78
354.468	3.78
354.918	3.78
355.368	3.79
355.818	3.79
356.268	3.79
356.718	3.79
357.168	3.78
357.617	3.79
358.067	3.78
358.517	3.79
358.966	3.79
359.416	3.79
359.865	3.8
360.315	3.8
360.764	3.8
361.213	3.79
361.663	3.78
362.112	3.79
362.561	3.79
363.01	3.79
363.459	3.78
363.908	3.77
364.357	3.77
364.806	3.76
365.255	3.76
365.703	3.77
366.152	3.78
366.601	3.78
367.05	3.79
367.498	3.78
367.947	3.79
368.395	3.8
368.844	3.79
369.292	3.8
369.74	3.81
370.189	3.81
370.637	3.8
371.085	3.8
371.533	3.8
371.981	3.79
372.429	3.8
372.877	3.8
373.325	3.79
373.773	3.8
374.221	3.79
374.669	3.78
375.116	3.77
375.564	3.77
376.012	3.77
376.459	3.77
376.907	3.78
377.354	3.78
377.801	3.79
378.249	3.8
378.696	3.8
379.143	3.81
379.591	3.82
380.038	3.83
380.485	3.85
380.932	3.86
381.379	3.86
381.826	3.87
382.273	3.87
382.72	3.86
383.166	3.87
383.613	3.87
384.06	3.88
384.506	3.89
384.953	3.9
385.4	3.9
385.846	3.92
386.292	3.93
386.739	3.94
387.185	3.97
387.631	3.99
388.078	4
388.524	4.02
388.97	4.03
389.416	4.06
389.862	4.08
390.308	4.11
390.754	4.14
391.2	4.16
391.645	4.19
392.091	4.22
392.537	4.26
392.983	4.3
393.428	4.34
393.874	4.38
394.319	4.42
394.765	4.45
395.21	4.47
395.655	4.51
396.101	4.55
396.546	4.57
396.991	4.61
397.436	4.64
397.881	4.69
398.326	4.74
398.771	4.77
399.216	4.8
399.661	4.86
400.106	4.89
400.551	4.93
400.995	4.95
401.44	4.98
401.885	5
402.329	5.03
402.774	5.05
403.218	5.07
403.663	5.11
404.107	5.14
404.551	5.16
404.995	5.18
405.44	5.2
405.884	5.22
406.328	5.26
406.772	5.28
407.216	5.3
407.66	5.33
408.104	5.33
408.547	5.34
408.991	5.35
409.435	5.37
409.879	5.4
410.322	5.42
410.766	5.45
411.209	5.47
411.653	5.51
412.096	5.53
412.54	5.55
412.983	5.57
413.426	5.62
413.869	5.65
414.312	5.69
414.756	5.72
415.199	5.75
415.642	5.78
416.085	5.8
416.527	5.8
416.97	5.81
417.413	5.83
417.856	5.83
418.298	5.82
418.741	5.83
419.184	5.83
419.626	5.83
420.069	5.84
420.511	5.84
420.953	5.84
421.396	5.84
421.838	5.85
422.28	5.86
422.722	5.9
423.164	5.89
423.606	5.9
424.048	5.89
424.49	5.88
424.932	5.87
425.374	5.85
425.816	5.82
426.258	5.81
426.699	5.79
427.141	5.76
427.582	5.74
428.024	5.74
428.465	5.73
428.907	5.73
429.348	5.72
429.789	5.72
430.231	5.72
430.672	5.73
431.113	5.74
431.554	5.75
431.995	5.78
432.436	5.78
432.877	5.8
433.318	5.81
433.759	5.84
434.2	5.87
434.64	5.89
435.081	5.91
435.522	5.93
435.962	5.96
436.403	6
436.843	6.01
437.284	6.02
437.724	6.02
438.164	6.03
438.604	6.05
439.045	6.07
439.485	6.09
439.925	6.12
440.365	6.15
440.805	6.17
441.245	6.18
441.685	6.24
442.125	6.28
442.564	6.33
443.004	6.37
443.444	6.39
443.883	6.44
444.323	6.46
444.762	6.5
445.202	6.52
445.641	6.56
446.081	6.6
446.52	6.62
446.959	6.68
447.398	6.72
447.837	6.75
448.276	6.79
448.716	6.83
449.154	6.88
449.593	6.92
450.032	6.95
450.471	6.98
450.91	6.99
451.349	7.01
451.787	7
452.226	7.01
452.664	7.03
453.103	7.03
453.541	7.02
453.98	7.01
454.418	6.99
454.856	7
455.295	6.99
455.733	6.96
456.171	6.95
456.609	6.94
457.047	6.91
457.485	6.89
457.923	6.88
458.361	6.87
458.798	6.86
459.236	6.86
459.674	6.84
460.111	6.83
460.549	6.84
460.987	6.84
461.424	6.84
461.862	6.84
462.299	6.85
462.736	6.84
463.173	6.83
463.611	6.82
464.048	6.81
464.485	6.82
464.922	6.81
465.359	6.8
465.796	6.79
466.233	6.78
466.67	6.77
467.106	6.78
467.543	6.78
467.98	6.79
468.416	6.78
468.853	6.8
469.29	6.81
469.726	6.82
470.162	6.82
470.599	6.83
471.035	6.83
471.471	6.83
471.907	6.82
472.344	6.83
472.78	6.83
473.216	6.84
473.652	6.84
474.088	6.83
474.523	6.83
474.959	6.83
475.395	6.82
475.831	6.83
476.266	6.83
476.702	6.84
477.138	6.85
477.573	6.85
478.008	6.85
478.444	6.83
478.879	6.84
479.314	6.84
479.75	6.83
480.185	6.83
480.62	6.82
481.055	6.82
481.49	6.82
481.925	6.82
482.36	6.81
482.795	6.82
483.229	6.84
483.664	6.86
484.099	6.87
484.534	6.89
484.968	6.9
485.403	6.93
485.837	6.97
486.271	7
486.706	7.04
487.14	7.07
487.574	7.12
488.009	7.17
488.443	7.21
488.877	7.26
489.311	7.33
489.745	7.4
490.179	7.46
490.613	7.52
491.046	7.59
491.48	7.68
491.914	7.77
492.348	7.84
492.781	7.94
493.215	8.03
493.648	8.13
494.082	8.23
494.515	8.33
494.948	8.44
495.382	8.56
495.815	8.68
496.248	8.81
496.681	8.94
497.114	9.08
497.547	9.22
497.98	9.36
498.413	9.5
498.846	9.66
499.279	9.82
499.711	9.98
500.144	10.16
500.577	10.33
501.009	10.5
501.442	10.68
501.874	10.86
502.306	11.06
502.739	11.26
503.171	11.48
503.603	11.68
504.036	11.9
504.468	12.12
504.9	12.34
505.332	12.56
505.764	12.79
506.196	13.03
506.627	13.27
507.059	13.51
507.491	13.76
507.923	13.99
508.354	14.26
508.786	14.52
509.217	14.79
509.649	15.06
510.08	15.34
510.512	15.62
510.943	15.89
511.374	16.16
511.805	16.44
512.237	16.72
512.668	17.02
513.099	17.3
513.53	17.59
513.961	17.88
514.391	18.16
514.822	18.45
515.253	18.72
515.684	19
516.114	19.28
516.545	19.56
516.975	19.83
517.406	20.1
517.836	20.37
518.267	20.63
518.697	20.88
519.127	21.11
519.558	21.36
519.988	21.62
520.418	21.86
520.848	22.09
521.278	22.31
521.708	22.63
522.138	22.84
522.567	23.04
522.997	23.23
523.427	23.44
523.857	23.65
524.286	23.82
524.716	24
525.145	24.18
525.575	24.34
526.004	24.52
526.433	24.58
526.863	24.73
527.292	24.88
527.721	25.02
528.15	25.15
528.579	25.27
529.008	25.4
529.437	25.51
529.866	25.62
530.295	25.74
530.724	25.83
531.152	25.92
531.581	26
532.01	26.08
532.438	26.16
532.867	26.23
533.295	26.31
533.723	26.35
534.152	26.4
534.58	26.46
535.008	26.49
535.436	26.53
535.865	26.57
536.293	26.63
536.721	26.67
537.149	26.7
537.576	26.72
538.004	26.75
538.432	26.77
538.86	26.79
539.287	26.8
539.715	26.84
540.143	26.87
540.57	26.88
540.998	26.89
541.425	26.89
541.852	26.92
542.28	26.95
542.707	26.97
543.134	27
543.561	27.03
543.988	27.03
544.415	27.05
544.842	27.05
545.269	27.08
545.696	27.12
546.123	27.14
546.549	27.13
546.976	27.16
547.403	27.18
547.829	27.2
548.256	27.22
548.682	27.25
549.108	27.27
549.535	27.3
549.961	27.31
550.387	27.32
550.813	27.35
551.24	27.38
551.666	27.39
552.092	27.39
552.518	27.41
552.943	27.39
553.369	27.39
553.795	27.38
554.221	27.37
554.646	27.36
555.072	27.35
555.498	27.32
555.923	27.29
556.349	27.25
556.774	27.22
557.199	27.17
557.625	27.14
558.05	27.11
558.475	27.06
558.9	27.02
559.325	26.98
559.75	26.93
560.175	26.88
560.6	26.8
561.025	26.74
561.449	26.68
561.874	26.61
562.299	26.53
562.723	26.43
563.148	26.34
563.572	26.24
563.997	26.14
564.421	26.03
564.846	25.9
565.27	25.8
565.694	25.69
566.118	25.57
566.542	25.46
566.966	25.34
567.39	25.22
567.814	25.09
568.238	24.96
568.662	24.83
569.086	24.71
569.509	24.6
569.933	24.48
570.357	24.35
570.78	24.23
571.204	24.1
571.627	24
572.05	23.88
572.474	23.78
572.897	23.68
573.32	23.58
573.743	23.48
574.166	23.38
574.589	23.28
575.012	23.2
575.435	23.1
575.858	23.02
576.281	22.93
576.704	22.87
577.126	22.79
577.549	22.74
577.972	22.66
578.394	22.58
578.817	22.5
579.239	22.44
579.661	22.36
580.084	22.31
580.506	22.24
580.928	22.19
581.35	22.12
581.772	22.06
582.194	21.97
582.616	21.91
583.038	21.86
583.46	21.78
583.882	21.73
584.303	21.66
584.725	21.59
585.147	21.54
585.568	21.47
585.99	21.42
586.411	21.36
586.833	21.32
587.254	21.26
587.675	21.21
588.096	21.17
588.518	21.11
588.939	21.09
589.36	21.05
589.781	21.02
590.202	20.98
590.623	20.94
591.043	20.89
591.464	20.86
591.885	20.84
592.305	20.82
592.726	20.8
593.147	20.76
593.567	20.72
593.987	20.69
594.408	20.65
594.828	20.61
595.248	20.59
595.669	20.55
596.089	20.52
596.509	20.48
596.929	20.46
597.349	20.43
597.769	20.4
598.189	20.38
598.608	20.35
599.028	20.32
599.448	20.29
599.867	20.26
600.287	20.25
600.706	20.21
601.126	20.17
601.545	20.14
601.965	20.1
602.384	20.07
602.803	20.02
603.222	19.97
603.641	19.93
604.061	19.89
604.48	19.84
604.898	19.77
605.317	19.72
605.736	19.67
606.155	19.61
606.574	19.56
606.992	19.49
607.411	19.43
607.829	19.34
608.248	19.26
608.666	19.2
609.085	19.14
609.503	19.08
609.921	19.01
610.339	18.95
610.758	18.89
611.176	18.8
611.594	18.74
612.012	18.69
612.43	18.64
612.847	18.58
613.265	18.51
613.683	18.44
614.101	18.37
614.518	18.31
614.936	18.24
615.353	18.16
615.771	18.11
616.188	18.05
616.606	17.98
617.023	17.94
617.44	17.89
617.857	17.85
618.274	17.8
618.691	17.75
619.108	17.71
619.525	17.68
619.942	17.64
620.359	17.6
620.776	17.56
621.192	17.53
621.609	17.5
622.026	17.47
622.442	17.45
622.859	17.43
623.275	17.41
623.691	17.39
624.108	17.38
624.524	17.36
624.94	17.35
625.356	17.34
625.772	17.33
626.188	17.31
626.604	17.3
627.02	17.28
627.436	17.26
627.852	17.24
628.268	17.21
628.683	17.2
629.099	17.18
629.514	17.16
629.93	17.13
630.345	17.1
630.761	17.06
631.176	17.02
631.591	16.97
632.007	16.92
632.422	16.86
632.837	16.8
633.252	16.7
633.667	16.63
634.082	16.53
634.497	16.44
634.911	16.33
635.326	16.23
635.741	16.1
636.155	15.97
636.57	15.84
636.984	15.71
637.399	15.55
637.813	15.41
638.228	15.25
638.642	15.08
639.056	14.92
639.47	14.76
639.884	14.58
640.298	14.41
640.712	14.25
641.126	14.09
641.54	13.9
641.954	13.73
642.368	13.57
642.781	13.41
643.195	13.26
643.609	13.11
644.022	12.95
644.436	12.81
644.849	12.66
645.262	12.52
645.676	12.38
646.089	12.27
646.502	12.17
646.915	12.07
647.328	11.98
647.741	11.88
648.154	11.8
648.567	11.73
648.98	11.66
649.393	11.59
649.805	11.55
650.218	11.5
650.631	11.47
651.043	11.41
651.456	11.37
651.868	11.33
652.28	11.29
652.693	11.24
653.105	11.19
653.517	11.13
653.929	11.08
654.341	11.02
654.753	10.95
655.165	10.87
655.577	10.8
655.989	10.71
656.401	10.61
656.813	10.52
657.224	10.41
657.636	10.3
658.047	10.19
658.459	10.07
658.87	9.96
659.282	9.82
659.693	9.7
660.104	9.56
660.515	9.43
660.926	9.31
661.338	9.18
661.749	9.05
662.159	8.92
662.57	8.81
662.981	8.68
663.392	8.56
663.803	8.45
664.213	8.33
664.624	8.23
665.035	8.14
665.445	8.05
665.855	7.95
666.266	7.87
666.676	7.8
667.086	7.72
667.497	7.65
667.907	7.59
668.317	7.52
668.727	7.47
669.137	7.42
669.547	7.38
669.956	7.35
670.366	7.33
670.776	7.29
671.186	7.27
671.595	7.25
672.005	7.23
672.414	7.22
672.824	7.22
673.233	7.23
673.642	7.23
674.052	7.23
674.461	7.22
674.87	7.23
675.279	7.27
675.688	7.29
676.097	7.33
676.506	7.37
676.915	7.43
677.323	7.49
677.732	7.54
678.141	7.62
678.549	7.7
678.958	7.8
679.366	7.91
679.775	8.04
680.183	8.18
680.592	8.35
681	8.53
681.408	8.71
681.816	8.93
682.224	9.18
682.632	9.44
683.04	9.73
683.448	10.04
683.856	10.36
684.264	10.71
684.671	11.1
685.079	11.51
685.487	11.94
685.894	12.42
686.302	12.9
686.709	13.4
687.116	13.91
687.524	14.44
687.931	15.01
688.338	15.59
688.745	16.17
689.152	16.76
689.559	17.36
689.966	17.98
690.373	18.59
690.78	19.21
691.187	19.82
691.593	20.44
692	21.03
692.407	21.62
692.813	22.2
693.22	22.77
693.626	23.33
694.032	23.87
694.439	24.4
694.845	24.92
695.251	25.43
695.657	25.92
696.063	26.42
696.469	26.89
696.875	27.36
697.281	27.82
697.687	28.25
698.093	28.68
698.498	29.08
698.904	29.48
699.31	29.86
699.715	30.23
700.12	30.6
700.526	30.96
700.931	31.31
701.337	31.65
701.742	31.95
702.147	32.26
702.552	32.58
702.957	32.87
703.362	33.15
703.767	33.41
704.172	33.66
704.577	33.91
704.981	34.17
705.386	34.4
705.791	34.63
706.195	34.89
706.6	35.12
707.004	35.32
707.408	35.51
707.813	35.72
708.217	35.93
708.621	36.13
709.025	36.31
709.43	36.46
709.834	36.65
710.237	36.82
710.641	36.98
711.045	37.13
711.449	37.31
711.853	37.49
712.256	37.64
712.66	37.79
713.064	37.92
713.467	38.07
713.87	38.24
714.274	38.36
714.677	38.5
715.08	38.63
715.484	38.77
715.887	38.89
716.29	39.01
716.693	39.13
717.096	39.24
717.499	39.38
717.901	39.51
718.304	39.61
718.707	39.72
719.109	39.83
719.512	39.93
719.915	40.02
720.317	40.1
720.719	40.19
721.122	40.28
721.524	40.4
721.926	40.46
722.328	40.53
722.731	40.59
723.133	40.68
723.535	40.75
723.937	40.82
724.338	40.88
724.74	40.97
725.142	41.06
725.544	41.09
725.945	41.14
726.347	41.21
726.748	41.25
727.15	41.3
727.551	41.37
727.952	41.41
728.354	41.47
728.755	41.5
729.156	41.52
729.557	41.51
729.958	41.56
730.359	41.6
730.76	41.64
731.161	41.68
731.562	41.73
731.962	41.71
732.363	41.74
732.763	41.78
733.164	41.83
733.564	41.86
733.965	41.89
734.365	41.92
734.766	41.93
735.166	41.95
735.566	41.97
735.966	41.99
736.366	42.02
736.766	42.01
737.166	42.02
737.566	42.04
737.966	42.05
738.365	42.08
738.765	42.11
739.165	42.15
739.564	42.17
739.964	42.19
740.363	42.2
740.763	42.22
741.162	42.25
741.561	42.26
741.96	42.26
742.36	42.29
742.759	42.29
743.158	42.28
743.557	42.29
743.955	42.3
744.354	42.32
744.753	42.33
745.152	42.38
745.55	42.41
745.949	42.45
746.348	42.47
746.746	42.49
747.144	42.51
747.543	42.54
747.941	42.55
748.339	42.54
748.737	42.53
749.136	42.51
749.534	42.5
749.932	42.49
750.33	42.46
750.727	42.46
751.125	42.46
751.523	42.45
751.921	42.43
752.318	42.41
752.716	42.41
753.113	42.42
753.511	42.42
753.908	42.41
754.305	42.4
754.703	42.4
755.1	42.36
755.497	42.35
755.894	42.32
756.291	42.29
756.688	42.28
757.085	42.27
757.482	42.24
757.878	42.24
758.275	42.2
758.672	42.19
759.068	42.2
759.465	42.2
759.861	42.22
760.258	42.22
760.654	42.25
761.05	42.25
761.447	42.24
761.843	42.23
762.239	42.23
762.635	42.25
763.031	42.24
763.427	42.22
763.822	42.23
764.218	42.22
764.614	42.22
765.01	42.2
765.405	42.2
765.801	42.19
766.196	42.19
766.592	42.19
766.987	42.2
767.382	42.19
767.778	42.21
768.173	42.18
768.568	42.16
768.963	42.13
769.358	42.16
769.753	42.16
770.148	42.17
770.542	42.17
770.937	42.16
771.332	42.17
771.726	42.18
772.121	42.15
772.515	42.18
772.91	42.2
773.304	42.25
773.699	42.26
774.093	42.24
774.487	42.24
774.881	42.27
775.275	42.26
775.669	42.23
776.063	42.23
776.457	42.25
776.851	42.24
777.245	42.22
777.638	42.19
778.032	42.19
778.425	42.19
778.819	42.21
779.212	42.21
779.606	42.2
779.999	42.2
780.392	42.23
780.786	42.21
781.179	42.23
