Data from C_3_DEC_CT_2N_Splice17_13-55-00-936.txt Node
Date: Sat Mar 07 13:55:00 EST 2020
User: sa697716
Spectrometer: NQ5500242
Trigger mode: 0
Integration Time (sec): 1.450000E-1
Scans to average: 20
Nonlinearity correction enabled: false
Boxcar width: 5
Storing dark spectrum: false
XAxis mode: Wavelengths
Number of Pixels in Spectrum: 512
>>>>>Begin Spectral Data<<<<<
187.83	134.84
188.298	143.26
188.766	128.41
189.233	101.12
189.701	105.94
190.169	141.67
190.636	150.93
191.104	155
191.571	-117.11
192.039	-240.51
192.506	-659.11
192.974	67.39
193.441	54.91
193.908	66.32
194.375	34.34
194.842	-9.31
195.31	4.03
195.777	224.7
196.244	62.11
196.711	51.46
197.177	51.95
197.644	52.4
198.111	53.41
198.578	53.42
199.045	53.55
199.511	53.89
199.978	54.21
200.445	54.66
200.911	54.13
201.378	54.07
201.844	54.07
202.31	53.96
202.777	54.06
203.243	53.84
203.709	53.55
204.176	53.16
204.642	52.56
205.108	52.21
205.574	51.6
206.04	50.92
206.506	50.4
206.972	50.59
207.438	50.3
207.903	49.48
208.369	48.54
208.835	47.71
209.301	46.43
209.766	44.94
210.232	43.73
210.697	42.54
211.163	41.71
211.628	40.82
212.094	39.54
212.559	38.56
213.024	37.43
213.49	36.66
213.955	35.86
214.42	35
214.885	34.07
215.35	32.78
215.815	31.21
216.28	28.9
216.745	26.39
217.21	23.95
217.675	21.71
218.14	19.81
218.604	18.07
219.069	16.59
219.534	15.42
219.998	14.48
220.463	13.66
220.927	12.9
221.392	12.34
221.856	11.89
222.32	11.5
222.785	11.15
223.249	10.83
223.713	10.55
224.177	10.31
224.642	10.1
225.106	9.83
225.57	9.61
226.034	9.44
226.497	9.27
226.961	9.09
227.425	8.89
227.889	8.7
228.353	8.54
228.816	8.39
229.28	8.23
229.744	8.07
230.207	7.94
230.671	7.79
231.134	7.65
231.597	7.54
232.061	7.4
232.524	7.3
232.987	7.2
233.45	7.11
233.914	7.02
234.377	6.91
234.84	6.83
235.303	6.75
235.766	6.68
236.229	6.6
236.691	6.52
237.154	6.46
237.617	6.4
238.08	6.33
238.542	6.24
239.005	6.19
239.468	6.13
239.93	6.06
240.393	6
240.855	5.93
241.317	5.87
241.78	5.81
242.242	5.73
242.704	5.68
243.166	5.62
243.629	5.58
244.091	5.51
244.553	5.45
245.015	5.39
245.477	5.34
245.939	5.29
246.4	5.23
246.862	5.17
247.324	5.13
247.786	5.07
248.247	5.01
248.709	4.95
249.17	4.89
249.632	4.84
250.093	4.8
250.555	4.74
251.016	4.69
251.477	4.64
251.939	4.6
252.4	4.55
252.861	4.51
253.322	4.48
253.783	4.44
254.244	4.42
254.705	4.38
255.166	4.35
255.627	4.32
256.088	4.29
256.549	4.27
257.009	4.23
257.47	4.2
257.931	4.15
258.391	4.12
258.852	4.07
259.312	4.03
259.773	4
260.233	3.97
260.694	3.94
261.154	3.89
261.614	3.86
262.074	3.83
262.534	3.79
262.994	3.76
263.455	3.73
263.915	3.71
264.374	3.68
264.834	3.66
265.294	3.62
265.754	3.6
266.214	3.58
266.673	3.56
267.133	3.55
267.593	3.53
268.052	3.52
268.512	3.51
268.971	3.5
269.431	3.49
269.89	3.48
270.349	3.46
270.809	3.45
271.268	3.44
271.727	3.43
272.186	3.42
272.645	3.41
273.104	3.39
273.563	3.38
274.022	3.37
274.481	3.36
274.94	3.36
275.399	3.34
275.857	3.34
276.316	3.32
276.775	3.31
277.233	3.31
277.692	3.3
278.15	3.3
278.609	3.3
279.067	3.29
279.525	3.29
279.984	3.28
280.442	3.28
280.9	3.28
281.358	3.28
281.816	3.29
282.274	3.28
282.732	3.28
283.19	3.27
283.648	3.27
284.106	3.26
284.564	3.26
285.021	3.27
285.479	3.26
285.937	3.26
286.394	3.25
286.852	3.24
287.309	3.23
287.767	3.23
288.224	3.22
288.682	3.2
289.139	3.19
289.596	3.17
290.053	3.15
290.511	3.12
290.968	3.1
291.425	3.08
291.882	3.07
292.339	3.05
292.796	3.03
293.252	3.02
293.709	3.01
294.166	3
294.623	3
295.079	2.99
295.536	2.99
295.992	2.98
296.449	2.98
296.905	2.98
297.362	2.98
297.818	2.97
298.274	2.97
298.731	2.96
299.187	2.95
299.643	2.94
300.099	2.94
300.555	2.93
301.011	2.92
301.467	2.92
301.923	2.9
302.379	2.9
302.835	2.9
303.291	2.9
303.746	2.9
304.202	2.9
304.658	2.9
305.113	2.9
305.569	2.9
306.024	2.91
306.479	2.9
306.935	2.9
307.39	2.9
307.845	2.9
308.301	2.9
308.756	2.91
309.211	2.9
309.666	2.92
310.121	2.92
310.576	2.92
311.031	2.93
311.486	2.93
311.94	2.94
312.395	2.94
312.85	2.95
313.305	2.94
313.759	2.95
314.214	2.94
314.668	2.93
315.123	2.93
315.577	2.93
316.032	2.93
316.486	2.92
316.94	2.92
317.394	2.92
317.849	2.9
318.303	2.89
318.757	2.88
319.211	2.87
319.665	2.85
320.119	2.83
320.572	2.83
321.026	2.82
321.48	2.81
321.934	2.79
322.387	2.78
322.841	2.78
323.295	2.78
323.748	2.77
324.202	2.78
324.655	2.79
325.108	2.79
325.562	2.78
326.015	2.79
326.468	2.79
326.921	2.79
327.374	2.79
327.827	2.8
328.28	2.79
328.733	2.8
329.186	2.79
329.639	2.79
330.092	2.79
330.545	2.79
330.997	2.79
331.45	2.79
331.903	2.8
332.355	2.81
332.808	2.8
333.26	2.81
333.713	2.82
334.165	2.81
334.617	2.81
335.069	2.81
335.522	2.82
335.974	2.82
336.426	2.83
336.878	2.82
337.33	2.81
337.782	2.82
338.234	2.81
338.686	2.81
339.137	2.81
339.589	2.8
340.041	2.81
340.493	2.8
340.944	2.78
341.396	2.77
341.847	2.76
342.299	2.75
342.75	2.75
343.201	2.74
343.653	2.72
344.104	2.7
344.555	2.69
345.006	2.68
345.457	2.67
345.908	2.67
346.359	2.67
346.81	2.67
347.261	2.66
347.712	2.64
348.163	2.64
348.613	2.64
349.064	2.65
349.515	2.66
349.965	2.65
350.416	2.65
350.866	2.65
351.317	2.64
351.767	2.65
352.217	2.65
352.668	2.66
353.118	2.66
353.568	2.66
354.018	2.66
354.468	2.67
354.918	2.67
355.368	2.68
355.818	2.68
356.268	2.68
356.718	2.68
357.168	2.68
357.617	2.68
358.067	2.68
358.517	2.69
358.966	2.69
359.416	2.69
359.865	2.69
360.315	2.68
360.764	2.69
361.213	2.68
361.663	2.67
362.112	2.68
362.561	2.68
363.01	2.68
363.459	2.66
363.908	2.66
364.357	2.66
364.806	2.64
365.255	2.65
365.703	2.65
366.152	2.65
366.601	2.65
367.05	2.66
367.498	2.66
367.947	2.67
368.395	2.67
368.844	2.67
369.292	2.67
369.74	2.68
370.189	2.68
370.637	2.67
371.085	2.67
371.533	2.67
371.981	2.66
372.429	2.65
372.877	2.65
373.325	2.64
373.773	2.64
374.221	2.63
374.669	2.63
375.116	2.62
375.564	2.62
376.012	2.62
376.459	2.61
376.907	2.61
377.354	2.61
377.801	2.61
378.249	2.61
378.696	2.61
379.143	2.61
379.591	2.61
380.038	2.61
380.485	2.61
380.932	2.62
381.379	2.62
381.826	2.61
382.273	2.62
382.72	2.6
383.166	2.6
383.613	2.6
384.06	2.6
384.506	2.59
384.953	2.59
385.4	2.59
385.846	2.59
386.292	2.59
386.739	2.58
387.185	2.58
387.631	2.59
388.078	2.59
388.524	2.59
388.97	2.59
389.416	2.61
389.862	2.62
390.308	2.64
390.754	2.65
391.2	2.67
391.645	2.68
392.091	2.71
392.537	2.72
392.983	2.73
393.428	2.76
393.874	2.77
394.319	2.78
394.765	2.78
395.21	2.78
395.655	2.79
396.101	2.8
396.546	2.8
396.991	2.81
397.436	2.83
397.881	2.86
398.326	2.88
398.771	2.9
399.216	2.92
399.661	2.95
400.106	2.97
400.551	2.98
400.995	2.99
401.44	3
401.885	3.01
402.329	3.03
402.774	3.03
403.218	3.05
403.663	3.07
404.107	3.1
404.551	3.1
404.995	3.12
405.44	3.12
405.884	3.15
406.328	3.17
406.772	3.19
407.216	3.2
407.66	3.21
408.104	3.21
408.547	3.23
408.991	3.23
409.435	3.25
409.879	3.28
410.322	3.31
410.766	3.34
411.209	3.36
411.653	3.39
412.096	3.42
412.54	3.43
412.983	3.46
413.426	3.49
413.869	3.52
414.312	3.55
414.756	3.57
415.199	3.57
415.642	3.59
416.085	3.59
416.527	3.6
416.97	3.59
417.413	3.59
417.856	3.59
418.298	3.59
418.741	3.58
419.184	3.57
419.626	3.57
420.069	3.6
420.511	3.6
420.953	3.61
421.396	3.62
421.838	3.63
422.28	3.65
422.722	3.68
423.164	3.69
423.606	3.7
424.048	3.72
424.49	3.72
424.932	3.72
425.374	3.7
425.816	3.68
426.258	3.67
426.699	3.67
427.141	3.67
427.582	3.67
428.024	3.69
428.465	3.7
428.907	3.7
429.348	3.69
429.789	3.69
430.231	3.71
430.672	3.74
431.113	3.77
431.554	3.8
431.995	3.81
432.436	3.83
432.877	3.84
433.318	3.87
433.759	3.9
434.2	3.95
434.64	3.99
435.081	4.02
435.522	4.05
435.962	4.08
436.403	4.1
436.843	4.12
437.284	4.12
437.724	4.11
438.164	4.1
438.604	4.11
439.045	4.1
439.485	4.1
439.925	4.09
440.365	4.08
440.805	4.06
441.245	4.07
441.685	4.08
442.125	4.09
442.564	4.1
443.004	4.11
443.444	4.12
443.883	4.12
444.323	4.11
444.762	4.11
445.202	4.11
445.641	4.12
446.081	4.12
446.52	4.11
446.959	4.14
447.398	4.15
447.837	4.16
448.276	4.16
448.716	4.16
449.154	4.19
449.593	4.21
450.032	4.2
450.471	4.19
450.91	4.18
451.349	4.18
451.787	4.16
452.226	4.14
452.664	4.13
453.103	4.12
453.541	4.1
453.98	4.09
454.418	4.06
454.856	4.06
455.295	4.06
455.733	4.03
456.171	4.02
456.609	4.01
457.047	3.99
457.485	3.98
457.923	3.98
458.361	3.97
458.798	3.96
459.236	3.95
459.674	3.95
460.111	3.93
460.549	3.95
460.987	3.96
461.424	3.96
461.862	3.96
462.299	3.96
462.736	3.96
463.173	3.97
463.611	3.97
464.048	3.99
464.485	3.99
464.922	3.99
465.359	3.99
465.796	4
466.233	4.01
466.67	4.03
467.106	4.05
467.543	4.05
467.98	4.06
468.416	4.05
468.853	4.04
469.29	4.04
469.726	4.04
470.162	4.02
470.599	4
471.035	3.98
471.471	3.97
471.907	3.95
472.344	3.94
472.78	3.94
473.216	3.91
473.652	3.91
474.088	3.9
474.523	3.9
474.959	3.89
475.395	3.88
475.831	3.89
476.266	3.89
476.702	3.86
477.138	3.85
477.573	3.84
478.008	3.84
478.444	3.81
478.879	3.81
479.314	3.8
479.75	3.78
480.185	3.77
480.62	3.75
481.055	3.73
481.49	3.72
481.925	3.71
482.36	3.71
482.795	3.7
483.229	3.69
483.664	3.68
484.099	3.67
484.534	3.66
484.968	3.66
485.403	3.66
485.837	3.65
486.271	3.65
486.706	3.64
487.14	3.63
487.574	3.63
488.009	3.64
488.443	3.64
488.877	3.64
489.311	3.66
489.745	3.66
490.179	3.67
490.613	3.69
491.046	3.69
491.48	3.71
491.914	3.73
492.348	3.74
492.781	3.76
493.215	3.77
493.648	3.79
494.082	3.81
494.515	3.82
494.948	3.84
495.382	3.85
495.815	3.88
496.248	3.91
496.681	3.93
497.114	3.96
497.547	3.99
497.98	4.03
498.413	4.05
498.846	4.09
499.279	4.13
499.711	4.17
500.144	4.21
500.577	4.25
501.009	4.3
501.442	4.35
501.874	4.4
502.306	4.46
502.739	4.52
503.171	4.58
503.603	4.64
504.036	4.72
504.468	4.79
504.9	4.86
505.332	4.94
505.764	5.02
506.196	5.11
506.627	5.2
507.059	5.3
507.491	5.39
507.923	5.51
508.354	5.64
508.786	5.76
509.217	5.89
509.649	6.03
510.08	6.17
510.512	6.31
510.943	6.47
511.374	6.62
511.805	6.78
512.237	6.94
512.668	7.11
513.099	7.28
513.53	7.47
513.961	7.66
514.391	7.86
514.822	8.08
515.253	8.29
515.684	8.49
516.114	8.72
516.545	8.95
516.975	9.18
517.406	9.41
517.836	9.64
518.267	9.88
518.697	10.12
519.127	10.35
519.558	10.6
519.988	10.83
520.418	11.07
520.848	11.3
521.278	11.54
521.708	11.96
522.138	12.2
522.567	12.41
522.997	12.62
523.427	12.84
523.857	13.06
524.286	13.25
524.716	13.48
525.145	13.69
525.575	13.9
526.004	14.1
526.433	14.11
526.863	14.29
527.292	14.48
527.721	14.67
528.15	14.84
528.579	15.01
529.008	15.17
529.437	15.3
529.866	15.45
530.295	15.59
530.724	15.73
531.152	15.86
531.581	15.99
532.01	16.11
532.438	16.2
532.867	16.32
533.295	16.41
533.723	16.51
534.152	16.61
534.58	16.69
535.008	16.76
535.436	16.83
535.865	16.89
536.293	16.94
536.721	17.01
537.149	17.08
537.576	17.13
538.004	17.19
538.432	17.24
538.86	17.28
539.287	17.32
539.715	17.37
540.143	17.39
540.57	17.43
540.998	17.46
541.425	17.5
541.852	17.53
542.28	17.56
542.707	17.58
543.134	17.61
543.561	17.65
543.988	17.68
544.415	17.71
544.842	17.74
545.269	17.78
545.696	17.83
546.123	17.85
546.549	17.89
546.976	17.92
547.403	17.96
547.829	18
548.256	18.01
548.682	18.05
549.108	18.08
549.535	18.1
549.961	18.11
550.387	18.11
550.813	18.12
551.24	18.1
551.666	18.1
552.092	18.09
552.518	18.08
552.943	18.06
553.369	18.03
553.795	17.98
554.221	17.95
554.646	17.92
555.072	17.87
555.498	17.81
555.923	17.75
556.349	17.68
556.774	17.61
557.199	17.54
557.625	17.46
558.05	17.37
558.475	17.29
558.9	17.2
559.325	17.1
559.75	17.01
560.175	16.9
560.6	16.78
561.025	16.68
561.449	16.56
561.874	16.42
562.299	16.3
562.723	16.17
563.148	16.02
563.572	15.89
563.997	15.74
564.421	15.56
564.846	15.4
565.27	15.25
565.694	15.1
566.118	14.93
566.542	14.79
566.966	14.63
567.39	14.47
567.814	14.31
568.238	14.14
568.662	13.98
569.086	13.84
569.509	13.7
569.933	13.54
570.357	13.39
570.78	13.25
571.204	13.09
571.627	12.96
572.05	12.81
572.474	12.68
572.897	12.57
573.32	12.45
573.743	12.32
574.166	12.21
574.589	12.09
575.012	11.96
575.435	11.86
575.858	11.76
576.281	11.65
576.704	11.55
577.126	11.45
577.549	11.34
577.972	11.25
578.394	11.16
578.817	11.09
579.239	11.01
579.661	10.94
580.084	10.86
580.506	10.79
580.928	10.72
581.35	10.65
581.772	10.58
582.194	10.53
582.616	10.46
583.038	10.39
583.46	10.32
583.882	10.26
584.303	10.19
584.725	10.14
585.147	10.1
585.568	10.06
585.99	10.01
586.411	9.97
586.833	9.91
587.254	9.86
587.675	9.81
588.096	9.76
588.518	9.72
588.939	9.68
589.36	9.64
589.781	9.59
590.202	9.56
590.623	9.52
591.043	9.47
591.464	9.45
591.885	9.41
592.305	9.38
592.726	9.37
593.147	9.34
593.567	9.3
593.987	9.28
594.408	9.25
594.828	9.2
595.248	9.17
595.669	9.16
596.089	9.13
596.509	9.1
596.929	9.07
597.349	9.03
597.769	9.01
598.189	8.98
598.608	8.94
599.028	8.91
599.448	8.88
599.867	8.84
600.287	8.8
600.706	8.77
601.126	8.73
601.545	8.7
601.965	8.66
602.384	8.61
602.803	8.57
603.222	8.52
603.641	8.47
604.061	8.42
604.48	8.37
604.898	8.31
605.317	8.26
605.736	8.21
606.155	8.16
606.574	8.11
606.992	8.05
607.411	8
607.829	7.92
608.248	7.85
608.666	7.79
609.085	7.73
609.503	7.69
609.921	7.63
610.339	7.57
610.758	7.51
611.176	7.45
611.594	7.41
612.012	7.34
612.43	7.31
612.847	7.25
613.265	7.2
613.683	7.15
614.101	7.1
614.518	7.05
614.936	6.99
615.353	6.93
615.771	6.89
616.188	6.85
616.606	6.81
617.023	6.77
617.44	6.74
617.857	6.7
618.274	6.66
618.691	6.62
619.108	6.59
619.525	6.56
619.942	6.55
620.359	6.53
620.776	6.51
621.192	6.49
621.609	6.47
622.026	6.45
622.442	6.43
622.859	6.41
623.275	6.41
623.691	6.4
624.108	6.39
624.524	6.37
624.94	6.35
625.356	6.34
625.772	6.33
626.188	6.32
626.604	6.32
627.02	6.3
627.436	6.3
627.852	6.29
628.268	6.28
628.683	6.29
629.099	6.29
629.514	6.28
629.93	6.27
630.345	6.26
630.761	6.24
631.176	6.24
631.591	6.23
632.007	6.21
632.422	6.19
632.837	6.16
633.252	6.12
633.667	6.08
634.082	6.04
634.497	6.01
634.911	5.98
635.326	5.93
635.741	5.89
636.155	5.83
636.57	5.79
636.984	5.74
637.399	5.68
637.813	5.63
638.228	5.57
638.642	5.51
639.056	5.44
639.47	5.38
639.884	5.33
640.298	5.27
640.712	5.21
641.126	5.15
641.54	5.09
641.954	5.04
642.368	4.99
642.781	4.94
643.195	4.89
643.609	4.86
644.022	4.8
644.436	4.76
644.849	4.71
645.262	4.66
645.676	4.61
646.089	4.58
646.502	4.55
646.915	4.52
647.328	4.47
647.741	4.44
648.154	4.41
648.567	4.4
648.98	4.37
649.393	4.36
649.805	4.35
650.218	4.33
650.631	4.32
651.043	4.3
651.456	4.28
651.868	4.26
652.28	4.24
652.693	4.22
653.105	4.2
653.517	4.17
653.929	4.16
654.341	4.13
654.753	4.11
655.165	4.08
655.577	4.06
655.989	4.03
656.401	4
656.813	3.99
657.224	3.96
657.636	3.92
658.047	3.9
658.459	3.87
658.87	3.84
659.282	3.81
659.693	3.79
660.104	3.75
660.515	3.73
660.926	3.71
661.338	3.67
661.749	3.65
662.159	3.64
662.57	3.63
662.981	3.61
663.392	3.6
663.803	3.59
664.213	3.56
664.624	3.56
665.035	3.54
665.445	3.53
665.855	3.54
666.266	3.54
666.676	3.54
667.086	3.52
667.497	3.52
667.907	3.52
668.317	3.53
668.727	3.54
669.137	3.55
669.547	3.56
669.956	3.57
670.366	3.57
670.776	3.57
671.186	3.58
671.595	3.59
672.005	3.59
672.414	3.61
672.824	3.62
673.233	3.63
673.642	3.64
674.052	3.66
674.461	3.68
674.87	3.7
675.279	3.73
675.688	3.75
676.097	3.77
676.506	3.8
676.915	3.81
677.323	3.83
677.732	3.84
678.141	3.87
678.549	3.9
678.958	3.92
679.366	3.95
679.775	3.96
680.183	4
680.592	4.03
681	4.07
681.408	4.11
681.816	4.15
682.224	4.19
682.632	4.23
683.04	4.27
683.448	4.32
683.856	4.37
684.264	4.42
684.671	4.48
685.079	4.55
685.487	4.63
685.894	4.74
686.302	4.85
686.709	4.98
687.116	5.11
687.524	5.27
687.931	5.44
688.338	5.63
688.745	5.86
689.152	6.08
689.559	6.35
689.966	6.63
690.373	6.92
690.78	7.24
691.187	7.58
691.593	7.96
692	8.36
692.407	8.75
692.813	9.18
693.22	9.62
693.626	10.1
694.032	10.6
694.439	11.1
694.845	11.64
695.251	12.17
695.657	12.72
696.063	13.28
696.469	13.87
696.875	14.48
697.281	15.09
697.687	15.71
698.093	16.33
698.498	16.96
698.904	17.58
699.31	18.19
699.715	18.84
700.12	19.49
700.526	20.12
700.931	20.76
701.337	21.4
701.742	22.03
702.147	22.65
702.552	23.28
702.957	23.89
703.362	24.51
703.767	25.13
704.172	25.74
704.577	26.34
704.981	26.97
705.386	27.58
705.791	28.2
706.195	28.81
706.6	29.44
707.004	30.03
707.408	30.65
707.813	31.27
708.217	31.88
708.621	32.48
709.025	33.06
709.43	33.62
709.834	34.2
710.237	34.77
710.641	35.34
711.045	35.88
711.449	36.45
711.853	37.02
712.256	37.56
712.66	38.11
713.064	38.64
713.467	39.18
713.87	39.72
714.274	40.22
714.677	40.74
715.08	41.25
715.484	41.76
715.887	42.27
716.29	42.73
716.693	43.21
717.096	43.69
717.499	44.16
717.901	44.63
718.304	45.11
718.707	45.61
719.109	46.03
719.512	46.47
719.915	46.9
720.317	47.3
720.719	47.72
721.122	48.14
721.524	48.55
721.926	48.95
722.328	49.33
722.731	49.71
723.133	50.06
723.535	50.44
723.937	50.79
724.338	51.13
724.74	51.46
725.142	51.94
725.544	52.25
725.945	52.59
726.347	52.87
726.748	53.16
727.15	53.41
727.551	53.7
727.952	53.96
728.354	54.23
728.755	54.49
729.156	54.74
729.557	54.81
729.958	55.03
730.359	55.23
730.76	55.48
731.161	55.68
731.562	55.92
731.962	56.11
732.363	56.31
732.763	56.48
733.164	56.66
733.564	56.85
733.965	57.03
734.365	57.2
734.766	57.36
735.166	57.53
735.566	57.68
735.966	57.82
736.366	57.94
736.766	58.06
737.166	58.2
737.566	58.3
737.966	58.42
738.365	58.55
738.765	58.68
739.165	58.77
739.564	58.86
739.964	58.96
740.363	59.04
740.763	59.16
741.162	59.29
741.561	59.39
741.96	59.48
742.36	59.56
742.759	59.62
743.158	59.68
743.557	59.73
743.955	59.79
744.354	59.87
744.753	59.96
745.152	60.03
745.55	60.05
745.949	60.09
746.348	60.18
746.746	60.23
747.144	60.31
747.543	60.36
747.941	60.42
748.339	60.47
748.737	60.5
749.136	60.51
749.534	60.52
749.932	60.55
750.33	60.56
750.727	60.57
751.125	60.6
751.523	60.58
751.921	60.6
752.318	60.65
752.716	60.69
753.113	60.71
753.511	60.74
753.908	60.77
754.305	60.82
754.703	60.86
755.1	60.87
755.497	60.89
755.894	60.93
756.291	60.95
756.688	60.93
757.085	60.95
757.482	60.95
757.878	61.01
758.275	61.01
758.672	61.01
759.068	61.05
759.465	61.06
759.861	61.06
760.258	61.06
760.654	61.06
761.05	61.1
761.447	61.11
761.843	61.11
762.239	61.08
762.635	61.09
763.031	61.09
763.427	61.05
763.822	61.08
764.218	61.09
764.614	61.09
765.01	61.1
765.405	61.07
765.801	61.06
766.196	61.05
766.592	61.05
766.987	61.07
767.382	61.08
767.778	61.1
768.173	61.09
768.568	61.08
768.963	61.1
769.358	61.12
769.753	61.14
770.148	61.13
770.542	61.16
770.937	61.16
771.332	61.14
771.726	61.15
772.121	61.18
772.515	61.18
772.91	61.2
773.304	61.22
773.699	61.21
774.093	61.22
774.487	61.21
774.881	61.23
775.275	61.22
775.669	61.21
776.063	61.17
776.457	61.16
776.851	61.15
777.245	61.1
777.638	61.08
778.032	61.08
778.425	61.11
778.819	61.09
779.212	61.11
779.606	61.14
779.999	61.16
780.392	61.21
780.786	61.2
781.179	61.24
781.572	61.3
781.965	61.33
782.358	61.35
782.751	61.36
783.143	61.38
783.536	61.36
783.929	61.37
784.322	61.39
784.714	61.38
785.107	61.4
785.499	61.4
785.891	61.39
786.284	61.39
786.676	61.39
787.068	61.38
787.46	61.42
