Data from C_3_DEC_NC_4N_Splice17_13-58-27-412.txt Node
Date: Sat Mar 07 13:58:27 EST 2020
User: sa697716
Spectrometer: NQ5500242
Trigger mode: 0
Integration Time (sec): 1.450000E-1
Scans to average: 20
Nonlinearity correction enabled: false
Boxcar width: 5
Storing dark spectrum: false
XAxis mode: Wavelengths
Number of Pixels in Spectrum: 512
>>>>>Begin Spectral Data<<<<<
187.83	225.26
188.298	242.7
188.766	226.19
189.233	181.01
189.701	193.27
190.169	210.25
190.636	211.46
191.104	261.88
191.571	107.93
192.039	71.33
192.506	-344.11
192.974	167.91
193.441	252.54
193.908	184.49
194.375	126.01
194.842	69.43
195.31	109.88
195.777	120.13
196.244	44.08
196.711	42.7
197.177	44.57
197.644	43.08
198.111	42.73
198.578	43.18
199.045	43.14
199.511	43.14
199.978	43.71
200.445	43.8
200.911	43.62
201.378	43.8
201.844	43.84
202.31	43.65
202.777	43.93
203.243	44.1
203.709	43.66
204.176	43.36
204.642	43.26
205.108	43.07
205.574	42.53
206.04	42.03
206.506	41.57
206.972	41.35
207.438	40.96
207.903	40.26
208.369	39.5
208.835	38.99
209.301	38.33
209.766	37.16
210.232	36.34
210.697	35.56
211.163	34.93
211.628	34.04
212.094	33.12
212.559	32.58
213.024	31.84
213.49	31.2
213.955	30.43
214.42	29.82
214.885	29
215.35	27.91
215.815	26.56
216.28	24.93
216.745	23.25
217.21	21.53
217.675	19.77
218.14	18.47
218.604	17.27
219.069	16.24
219.534	15.4
219.998	14.74
220.463	14.15
220.927	13.61
221.392	13.21
221.856	12.83
222.32	12.52
222.785	12.28
223.249	12
223.713	11.74
224.177	11.56
224.642	11.34
225.106	11.11
225.57	10.89
226.034	10.74
226.497	10.58
226.961	10.4
227.425	10.24
227.889	10.1
228.353	9.94
228.816	9.82
229.28	9.69
229.744	9.54
230.207	9.42
230.671	9.31
231.134	9.18
231.597	9.09
232.061	8.99
232.524	8.89
232.987	8.79
233.45	8.7
233.914	8.6
234.377	8.49
234.84	8.4
235.303	8.32
235.766	8.25
236.229	8.17
236.691	8.06
237.154	7.98
237.617	7.91
238.08	7.82
238.542	7.74
239.005	7.68
239.468	7.61
239.93	7.56
240.393	7.51
240.855	7.41
241.317	7.34
241.78	7.27
242.242	7.2
242.704	7.13
243.166	7.07
243.629	7.02
244.091	6.96
244.553	6.9
245.015	6.84
245.477	6.77
245.939	6.73
246.4	6.68
246.862	6.63
247.324	6.57
247.786	6.53
248.247	6.47
248.709	6.4
249.17	6.34
249.632	6.3
250.093	6.26
250.555	6.21
251.016	6.17
251.477	6.13
251.939	6.1
252.4	6.07
252.861	6.03
253.322	6.01
253.783	5.98
254.244	5.95
254.705	5.91
255.166	5.87
255.627	5.84
256.088	5.81
256.549	5.77
257.009	5.73
257.47	5.7
257.931	5.65
258.391	5.62
258.852	5.58
259.312	5.55
259.773	5.52
260.233	5.49
260.694	5.46
261.154	5.42
261.614	5.4
262.074	5.37
262.534	5.34
262.994	5.32
263.455	5.29
263.915	5.27
264.374	5.24
264.834	5.23
265.294	5.2
265.754	5.19
266.214	5.16
266.673	5.14
267.133	5.13
267.593	5.12
268.052	5.11
268.512	5.1
268.971	5.08
269.431	5.07
269.89	5.05
270.349	5.04
270.809	5.03
271.268	5.03
271.727	5.02
272.186	5
272.645	4.99
273.104	4.97
273.563	4.96
274.022	4.94
274.481	4.94
274.94	4.93
275.399	4.91
275.857	4.89
276.316	4.87
276.775	4.86
277.233	4.85
277.692	4.84
278.15	4.84
278.609	4.83
279.067	4.82
279.525	4.8
279.984	4.79
280.442	4.78
280.9	4.77
281.358	4.76
281.816	4.75
282.274	4.73
282.732	4.72
283.19	4.7
283.648	4.69
284.106	4.67
284.564	4.66
285.021	4.65
285.479	4.64
285.937	4.62
286.394	4.62
286.852	4.61
287.309	4.59
287.767	4.57
288.224	4.56
288.682	4.54
289.139	4.52
289.596	4.51
290.053	4.48
290.511	4.47
290.968	4.45
291.425	4.42
291.882	4.4
292.339	4.39
292.796	4.37
293.252	4.35
293.709	4.34
294.166	4.33
294.623	4.32
295.079	4.3
295.536	4.3
295.992	4.29
296.449	4.28
296.905	4.27
297.362	4.26
297.818	4.26
298.274	4.25
298.731	4.24
299.187	4.23
299.643	4.22
300.099	4.22
300.555	4.21
301.011	4.19
301.467	4.18
301.923	4.16
302.379	4.16
302.835	4.15
303.291	4.14
303.746	4.13
304.202	4.13
304.658	4.13
305.113	4.12
305.569	4.11
306.024	4.1
306.479	4.09
306.935	4.09
307.39	4.08
307.845	4.08
308.301	4.07
308.756	4.08
309.211	4.07
309.666	4.07
310.121	4.06
310.576	4.07
311.031	4.07
311.486	4.06
311.94	4.06
312.395	4.05
312.85	4.05
313.305	4.04
313.759	4.04
314.214	4.03
314.668	4.01
315.123	4.01
315.577	4
316.032	3.98
316.486	3.98
316.94	3.98
317.394	3.97
317.849	3.96
318.303	3.95
318.757	3.93
319.211	3.92
319.665	3.92
320.119	3.9
320.572	3.89
321.026	3.89
321.48	3.87
321.934	3.86
322.387	3.84
322.841	3.83
323.295	3.83
323.748	3.83
324.202	3.82
324.655	3.81
325.108	3.81
325.562	3.8
326.015	3.8
326.468	3.8
326.921	3.79
327.374	3.79
327.827	3.79
328.28	3.78
328.733	3.77
329.186	3.77
329.639	3.77
330.092	3.77
330.545	3.78
330.997	3.77
331.45	3.77
331.903	3.78
332.355	3.79
332.808	3.79
333.26	3.78
333.713	3.77
334.165	3.77
334.617	3.78
335.069	3.76
335.522	3.75
335.974	3.75
336.426	3.74
336.878	3.74
337.33	3.73
337.782	3.73
338.234	3.73
338.686	3.72
339.137	3.73
339.589	3.71
340.041	3.72
340.493	3.71
340.944	3.69
341.396	3.69
341.847	3.68
342.299	3.67
342.75	3.65
343.201	3.64
343.653	3.63
344.104	3.61
344.555	3.59
345.006	3.57
345.457	3.56
345.908	3.56
346.359	3.55
346.81	3.54
347.261	3.53
347.712	3.53
348.163	3.52
348.613	3.52
349.064	3.52
349.515	3.52
349.965	3.52
350.416	3.51
350.866	3.51
351.317	3.5
351.767	3.5
352.217	3.5
352.668	3.5
353.118	3.5
353.568	3.49
354.018	3.5
354.468	3.5
354.918	3.51
355.368	3.52
355.818	3.52
356.268	3.51
356.718	3.52
357.168	3.52
357.617	3.51
358.067	3.51
358.517	3.52
358.966	3.52
359.416	3.52
359.865	3.52
360.315	3.52
360.764	3.52
361.213	3.52
361.663	3.51
362.112	3.52
362.561	3.53
363.01	3.53
363.459	3.52
363.908	3.52
364.357	3.53
364.806	3.52
365.255	3.52
365.703	3.53
366.152	3.54
366.601	3.53
367.05	3.53
367.498	3.53
367.947	3.54
368.395	3.55
368.844	3.55
369.292	3.54
369.74	3.55
370.189	3.54
370.637	3.55
371.085	3.54
371.533	3.55
371.981	3.56
372.429	3.57
372.877	3.58
373.325	3.58
373.773	3.58
374.221	3.59
374.669	3.6
375.116	3.6
375.564	3.61
376.012	3.62
376.459	3.62
376.907	3.63
377.354	3.65
377.801	3.66
378.249	3.67
378.696	3.69
379.143	3.71
379.591	3.72
380.038	3.74
380.485	3.76
380.932	3.77
381.379	3.8
381.826	3.81
382.273	3.82
382.72	3.83
383.166	3.84
383.613	3.85
384.06	3.87
384.506	3.89
384.953	3.91
385.4	3.92
385.846	3.96
386.292	3.97
386.739	3.99
387.185	4.01
387.631	4.04
388.078	4.07
388.524	4.08
388.97	4.1
389.416	4.12
389.862	4.15
390.308	4.18
390.754	4.2
391.2	4.23
391.645	4.25
392.091	4.29
392.537	4.32
392.983	4.34
393.428	4.38
393.874	4.4
394.319	4.43
394.765	4.45
395.21	4.47
395.655	4.49
396.101	4.51
396.546	4.52
396.991	4.53
397.436	4.55
397.881	4.57
398.326	4.59
398.771	4.62
399.216	4.63
399.661	4.66
400.106	4.67
400.551	4.68
400.995	4.69
401.44	4.7
401.885	4.71
402.329	4.72
402.774	4.73
403.218	4.75
403.663	4.76
404.107	4.77
404.551	4.77
404.995	4.77
405.44	4.77
405.884	4.78
406.328	4.8
406.772	4.79
407.216	4.79
407.66	4.8
408.104	4.78
408.547	4.79
408.991	4.8
409.435	4.79
409.879	4.8
410.322	4.81
410.766	4.83
411.209	4.83
411.653	4.84
412.096	4.86
412.54	4.87
412.983	4.88
413.426	4.89
413.869	4.91
414.312	4.94
414.756	4.95
415.199	4.96
415.642	4.96
416.085	4.98
416.527	4.97
416.97	4.96
417.413	4.95
417.856	4.95
418.298	4.94
418.741	4.93
419.184	4.92
419.626	4.91
420.069	4.9
420.511	4.91
420.953	4.91
421.396	4.93
421.838	4.93
422.28	4.94
422.722	4.95
423.164	4.96
423.606	4.97
424.048	4.98
424.49	4.97
424.932	4.97
425.374	4.93
425.816	4.91
426.258	4.89
426.699	4.88
427.141	4.87
427.582	4.85
428.024	4.84
428.465	4.84
428.907	4.82
429.348	4.81
429.789	4.8
430.231	4.83
430.672	4.84
431.113	4.87
431.554	4.88
431.995	4.9
432.436	4.91
432.877	4.91
433.318	4.92
433.759	4.94
434.2	4.97
434.64	5
435.081	5
435.522	5.02
435.962	5.02
436.403	5.04
436.843	5.05
437.284	5.06
437.724	5.07
438.164	5.06
438.604	5.07
439.045	5.08
439.485	5.08
439.925	5.09
440.365	5.08
440.805	5.09
441.245	5.1
441.685	5.12
442.125	5.15
442.564	5.16
443.004	5.18
443.444	5.2
443.883	5.23
444.323	5.24
444.762	5.26
445.202	5.29
445.641	5.31
446.081	5.33
446.52	5.33
446.959	5.35
447.398	5.37
447.837	5.4
448.276	5.42
448.716	5.42
449.154	5.45
449.593	5.47
450.032	5.47
450.471	5.47
450.91	5.48
451.349	5.5
451.787	5.5
452.226	5.5
452.664	5.51
453.103	5.51
453.541	5.52
453.98	5.52
454.418	5.5
454.856	5.51
455.295	5.5
455.733	5.48
456.171	5.49
456.609	5.48
457.047	5.47
457.485	5.45
457.923	5.45
458.361	5.44
458.798	5.43
459.236	5.43
459.674	5.42
460.111	5.42
460.549	5.43
460.987	5.43
461.424	5.43
461.862	5.45
462.299	5.46
462.736	5.46
463.173	5.47
463.611	5.48
464.048	5.48
464.485	5.48
464.922	5.48
465.359	5.47
465.796	5.47
466.233	5.47
466.67	5.47
467.106	5.47
467.543	5.47
467.98	5.45
468.416	5.44
468.853	5.44
469.29	5.45
469.726	5.45
470.162	5.45
470.599	5.44
471.035	5.44
471.471	5.45
471.907	5.45
472.344	5.45
472.78	5.47
473.216	5.47
473.652	5.48
474.088	5.46
474.523	5.48
474.959	5.48
475.395	5.47
475.831	5.46
476.266	5.46
476.702	5.44
477.138	5.44
477.573	5.45
478.008	5.45
478.444	5.45
478.879	5.46
479.314	5.45
479.75	5.46
480.185	5.46
480.62	5.46
481.055	5.46
481.49	5.46
481.925	5.46
482.36	5.47
482.795	5.46
483.229	5.46
483.664	5.47
484.099	5.47
484.534	5.48
484.968	5.5
485.403	5.51
485.837	5.52
486.271	5.55
486.706	5.57
487.14	5.59
487.574	5.62
488.009	5.64
488.443	5.66
488.877	5.71
489.311	5.74
489.745	5.77
490.179	5.81
490.613	5.86
491.046	5.9
491.48	5.95
491.914	6
492.348	6.04
492.781	6.11
493.215	6.17
493.648	6.22
494.082	6.29
494.515	6.35
494.948	6.43
495.382	6.49
495.815	6.57
496.248	6.65
496.681	6.75
497.114	6.84
497.547	6.93
497.98	7.03
498.413	7.14
498.846	7.25
499.279	7.37
499.711	7.48
500.144	7.6
500.577	7.73
501.009	7.85
501.442	7.97
501.874	8.13
502.306	8.27
502.739	8.42
503.171	8.58
503.603	8.73
504.036	8.91
504.468	9.08
504.9	9.25
505.332	9.43
505.764	9.62
506.196	9.81
506.627	10.01
507.059	10.22
507.491	10.43
507.923	10.64
508.354	10.87
508.786	11.09
509.217	11.33
509.649	11.57
510.08	11.81
510.512	12.06
510.943	12.32
511.374	12.56
511.805	12.82
512.237	13.07
512.668	13.33
513.099	13.6
513.53	13.87
513.961	14.14
514.391	14.41
514.822	14.7
515.253	14.98
515.684	15.26
516.114	15.55
516.545	15.84
516.975	16.13
517.406	16.4
517.836	16.68
518.267	16.98
518.697	17.24
519.127	17.51
519.558	17.77
519.988	18.06
520.418	18.31
520.848	18.57
521.278	18.82
521.708	19.22
522.138	19.47
522.567	19.7
522.997	19.92
523.427	20.16
523.857	20.38
524.286	20.59
524.716	20.79
525.145	21.01
525.575	21.19
526.004	21.4
526.433	21.42
526.863	21.59
527.292	21.77
527.721	21.93
528.15	22.08
528.579	22.23
529.008	22.38
529.437	22.51
529.866	22.63
530.295	22.76
530.724	22.89
531.152	23.01
531.581	23.14
532.01	23.24
532.438	23.35
532.867	23.45
533.295	23.53
533.723	23.62
534.152	23.7
534.58	23.78
535.008	23.84
535.436	23.89
535.865	23.93
536.293	23.97
536.721	24.01
537.149	24.05
537.576	24.08
538.004	24.13
538.432	24.16
538.86	24.18
539.287	24.2
539.715	24.24
540.143	24.27
540.57	24.3
540.998	24.32
541.425	24.35
541.852	24.37
542.28	24.39
542.707	24.4
543.134	24.42
543.561	24.45
543.988	24.47
544.415	24.48
544.842	24.49
545.269	24.52
545.696	24.55
546.123	24.57
546.549	24.59
546.976	24.62
547.403	24.64
547.829	24.68
548.256	24.68
548.682	24.69
549.108	24.71
549.535	24.74
549.961	24.75
550.387	24.75
550.813	24.75
551.24	24.75
551.666	24.74
552.092	24.74
552.518	24.73
552.943	24.72
553.369	24.71
553.795	24.68
554.221	24.65
554.646	24.61
555.072	24.59
555.498	24.55
555.923	24.5
556.349	24.46
556.774	24.4
557.199	24.34
557.625	24.3
558.05	24.26
558.475	24.2
558.9	24.14
559.325	24.08
559.75	24.01
560.175	23.94
560.6	23.85
561.025	23.77
561.449	23.7
561.874	23.59
562.299	23.49
562.723	23.38
563.148	23.25
563.572	23.14
563.997	23.03
564.421	22.89
564.846	22.77
565.27	22.65
565.694	22.52
566.118	22.38
566.542	22.26
566.966	22.11
567.39	21.97
567.814	21.83
568.238	21.69
568.662	21.56
569.086	21.42
569.509	21.28
569.933	21.14
570.357	21
570.78	20.87
571.204	20.74
571.627	20.62
572.05	20.49
572.474	20.39
572.897	20.26
573.32	20.13
573.743	20.02
574.166	19.91
574.589	19.8
575.012	19.7
575.435	19.59
575.858	19.48
576.281	19.38
576.704	19.29
577.126	19.18
577.549	19.09
577.972	18.99
578.394	18.89
578.817	18.81
579.239	18.72
579.661	18.63
580.084	18.54
580.506	18.48
580.928	18.41
581.35	18.33
581.772	18.24
582.194	18.18
582.616	18.12
583.038	18.05
583.46	17.95
583.882	17.88
584.303	17.81
584.725	17.74
585.147	17.66
585.568	17.59
585.99	17.52
586.411	17.47
586.833	17.4
587.254	17.34
587.675	17.27
588.096	17.23
588.518	17.17
588.939	17.14
589.36	17.07
589.781	17.03
590.202	16.98
590.623	16.94
591.043	16.89
591.464	16.85
591.885	16.81
592.305	16.78
592.726	16.74
593.147	16.71
593.567	16.67
593.987	16.64
594.408	16.6
594.828	16.57
595.248	16.53
595.669	16.51
596.089	16.47
596.509	16.45
596.929	16.41
597.349	16.37
597.769	16.33
598.189	16.29
598.608	16.26
599.028	16.23
599.448	16.19
599.867	16.15
600.287	16.1
600.706	16.07
601.126	16.02
601.545	15.98
601.965	15.94
602.384	15.9
602.803	15.85
603.222	15.8
603.641	15.73
604.061	15.68
604.48	15.62
604.898	15.57
605.317	15.51
605.736	15.45
606.155	15.4
606.574	15.33
606.992	15.26
607.411	15.2
607.829	15.1
608.248	15.02
608.666	14.96
609.085	14.88
609.503	14.81
609.921	14.74
610.339	14.66
610.758	14.58
611.176	14.5
611.594	14.42
612.012	14.35
612.43	14.3
612.847	14.23
613.265	14.16
613.683	14.09
614.101	14.02
614.518	13.95
614.936	13.88
615.353	13.81
615.771	13.76
616.188	13.69
616.606	13.63
617.023	13.56
617.44	13.52
617.857	13.45
618.274	13.39
618.691	13.34
619.108	13.29
619.525	13.24
619.942	13.2
620.359	13.15
620.776	13.12
621.192	13.09
621.609	13.07
622.026	13.03
622.442	13.02
622.859	12.99
623.275	12.97
623.691	12.97
624.108	12.94
624.524	12.93
624.94	12.91
625.356	12.9
625.772	12.88
626.188	12.85
626.604	12.84
627.02	12.83
627.436	12.82
627.852	12.8
628.268	12.77
628.683	12.77
629.099	12.76
629.514	12.74
629.93	12.72
630.345	12.69
630.761	12.65
631.176	12.61
631.591	12.57
632.007	12.51
632.422	12.46
632.837	12.41
633.252	12.34
633.667	12.27
634.082	12.19
634.497	12.1
634.911	12.02
635.326	11.93
635.741	11.84
636.155	11.74
636.57	11.64
636.984	11.54
637.399	11.41
637.813	11.29
638.228	11.16
638.642	11.03
639.056	10.9
639.47	10.77
639.884	10.64
640.298	10.51
640.712	10.37
641.126	10.24
641.54	10.11
641.954	9.98
642.368	9.85
642.781	9.74
643.195	9.62
643.609	9.51
644.022	9.4
644.436	9.3
644.849	9.2
645.262	9.1
645.676	8.99
646.089	8.9
646.502	8.81
646.915	8.74
647.328	8.66
647.741	8.59
648.154	8.53
648.567	8.47
648.98	8.4
649.393	8.35
649.805	8.31
650.218	8.27
650.631	8.24
651.043	8.2
651.456	8.17
651.868	8.13
652.28	8.09
652.693	8.05
653.105	8.01
653.517	7.98
653.929	7.94
654.341	7.88
654.753	7.82
655.165	7.75
655.577	7.7
655.989	7.63
656.401	7.57
656.813	7.5
657.224	7.43
657.636	7.33
658.047	7.26
658.459	7.18
658.87	7.09
659.282	7.01
659.693	6.93
660.104	6.83
660.515	6.74
660.926	6.64
661.338	6.55
661.749	6.47
662.159	6.39
662.57	6.3
662.981	6.22
663.392	6.16
663.803	6.08
664.213	6.01
664.624	5.95
665.035	5.9
665.445	5.85
665.855	5.8
666.266	5.76
666.676	5.73
667.086	5.69
667.497	5.66
667.907	5.63
668.317	5.61
668.727	5.6
669.137	5.6
669.547	5.58
669.956	5.57
670.366	5.56
670.776	5.54
671.186	5.55
671.595	5.54
672.005	5.54
672.414	5.56
672.824	5.56
673.233	5.56
673.642	5.58
674.052	5.6
674.461	5.62
674.87	5.64
675.279	5.68
675.688	5.71
676.097	5.74
676.506	5.78
676.915	5.81
677.323	5.86
677.732	5.9
678.141	5.94
678.549	5.99
678.958	6.06
679.366	6.13
679.775	6.19
680.183	6.27
680.592	6.36
681	6.46
681.408	6.57
681.816	6.69
682.224	6.83
682.632	6.96
683.04	7.12
683.448	7.29
683.856	7.46
684.264	7.66
684.671	7.87
685.079	8.11
685.487	8.37
685.894	8.65
686.302	8.95
686.709	9.28
687.116	9.64
687.524	10.01
687.931	10.42
688.338	10.84
688.745	11.29
689.152	11.76
689.559	12.23
689.966	12.72
690.373	13.21
690.78	13.74
691.187	14.26
691.593	14.8
692	15.35
692.407	15.88
692.813	16.43
693.22	16.97
693.626	17.53
694.032	18.08
694.439	18.64
694.845	19.21
695.251	19.77
695.657	20.31
696.063	20.85
696.469	21.36
696.875	21.9
697.281	22.42
697.687	22.96
698.093	23.46
698.498	23.95
698.904	24.45
699.31	24.92
699.715	25.38
700.12	25.84
700.526	26.3
700.931	26.77
701.337	27.18
701.742	27.61
702.147	28.02
702.552	28.42
702.957	28.81
703.362	29.19
703.767	29.56
704.172	29.92
704.577	30.27
704.981	30.62
705.386	30.96
705.791	31.29
706.195	31.62
706.6	31.95
707.004	32.28
707.408	32.59
707.813	32.92
708.217	33.22
708.621	33.54
709.025	33.83
709.43	34.1
709.834	34.4
710.237	34.65
710.641	34.92
711.045	35.14
711.449	35.41
711.853	35.68
712.256	35.9
712.66	36.13
713.064	36.34
713.467	36.58
713.87	36.81
714.274	37.01
714.677	37.26
715.08	37.48
715.484	37.7
715.887	37.92
716.29	38.09
716.693	38.3
717.096	38.5
717.499	38.71
717.901	38.9
718.304	39.08
718.707	39.27
719.109	39.44
719.512	39.57
719.915	39.76
720.317	39.88
720.719	40.01
721.122	40.16
721.524	40.32
721.926	40.44
722.328	40.59
722.731	40.73
723.133	40.87
723.535	41
723.937	41.15
724.338	41.24
724.74	41.39
725.142	41.63
725.544	41.73
725.945	41.86
726.347	41.96
726.748	42.06
727.15	42.12
727.551	42.21
727.952	42.29
728.354	42.35
728.755	42.44
729.156	42.52
729.557	42.49
729.958	42.55
730.359	42.61
730.76	42.68
731.161	42.73
731.562	42.82
731.962	42.86
732.363	42.94
732.763	43.01
733.164	43.09
733.564	43.13
733.965	43.19
734.365	43.26
734.766	43.3
735.166	43.34
735.566	43.38
735.966	43.44
736.366	43.48
736.766	43.5
737.166	43.53
737.566	43.54
737.966	43.59
738.365	43.61
738.765	43.63
739.165	43.65
739.564	43.71
739.964	43.75
740.363	43.75
740.763	43.78
741.162	43.81
741.561	43.82
741.96	43.82
742.36	43.84
742.759	43.87
743.158	43.86
743.557	43.88
743.955	43.89
744.354	43.89
744.753	43.92
745.152	43.95
745.55	43.98
745.949	44.02
746.348	44.08
746.746	44.08
747.144	44.1
747.543	44.14
747.941	44.15
748.339	44.15
748.737	44.17
749.136	44.16
749.534	44.16
749.932	44.15
750.33	44.15
750.727	44.14
751.125	44.16
751.523	44.16
751.921	44.17
752.318	44.18
752.716	44.19
753.113	44.19
753.511	44.21
753.908	44.24
754.305	44.25
754.703	44.23
755.1	44.22
755.497	44.21
755.894	44.17
756.291	44.14
756.688	44.13
757.085	44.1
757.482	44.07
757.878	44.04
758.275	43.99
758.672	43.97
759.068	44
759.465	43.99
759.861	43.97
760.258	43.99
760.654	44
761.05	44
761.447	44.03
761.843	44.04
762.239	44.05
762.635	44.08
763.031	44.07
763.427	44.06
763.822	44.06
764.218	44.07
764.614	44.06
765.01	44.06
765.405	44.06
765.801	44.05
766.196	44.03
766.592	44.03
766.987	44.03
767.382	44.03
767.778	44.05
768.173	44.06
768.568	44.06
768.963	44.07
769.358	44.1
769.753	44.1
770.148	44.12
770.542	44.15
770.937	44.13
771.332	44.13
771.726	44.13
772.121	44.12
772.515	44.11
772.91	44.09
773.304	44.1
773.699	44.09
774.093	44.08
774.487	44.06
774.881	44.06
775.275	44.05
775.669	44.02
776.063	44.01
776.457	44
776.851	43.97
777.245	43.98
777.638	43.97
778.032	43.98
778.425	44.01
778.819	44.02
779.212	44.02
779.606	44.06
779.999	44.09
780.392	44.11
780.786	44.13
781.179	44.17
781.572	44.21
781.965	44.22
782.358	44.23
