Data from C_3_DEC_NC_4N_Splice17_13-58-18-114.txt Node
Date: Sat Mar 07 13:58:18 EST 2020
User: sa697716
Spectrometer: NQ5500242
Trigger mode: 0
Integration Time (sec): 1.450000E-1
Scans to average: 20
Nonlinearity correction enabled: false
Boxcar width: 5
Storing dark spectrum: false
XAxis mode: Wavelengths
Number of Pixels in Spectrum: 512
>>>>>Begin Spectral Data<<<<<
187.83	159.32
188.298	185.58
188.766	162.48
189.233	123.28
189.701	130.62
190.169	134.75
190.636	116.01
191.104	-15.79
191.571	-317.85
192.039	-457.04
192.506	-1081.14
192.974	164.94
193.441	274.73
193.908	120.05
194.375	61.16
194.842	-13.4
195.31	-71.94
195.777	-260.89
196.244	19.48
196.711	37.91
197.177	40.82
197.644	41.95
198.111	42.06
198.578	43.05
199.045	44.02
199.511	43.73
199.978	44.03
200.445	44.33
200.911	44.41
201.378	44.47
201.844	44.78
202.31	44.47
202.777	44.41
203.243	44.8
203.709	44.31
204.176	43.64
204.642	43.59
205.108	43.57
205.574	43.18
206.04	42.54
206.506	42.12
206.972	41.6
207.438	41.55
207.903	40.99
208.369	39.98
208.835	39.48
209.301	38.71
209.766	37.52
210.232	36.38
210.697	35.56
211.163	34.94
211.628	33.98
212.094	33.27
212.559	32.66
213.024	31.87
213.49	31.21
213.955	30.39
214.42	29.82
214.885	29.1
215.35	28.22
215.815	26.91
216.28	25.04
216.745	23.04
217.21	21.17
217.675	19.33
218.14	17.85
218.604	16.5
219.069	15.38
219.534	14.45
219.998	13.69
220.463	12.99
220.927	12.38
221.392	11.95
221.856	11.61
222.32	11.25
222.785	10.97
223.249	10.67
223.713	10.47
224.177	10.28
224.642	10.08
225.106	9.87
225.57	9.71
226.034	9.56
226.497	9.39
226.961	9.24
227.425	9.09
227.889	8.96
228.353	8.83
228.816	8.7
229.28	8.58
229.744	8.46
230.207	8.36
230.671	8.24
231.134	8.14
231.597	8.05
232.061	7.95
232.524	7.87
232.987	7.78
233.45	7.7
233.914	7.61
234.377	7.51
234.84	7.41
235.303	7.33
235.766	7.25
236.229	7.17
236.691	7.1
237.154	7.02
237.617	6.95
238.08	6.88
238.542	6.8
239.005	6.75
239.468	6.68
239.93	6.63
240.393	6.57
240.855	6.49
241.317	6.43
241.78	6.37
242.242	6.31
242.704	6.26
243.166	6.2
243.629	6.16
244.091	6.09
244.553	6.04
245.015	5.99
245.477	5.94
245.939	5.9
246.4	5.86
246.862	5.8
247.324	5.77
247.786	5.71
248.247	5.67
248.709	5.62
249.17	5.57
249.632	5.54
250.093	5.5
250.555	5.46
251.016	5.42
251.477	5.37
251.939	5.34
252.4	5.31
252.861	5.28
253.322	5.25
253.783	5.22
254.244	5.19
254.705	5.16
255.166	5.12
255.627	5.09
256.088	5.07
256.549	5.05
257.009	5.02
257.47	4.98
257.931	4.95
258.391	4.91
258.852	4.87
259.312	4.84
259.773	4.81
260.233	4.79
260.694	4.75
261.154	4.72
261.614	4.69
262.074	4.66
262.534	4.64
262.994	4.62
263.455	4.6
263.915	4.57
264.374	4.55
264.834	4.52
265.294	4.5
265.754	4.48
266.214	4.46
266.673	4.45
267.133	4.43
267.593	4.42
268.052	4.41
268.512	4.39
268.971	4.38
269.431	4.37
269.89	4.36
270.349	4.36
270.809	4.34
271.268	4.33
271.727	4.32
272.186	4.31
272.645	4.29
273.104	4.28
273.563	4.27
274.022	4.26
274.481	4.25
274.94	4.24
275.399	4.23
275.857	4.22
276.316	4.21
276.775	4.2
277.233	4.2
277.692	4.18
278.15	4.17
278.609	4.17
279.067	4.15
279.525	4.15
279.984	4.14
280.442	4.13
280.9	4.13
281.358	4.12
281.816	4.11
282.274	4.09
282.732	4.09
283.19	4.08
283.648	4.06
284.106	4.05
284.564	4.04
285.021	4.04
285.479	4.02
285.937	4
286.394	4
286.852	3.99
287.309	3.98
287.767	3.97
288.224	3.96
288.682	3.94
289.139	3.92
289.596	3.91
290.053	3.89
290.511	3.87
290.968	3.86
291.425	3.83
291.882	3.82
292.339	3.81
292.796	3.8
293.252	3.79
293.709	3.78
294.166	3.77
294.623	3.76
295.079	3.75
295.536	3.74
295.992	3.74
296.449	3.73
296.905	3.72
297.362	3.71
297.818	3.69
298.274	3.69
298.731	3.68
299.187	3.66
299.643	3.65
300.099	3.65
300.555	3.65
301.011	3.64
301.467	3.63
301.923	3.61
302.379	3.61
302.835	3.61
303.291	3.6
303.746	3.6
304.202	3.61
304.658	3.61
305.113	3.6
305.569	3.59
306.024	3.59
306.479	3.58
306.935	3.58
307.39	3.58
307.845	3.57
308.301	3.57
308.756	3.56
309.211	3.55
309.666	3.56
310.121	3.56
310.576	3.55
311.031	3.55
311.486	3.55
311.94	3.56
312.395	3.55
312.85	3.55
313.305	3.55
313.759	3.55
314.214	3.54
314.668	3.53
315.123	3.52
315.577	3.51
316.032	3.51
316.486	3.5
316.94	3.49
317.394	3.49
317.849	3.47
318.303	3.46
318.757	3.45
319.211	3.45
319.665	3.44
320.119	3.43
320.572	3.42
321.026	3.4
321.48	3.39
321.934	3.38
322.387	3.37
322.841	3.36
323.295	3.37
323.748	3.36
324.202	3.35
324.655	3.34
325.108	3.34
325.562	3.34
326.015	3.34
326.468	3.34
326.921	3.35
327.374	3.34
327.827	3.34
328.28	3.33
328.733	3.33
329.186	3.34
329.639	3.34
330.092	3.33
330.545	3.33
330.997	3.33
331.45	3.33
331.903	3.33
332.355	3.34
332.808	3.33
333.26	3.33
333.713	3.33
334.165	3.33
334.617	3.33
335.069	3.33
335.522	3.33
335.974	3.33
336.426	3.32
336.878	3.31
337.33	3.31
337.782	3.32
338.234	3.33
338.686	3.33
339.137	3.33
339.589	3.31
340.041	3.31
340.493	3.31
340.944	3.28
341.396	3.28
341.847	3.27
342.299	3.26
342.75	3.25
343.201	3.23
343.653	3.22
344.104	3.21
344.555	3.2
345.006	3.18
345.457	3.18
345.908	3.18
346.359	3.19
346.81	3.18
347.261	3.17
347.712	3.16
348.163	3.15
348.613	3.14
349.064	3.14
349.515	3.14
349.965	3.13
350.416	3.12
350.866	3.12
351.317	3.1
351.767	3.1
352.217	3.1
352.668	3.1
353.118	3.11
353.568	3.1
354.018	3.12
354.468	3.12
354.918	3.12
355.368	3.13
355.818	3.13
356.268	3.14
356.718	3.15
357.168	3.14
357.617	3.13
358.067	3.13
358.517	3.14
358.966	3.14
359.416	3.14
359.865	3.14
360.315	3.14
360.764	3.14
361.213	3.14
361.663	3.13
362.112	3.14
362.561	3.15
363.01	3.15
363.459	3.14
363.908	3.13
364.357	3.12
364.806	3.12
365.255	3.12
365.703	3.13
366.152	3.14
366.601	3.14
367.05	3.14
367.498	3.14
367.947	3.16
368.395	3.17
368.844	3.18
369.292	3.19
369.74	3.21
370.189	3.21
370.637	3.21
371.085	3.21
371.533	3.21
371.981	3.22
372.429	3.23
372.877	3.23
373.325	3.23
373.773	3.24
374.221	3.25
374.669	3.26
375.116	3.27
375.564	3.28
376.012	3.3
376.459	3.31
376.907	3.33
377.354	3.35
377.801	3.37
378.249	3.39
378.696	3.41
379.143	3.42
379.591	3.43
380.038	3.46
380.485	3.47
380.932	3.5
381.379	3.52
381.826	3.53
382.273	3.55
382.72	3.56
383.166	3.59
383.613	3.61
384.06	3.62
384.506	3.65
384.953	3.67
385.4	3.7
385.846	3.73
386.292	3.75
386.739	3.77
387.185	3.79
387.631	3.82
388.078	3.84
388.524	3.86
388.97	3.88
389.416	3.91
389.862	3.92
390.308	3.95
390.754	3.97
391.2	3.99
391.645	4.01
392.091	4.04
392.537	4.06
392.983	4.08
393.428	4.11
393.874	4.14
394.319	4.16
394.765	4.17
395.21	4.18
395.655	4.2
396.101	4.22
396.546	4.23
396.991	4.25
397.436	4.27
397.881	4.29
398.326	4.3
398.771	4.31
399.216	4.32
399.661	4.33
400.106	4.34
400.551	4.35
400.995	4.34
401.44	4.35
401.885	4.34
402.329	4.34
402.774	4.33
403.218	4.35
403.663	4.35
404.107	4.36
404.551	4.37
404.995	4.36
405.44	4.36
405.884	4.37
406.328	4.37
406.772	4.37
407.216	4.36
407.66	4.35
408.104	4.33
408.547	4.33
408.991	4.33
409.435	4.32
409.879	4.31
410.322	4.32
410.766	4.32
411.209	4.33
411.653	4.35
412.096	4.36
412.54	4.36
412.983	4.36
413.426	4.39
413.869	4.4
414.312	4.42
414.756	4.44
415.199	4.43
415.642	4.44
416.085	4.43
416.527	4.42
416.97	4.41
417.413	4.42
417.856	4.41
418.298	4.39
418.741	4.38
419.184	4.36
419.626	4.35
420.069	4.35
420.511	4.35
420.953	4.36
421.396	4.36
421.838	4.36
422.28	4.37
422.722	4.4
423.164	4.4
423.606	4.41
424.048	4.41
424.49	4.41
424.932	4.41
425.374	4.39
425.816	4.35
426.258	4.34
426.699	4.34
427.141	4.32
427.582	4.3
428.024	4.3
428.465	4.29
428.907	4.28
429.348	4.26
429.789	4.27
430.231	4.28
430.672	4.3
431.113	4.3
431.554	4.31
431.995	4.33
432.436	4.34
432.877	4.33
433.318	4.35
433.759	4.37
434.2	4.4
434.64	4.4
435.081	4.42
435.522	4.44
435.962	4.47
436.403	4.48
436.843	4.49
437.284	4.49
437.724	4.51
438.164	4.5
438.604	4.52
439.045	4.52
439.485	4.55
439.925	4.54
440.365	4.55
440.805	4.54
441.245	4.56
441.685	4.57
442.125	4.6
442.564	4.6
443.004	4.61
443.444	4.59
443.883	4.6
444.323	4.59
444.762	4.6
445.202	4.6
445.641	4.63
446.081	4.65
446.52	4.65
446.959	4.67
447.398	4.71
447.837	4.73
448.276	4.76
448.716	4.77
449.154	4.8
449.593	4.82
450.032	4.84
450.471	4.83
450.91	4.83
451.349	4.86
451.787	4.85
452.226	4.83
452.664	4.83
453.103	4.83
453.541	4.83
453.98	4.84
454.418	4.82
454.856	4.81
455.295	4.79
455.733	4.78
456.171	4.76
456.609	4.76
457.047	4.74
457.485	4.74
457.923	4.73
458.361	4.73
458.798	4.73
459.236	4.72
459.674	4.72
460.111	4.72
460.549	4.72
460.987	4.72
461.424	4.73
461.862	4.74
462.299	4.76
462.736	4.76
463.173	4.76
463.611	4.77
464.048	4.78
464.485	4.79
464.922	4.8
465.359	4.81
465.796	4.83
466.233	4.82
466.67	4.83
467.106	4.84
467.543	4.83
467.98	4.83
468.416	4.82
468.853	4.81
469.29	4.8
469.726	4.81
470.162	4.81
470.599	4.79
471.035	4.78
471.471	4.78
471.907	4.77
472.344	4.78
472.78	4.79
473.216	4.79
473.652	4.79
474.088	4.79
474.523	4.78
474.959	4.78
475.395	4.77
475.831	4.77
476.266	4.76
476.702	4.75
477.138	4.75
477.573	4.75
478.008	4.75
478.444	4.74
478.879	4.76
479.314	4.76
479.75	4.76
480.185	4.76
480.62	4.76
481.055	4.75
481.49	4.75
481.925	4.76
482.36	4.76
482.795	4.76
483.229	4.76
483.664	4.76
484.099	4.74
484.534	4.75
484.968	4.77
485.403	4.78
485.837	4.8
486.271	4.83
486.706	4.84
487.14	4.84
487.574	4.86
488.009	4.89
488.443	4.91
488.877	4.95
489.311	4.99
489.745	5.02
490.179	5.05
490.613	5.09
491.046	5.12
491.48	5.17
491.914	5.23
492.348	5.27
492.781	5.34
493.215	5.4
493.648	5.46
494.082	5.51
494.515	5.56
494.948	5.64
495.382	5.71
495.815	5.79
496.248	5.87
496.681	5.95
497.114	6.04
497.547	6.11
497.98	6.2
498.413	6.29
498.846	6.4
499.279	6.51
499.711	6.61
500.144	6.72
500.577	6.84
501.009	6.95
501.442	7.07
501.874	7.2
502.306	7.34
502.739	7.5
503.171	7.65
503.603	7.8
504.036	7.97
504.468	8.15
504.9	8.3
505.332	8.48
505.764	8.67
506.196	8.86
506.627	9.05
507.059	9.26
507.491	9.45
507.923	9.66
508.354	9.88
508.786	10.09
509.217	10.31
509.649	10.55
510.08	10.78
510.512	11.03
510.943	11.27
511.374	11.52
511.805	11.77
512.237	12.03
512.668	12.3
513.099	12.57
513.53	12.84
513.961	13.11
514.391	13.39
514.822	13.68
515.253	13.96
515.684	14.25
516.114	14.53
516.545	14.82
516.975	15.1
517.406	15.37
517.836	15.65
518.267	15.95
518.697	16.22
519.127	16.48
519.558	16.75
519.988	17.02
520.418	17.28
520.848	17.54
521.278	17.79
521.708	18.2
522.138	18.46
522.567	18.69
522.997	18.92
523.427	19.16
523.857	19.39
524.286	19.61
524.716	19.83
525.145	20.03
525.575	20.25
526.004	20.46
526.433	20.49
526.863	20.68
527.292	20.87
527.721	21.05
528.15	21.2
528.579	21.36
529.008	21.51
529.437	21.65
529.866	21.78
530.295	21.9
530.724	22.02
531.152	22.14
531.581	22.24
532.01	22.34
532.438	22.43
532.867	22.52
533.295	22.61
533.723	22.68
534.152	22.75
534.58	22.83
535.008	22.9
535.436	22.97
535.865	23.02
536.293	23.08
536.721	23.12
537.149	23.17
537.576	23.23
538.004	23.27
538.432	23.3
538.86	23.33
539.287	23.35
539.715	23.39
540.143	23.4
540.57	23.42
540.998	23.43
541.425	23.45
541.852	23.46
542.28	23.48
542.707	23.5
543.134	23.53
543.561	23.57
543.988	23.61
544.415	23.62
544.842	23.65
545.269	23.68
545.696	23.71
546.123	23.74
546.549	23.79
546.976	23.82
547.403	23.85
547.829	23.85
548.256	23.87
548.682	23.89
549.108	23.91
549.535	23.92
549.961	23.92
550.387	23.93
550.813	23.93
551.24	23.93
551.666	23.92
552.092	23.92
552.518	23.94
552.943	23.92
553.369	23.9
553.795	23.88
554.221	23.87
554.646	23.84
555.072	23.82
555.498	23.79
555.923	23.75
556.349	23.7
556.774	23.64
557.199	23.58
557.625	23.53
558.05	23.49
558.475	23.43
558.9	23.36
559.325	23.29
559.75	23.22
560.175	23.12
560.6	23.04
561.025	22.95
561.449	22.87
561.874	22.77
562.299	22.66
562.723	22.55
563.148	22.42
563.572	22.29
563.997	22.16
564.421	22.02
564.846	21.89
565.27	21.75
565.694	21.62
566.118	21.47
566.542	21.33
566.966	21.18
567.39	21.05
567.814	20.9
568.238	20.75
568.662	20.61
569.086	20.48
569.509	20.35
569.933	20.21
570.357	20.06
570.78	19.92
571.204	19.78
571.627	19.65
572.05	19.51
572.474	19.39
572.897	19.28
573.32	19.17
573.743	19.06
574.166	18.93
574.589	18.82
575.012	18.72
575.435	18.62
575.858	18.5
576.281	18.4
576.704	18.31
577.126	18.21
577.549	18.11
577.972	18
578.394	17.9
578.817	17.81
579.239	17.73
579.661	17.64
580.084	17.56
580.506	17.49
580.928	17.41
581.35	17.33
581.772	17.25
582.194	17.18
582.616	17.12
583.038	17.04
583.46	16.95
583.882	16.89
584.303	16.82
584.725	16.75
585.147	16.69
585.568	16.63
585.99	16.57
586.411	16.51
586.833	16.44
587.254	16.37
587.675	16.33
588.096	16.27
588.518	16.21
588.939	16.16
589.36	16.1
589.781	16.04
590.202	16
590.623	15.93
591.043	15.87
591.464	15.84
591.885	15.8
592.305	15.76
592.726	15.74
593.147	15.69
593.567	15.66
593.987	15.63
594.408	15.59
594.828	15.54
595.248	15.53
595.669	15.49
596.089	15.46
596.509	15.43
596.929	15.4
597.349	15.36
597.769	15.33
598.189	15.29
598.608	15.27
599.028	15.24
599.448	15.21
599.867	15.18
600.287	15.14
600.706	15.1
601.126	15.05
601.545	15.01
601.965	14.96
602.384	14.9
602.803	14.86
603.222	14.8
603.641	14.74
604.061	14.68
604.48	14.62
604.898	14.56
605.317	14.51
605.736	14.46
606.155	14.4
606.574	14.33
606.992	14.28
607.411	14.22
607.829	14.14
608.248	14.06
608.666	13.99
609.085	13.92
609.503	13.85
609.921	13.78
610.339	13.7
610.758	13.63
611.176	13.54
611.594	13.47
612.012	13.38
612.43	13.32
612.847	13.25
613.265	13.19
613.683	13.12
614.101	13.05
614.518	12.97
614.936	12.9
615.353	12.83
615.771	12.77
616.188	12.71
616.606	12.65
617.023	12.59
617.44	12.55
617.857	12.48
618.274	12.42
618.691	12.36
619.108	12.32
619.525	12.27
619.942	12.22
620.359	12.18
620.776	12.14
621.192	12.11
621.609	12.09
622.026	12.06
622.442	12.03
622.859	12
623.275	11.99
623.691	11.97
624.108	11.97
624.524	11.96
624.94	11.94
625.356	11.93
625.772	11.9
626.188	11.88
626.604	11.87
627.02	11.85
627.436	11.84
627.852	11.83
628.268	11.81
628.683	11.79
629.099	11.77
629.514	11.75
629.93	11.73
630.345	11.7
630.761	11.67
631.176	11.64
631.591	11.6
632.007	11.56
632.422	11.5
632.837	11.45
633.252	11.38
633.667	11.31
634.082	11.22
634.497	11.14
634.911	11.05
635.326	10.96
635.741	10.86
636.155	10.75
636.57	10.66
636.984	10.55
637.399	10.44
637.813	10.33
638.228	10.19
638.642	10.08
639.056	9.95
639.47	9.84
639.884	9.72
640.298	9.58
640.712	9.46
641.126	9.32
641.54	9.19
641.954	9.06
642.368	8.93
642.781	8.82
643.195	8.7
643.609	8.59
644.022	8.48
644.436	8.37
644.849	8.27
645.262	8.17
645.676	8.08
646.089	7.99
646.502	7.91
646.915	7.85
647.328	7.78
647.741	7.72
648.154	7.66
648.567	7.6
648.98	7.55
649.393	7.51
649.805	7.47
650.218	7.43
650.631	7.4
651.043	7.36
651.456	7.32
651.868	7.28
652.28	7.25
652.693	7.21
653.105	7.18
653.517	7.14
653.929	7.09
654.341	7.04
654.753	6.98
655.165	6.93
655.577	6.88
655.989	6.81
656.401	6.74
656.813	6.67
657.224	6.6
657.636	6.5
658.047	6.43
658.459	6.35
658.87	6.27
659.282	6.19
659.693	6.1
660.104	6.01
660.515	5.93
660.926	5.86
661.338	5.78
661.749	5.71
662.159	5.65
662.57	5.58
662.981	5.51
663.392	5.44
663.803	5.38
664.213	5.33
664.624	5.27
665.035	5.22
665.445	5.17
665.855	5.12
666.266	5.09
666.676	5.06
667.086	5.02
667.497	5
667.907	4.98
668.317	4.95
668.727	4.93
669.137	4.91
669.547	4.9
669.956	4.89
670.366	4.89
670.776	4.88
671.186	4.88
671.595	4.89
672.005	4.89
672.414	4.89
672.824	4.91
673.233	4.93
673.642	4.95
674.052	4.97
674.461	4.99
674.87	5.01
675.279	5.03
675.688	5.06
676.097	5.1
676.506	5.13
676.915	5.18
677.323	5.21
677.732	5.26
678.141	5.3
678.549	5.35
678.958	5.4
679.366	5.47
679.775	5.53
680.183	5.61
680.592	5.69
681	5.78
681.408	5.87
681.816	5.97
682.224	6.09
682.632	6.23
683.04	6.37
683.448	6.54
683.856	6.7
684.264	6.89
684.671	7.09
685.079	7.31
685.487	7.55
685.894	7.84
686.302	8.13
686.709	8.45
687.116	8.79
687.524	9.14
687.931	9.53
688.338	9.95
688.745	10.39
689.152	10.84
689.559	11.33
689.966	11.81
690.373	12.31
690.78	12.83
691.187	13.36
691.593	13.91
692	14.46
692.407	14.99
692.813	15.55
693.22	16.1
693.626	16.66
694.032	17.22
694.439	17.8
694.845	18.36
695.251	18.92
695.657	19.47
696.063	20.02
696.469	20.59
696.875	21.15
697.281	21.69
697.687	22.22
698.093	22.75
698.498	23.27
698.904	23.78
699.31	24.28
699.715	24.8
700.12	25.28
700.526	25.74
700.931	26.2
701.337	26.65
701.742	27.09
702.147	27.54
702.552	27.97
702.957	28.36
703.362	28.76
703.767	29.15
704.172	29.53
704.577	29.92
704.981	30.29
705.386	30.65
705.791	31
706.195	31.34
706.6	31.68
707.004	32.02
707.408	32.35
707.813	32.68
708.217	33.01
708.621	33.34
709.025	33.65
709.43	33.96
709.834	34.26
710.237	34.57
710.641	34.86
711.045	35.13
711.449	35.42
711.853	35.72
712.256	35.95
712.66	36.2
713.064	36.45
713.467	36.69
713.87	36.94
714.274	37.16
714.677	37.39
715.08	37.61
715.484	37.83
715.887	38.06
716.29	38.26
716.693	38.51
717.096	38.72
717.499	38.93
717.901	39.13
718.304	39.33
718.707	39.52
719.109	39.73
719.512	39.94
719.915	40.15
720.317	40.3
720.719	40.45
721.122	40.62
721.524	40.77
721.926	40.94
722.328	41.09
722.731	41.24
723.133	41.39
723.535	41.51
723.937	41.63
724.338	41.76
724.74	41.94
725.142	42.16
725.544	42.28
725.945	42.43
726.347	42.51
726.748	42.62
727.15	42.71
727.551	42.84
727.952	42.93
728.354	43.02
728.755	43.11
729.156	43.17
729.557	43.15
729.958	43.21
730.359	43.26
730.76	43.38
731.161	43.45
731.562	43.54
731.962	43.58
732.363	43.65
732.763	43.72
733.164	43.79
733.564	43.83
733.965	43.89
734.365	43.95
734.766	44
735.166	44.02
735.566	44.08
735.966	44.11
736.366	44.14
736.766	44.16
737.166	44.21
737.566	44.22
737.966	44.26
738.365	44.29
738.765	44.34
739.165	44.39
739.564	44.44
739.964	44.45
740.363	44.47
740.763	44.53
741.162	44.57
741.561	44.58
741.96	44.59
742.36	44.62
742.759	44.67
743.158	44.67
743.557	44.66
743.955	44.68
744.354	44.71
744.753	44.76
745.152	44.8
745.55	44.82
745.949	44.86
746.348	44.9
746.746	44.88
747.144	44.91
747.543	44.94
747.941	44.97
748.339	44.95
748.737	44.96
749.136	44.96
749.534	44.94
749.932	44.93
750.33	44.93
750.727	44.95
751.125	44.98
751.523	44.95
751.921	44.96
752.318	44.97
752.716	44.98
753.113	44.99
753.511	45.01
753.908	45.03
754.305	45.03
754.703	45.03
755.1	45.03
755.497	45.03
755.894	45.05
756.291	45.03
756.688	45
757.085	45.03
757.482	45.02
757.878	45
758.275	44.99
758.672	44.98
759.068	45.01
759.465	45.01
759.861	45.01
760.258	45.01
760.654	45.03
761.05	45.06
761.447	45.04
761.843	45.03
762.239	45.02
762.635	45.04
763.031	45.04
763.427	45
763.822	44.99
764.218	44.98
764.614	44.98
765.01	44.96
765.405	44.95
765.801	44.93
766.196	44.95
766.592	44.94
766.987	44.94
767.382	44.93
767.778	44.94
768.173	44.95
768.568	44.95
768.963	44.94
769.358	44.95
769.753	44.95
770.148	44.97
770.542	44.95
770.937	44.97
771.332	44.94
771.726	44.95
772.121	44.95
772.515	44.95
772.91	44.95
773.304	44.96
773.699	44.93
774.093	44.9
774.487	44.89
774.881	44.92
775.275	44.92
775.669	44.92
776.063	44.92
776.457	44.9
776.851	44.87
777.245	44.84
777.638	44.85
778.032	44.86
778.425	44.93
778.819	44.92
779.212	44.9
779.606	44.91
779.999	44.93
780.392	44.94
780.786	44.96
781.179	44.99
781.572	45.04
781.965	45.04
