Data from C_3_DEC_VA_2N_Splice17_14-18-20-254.txt Node
Date: Sat Mar 07 14:18:20 EST 2020
User: sa697716
Spectrometer: NQ5500242
Trigger mode: 0
Integration Time (sec): 1.450000E-1
Scans to average: 20
Nonlinearity correction enabled: false
Boxcar width: 5
Storing dark spectrum: false
XAxis mode: Wavelengths
Number of Pixels in Spectrum: 512
>>>>>Begin Spectral Data<<<<<
187.83	153.36
188.298	179.84
188.766	159.28
189.233	124.09
189.701	143.77
190.169	164.84
190.636	194.3
191.104	293.14
191.571	493.72
192.039	567.61
192.506	928.33
192.974	-199.03
193.441	-113.15
193.908	-40.67
194.375	10.57
194.842	59.2
195.31	94.97
195.777	151.75
196.244	67.85
196.711	73.98
197.177	75.2
197.644	75.61
198.111	75.01
198.578	75.13
199.045	75.65
199.511	75.05
199.978	74.98
200.445	74.87
200.911	74.91
201.378	75.36
201.844	75.61
202.31	74.95
202.777	74.94
203.243	75.35
203.709	75.06
204.176	74.3
204.642	73.85
205.108	73.17
205.574	72.75
206.04	72.15
206.506	71.16
206.972	70.42
207.438	69.91
207.903	68.77
208.369	67.18
208.835	65.56
209.301	64.11
209.766	62.41
210.232	60.61
210.697	58.89
211.163	57.32
211.628	55.79
212.094	54.19
212.559	52.87
213.024	51.51
213.49	50.15
213.955	48.94
214.42	47.62
214.885	46.03
215.35	44.18
215.815	41.48
216.28	38.22
216.745	34.76
217.21	31.23
217.675	28.03
218.14	25.19
218.604	22.75
219.069	20.64
219.534	18.81
219.998	17.38
220.463	16.22
220.927	15.23
221.392	14.43
221.856	13.78
222.32	13.18
222.785	12.69
223.249	12.25
223.713	11.87
224.177	11.57
224.642	11.27
225.106	10.96
225.57	10.66
226.034	10.43
226.497	10.22
226.961	9.99
227.425	9.79
227.889	9.6
228.353	9.41
228.816	9.22
229.28	9.02
229.744	8.88
230.207	8.73
230.671	8.56
231.134	8.41
231.597	8.27
232.061	8.15
232.524	8.02
232.987	7.9
233.45	7.79
233.914	7.68
234.377	7.57
234.84	7.46
235.303	7.37
235.766	7.31
236.229	7.22
236.691	7.14
237.154	7.06
237.617	6.99
238.08	6.92
238.542	6.85
239.005	6.8
239.468	6.75
239.93	6.7
240.393	6.64
240.855	6.55
241.317	6.49
241.78	6.43
242.242	6.36
242.704	6.32
243.166	6.25
243.629	6.2
244.091	6.14
244.553	6.07
245.015	6.02
245.477	5.96
245.939	5.92
246.4	5.87
246.862	5.83
247.324	5.78
247.786	5.73
248.247	5.68
248.709	5.62
249.17	5.57
249.632	5.53
250.093	5.49
250.555	5.45
251.016	5.42
251.477	5.37
251.939	5.34
252.4	5.32
252.861	5.28
253.322	5.26
253.783	5.24
254.244	5.21
254.705	5.18
255.166	5.15
255.627	5.13
256.088	5.11
256.549	5.09
257.009	5.06
257.47	5.02
257.931	4.99
258.391	4.96
258.852	4.92
259.312	4.89
259.773	4.86
260.233	4.83
260.694	4.8
261.154	4.76
261.614	4.73
262.074	4.7
262.534	4.67
262.994	4.65
263.455	4.63
263.915	4.61
264.374	4.59
264.834	4.57
265.294	4.55
265.754	4.54
266.214	4.52
266.673	4.51
267.133	4.5
267.593	4.49
268.052	4.47
268.512	4.46
268.971	4.45
269.431	4.44
269.89	4.43
270.349	4.43
270.809	4.42
271.268	4.41
271.727	4.4
272.186	4.4
272.645	4.4
273.104	4.39
273.563	4.39
274.022	4.38
274.481	4.37
274.94	4.37
275.399	4.36
275.857	4.36
276.316	4.36
276.775	4.36
277.233	4.35
277.692	4.35
278.15	4.34
278.609	4.34
279.067	4.34
279.525	4.33
279.984	4.32
280.442	4.32
280.9	4.32
281.358	4.32
281.816	4.32
282.274	4.32
282.732	4.32
283.19	4.32
283.648	4.32
284.106	4.31
284.564	4.31
285.021	4.32
285.479	4.32
285.937	4.31
286.394	4.31
286.852	4.3
287.309	4.3
287.767	4.28
288.224	4.28
288.682	4.27
289.139	4.26
289.596	4.24
290.053	4.22
290.511	4.2
290.968	4.18
291.425	4.16
291.882	4.15
292.339	4.13
292.796	4.11
293.252	4.1
293.709	4.09
294.166	4.08
294.623	4.07
295.079	4.06
295.536	4.06
295.992	4.05
296.449	4.04
296.905	4.03
297.362	4.03
297.818	4.02
298.274	4.01
298.731	4
299.187	3.99
299.643	3.98
300.099	3.98
300.555	3.97
301.011	3.97
301.467	3.96
301.923	3.95
302.379	3.94
302.835	3.94
303.291	3.94
303.746	3.93
304.202	3.93
304.658	3.93
305.113	3.93
305.569	3.93
306.024	3.93
306.479	3.94
306.935	3.94
307.39	3.94
307.845	3.95
308.301	3.95
308.756	3.96
309.211	3.95
309.666	3.96
310.121	3.96
310.576	3.96
311.031	3.97
311.486	3.98
311.94	3.98
312.395	3.99
312.85	3.99
313.305	3.99
313.759	3.99
314.214	3.99
314.668	3.99
315.123	3.99
315.577	3.99
316.032	3.99
316.486	3.98
316.94	3.98
317.394	3.97
317.849	3.95
318.303	3.94
318.757	3.93
319.211	3.92
319.665	3.9
320.119	3.89
320.572	3.88
321.026	3.86
321.48	3.85
321.934	3.84
322.387	3.82
322.841	3.82
323.295	3.82
323.748	3.83
324.202	3.83
324.655	3.82
325.108	3.83
325.562	3.83
326.015	3.84
326.468	3.84
326.921	3.85
327.374	3.84
327.827	3.85
328.28	3.84
328.733	3.84
329.186	3.83
329.639	3.83
330.092	3.83
330.545	3.83
330.997	3.82
331.45	3.83
331.903	3.83
332.355	3.84
332.808	3.84
333.26	3.84
333.713	3.84
334.165	3.84
334.617	3.86
335.069	3.86
335.522	3.87
335.974	3.88
336.426	3.87
336.878	3.86
337.33	3.86
337.782	3.87
338.234	3.88
338.686	3.89
339.137	3.9
339.589	3.89
340.041	3.88
340.493	3.86
340.944	3.84
341.396	3.84
341.847	3.83
342.299	3.81
342.75	3.79
343.201	3.77
343.653	3.75
344.104	3.72
344.555	3.71
345.006	3.7
345.457	3.69
345.908	3.68
346.359	3.68
346.81	3.68
347.261	3.68
347.712	3.67
348.163	3.66
348.613	3.66
349.064	3.67
349.515	3.67
349.965	3.67
350.416	3.68
350.866	3.68
351.317	3.67
351.767	3.67
352.217	3.66
352.668	3.66
353.118	3.67
353.568	3.66
354.018	3.66
354.468	3.66
354.918	3.66
355.368	3.66
355.818	3.66
356.268	3.67
356.718	3.67
357.168	3.68
357.617	3.68
358.067	3.68
358.517	3.69
358.966	3.7
359.416	3.7
359.865	3.71
360.315	3.71
360.764	3.71
361.213	3.7
361.663	3.69
362.112	3.71
362.561	3.71
363.01	3.7
363.459	3.69
363.908	3.67
364.357	3.68
364.806	3.66
365.255	3.66
365.703	3.67
366.152	3.68
366.601	3.69
367.05	3.69
367.498	3.68
367.947	3.69
368.395	3.7
368.844	3.7
369.292	3.7
369.74	3.71
370.189	3.72
370.637	3.71
371.085	3.7
371.533	3.71
371.981	3.7
372.429	3.7
372.877	3.71
373.325	3.7
373.773	3.71
374.221	3.71
374.669	3.71
375.116	3.7
375.564	3.69
376.012	3.69
376.459	3.68
376.907	3.69
377.354	3.69
377.801	3.7
378.249	3.7
378.696	3.71
379.143	3.71
379.591	3.71
380.038	3.72
380.485	3.73
380.932	3.74
381.379	3.75
381.826	3.74
382.273	3.76
382.72	3.75
383.166	3.76
383.613	3.77
384.06	3.77
384.506	3.78
384.953	3.79
385.4	3.81
385.846	3.83
386.292	3.84
386.739	3.86
387.185	3.88
387.631	3.9
388.078	3.91
388.524	3.93
388.97	3.94
389.416	3.97
389.862	3.99
390.308	4.01
390.754	4.03
391.2	4.07
391.645	4.09
392.091	4.13
392.537	4.17
392.983	4.2
393.428	4.24
393.874	4.29
394.319	4.32
394.765	4.35
395.21	4.38
395.655	4.41
396.101	4.45
396.546	4.48
396.991	4.51
397.436	4.54
397.881	4.59
398.326	4.62
398.771	4.66
399.216	4.7
399.661	4.75
400.106	4.78
400.551	4.81
400.995	4.83
401.44	4.86
401.885	4.88
402.329	4.9
402.774	4.93
403.218	4.96
403.663	4.99
404.107	5.01
404.551	5.03
404.995	5.05
405.44	5.07
405.884	5.1
406.328	5.12
406.772	5.14
407.216	5.16
407.66	5.18
408.104	5.18
408.547	5.2
408.991	5.21
409.435	5.23
409.879	5.25
410.322	5.27
410.766	5.3
411.209	5.32
411.653	5.35
412.096	5.38
412.54	5.41
412.983	5.44
413.426	5.48
413.869	5.51
414.312	5.55
414.756	5.58
415.199	5.61
415.642	5.62
416.085	5.65
416.527	5.66
416.97	5.65
417.413	5.65
417.856	5.66
418.298	5.65
418.741	5.66
419.184	5.65
419.626	5.65
420.069	5.66
420.511	5.66
420.953	5.67
421.396	5.68
421.838	5.7
422.28	5.72
422.722	5.74
423.164	5.76
423.606	5.76
424.048	5.77
424.49	5.78
424.932	5.77
425.374	5.75
425.816	5.72
426.258	5.69
426.699	5.65
427.141	5.64
427.582	5.63
428.024	5.62
428.465	5.63
428.907	5.61
429.348	5.6
429.789	5.58
430.231	5.59
430.672	5.61
431.113	5.64
431.554	5.66
431.995	5.68
432.436	5.67
432.877	5.68
433.318	5.69
433.759	5.72
434.2	5.75
434.64	5.77
435.081	5.79
435.522	5.81
435.962	5.84
436.403	5.86
436.843	5.9
437.284	5.9
437.724	5.92
438.164	5.92
438.604	5.94
439.045	5.95
439.485	5.96
439.925	5.99
440.365	6
440.805	6.01
441.245	6.05
441.685	6.07
442.125	6.13
442.564	6.17
443.004	6.2
443.444	6.22
443.883	6.27
444.323	6.3
444.762	6.35
445.202	6.39
445.641	6.43
446.081	6.47
446.52	6.49
446.959	6.52
447.398	6.56
447.837	6.61
448.276	6.65
448.716	6.69
449.154	6.74
449.593	6.76
450.032	6.79
450.471	6.81
450.91	6.81
451.349	6.86
451.787	6.88
452.226	6.87
452.664	6.86
453.103	6.86
453.541	6.84
453.98	6.84
454.418	6.83
454.856	6.81
455.295	6.81
455.733	6.77
456.171	6.77
456.609	6.75
457.047	6.73
457.485	6.72
457.923	6.71
458.361	6.69
458.798	6.68
459.236	6.67
459.674	6.67
460.111	6.66
460.549	6.67
460.987	6.66
461.424	6.65
461.862	6.66
462.299	6.66
462.736	6.66
463.173	6.67
463.611	6.65
464.048	6.66
464.485	6.65
464.922	6.64
465.359	6.64
465.796	6.63
466.233	6.64
466.67	6.64
467.106	6.65
467.543	6.63
467.98	6.63
468.416	6.63
468.853	6.63
469.29	6.64
469.726	6.65
470.162	6.65
470.599	6.65
471.035	6.64
471.471	6.64
471.907	6.63
472.344	6.64
472.78	6.65
473.216	6.66
473.652	6.66
474.088	6.65
474.523	6.64
474.959	6.65
475.395	6.66
475.831	6.65
476.266	6.65
476.702	6.65
477.138	6.65
477.573	6.65
478.008	6.65
478.444	6.63
478.879	6.64
479.314	6.63
479.75	6.62
480.185	6.61
480.62	6.62
481.055	6.62
481.49	6.62
481.925	6.63
482.36	6.63
482.795	6.64
483.229	6.66
483.664	6.67
484.099	6.68
484.534	6.69
484.968	6.71
485.403	6.73
485.837	6.76
486.271	6.8
486.706	6.83
487.14	6.87
487.574	6.91
488.009	6.94
488.443	6.99
488.877	7.05
489.311	7.1
489.745	7.17
490.179	7.24
490.613	7.31
491.046	7.38
491.48	7.45
491.914	7.53
492.348	7.61
492.781	7.71
493.215	7.81
493.648	7.91
494.082	8.01
494.515	8.11
494.948	8.22
495.382	8.33
495.815	8.45
496.248	8.58
496.681	8.7
497.114	8.84
497.547	8.97
497.98	9.1
498.413	9.24
498.846	9.39
499.279	9.55
499.711	9.71
500.144	9.88
500.577	10.04
501.009	10.22
501.442	10.4
501.874	10.58
502.306	10.78
502.739	10.97
503.171	11.18
503.603	11.39
504.036	11.61
504.468	11.82
504.9	12.03
505.332	12.26
505.764	12.49
506.196	12.73
506.627	12.97
507.059	13.21
507.491	13.45
507.923	13.7
508.354	13.95
508.786	14.21
509.217	14.48
509.649	14.75
510.08	15.02
510.512	15.3
510.943	15.56
511.374	15.84
511.805	16.11
512.237	16.4
512.668	16.69
513.099	16.97
513.53	17.25
513.961	17.53
514.391	17.81
514.822	18.09
515.253	18.35
515.684	18.62
516.114	18.89
516.545	19.16
516.975	19.42
517.406	19.69
517.836	19.94
518.267	20.21
518.697	20.46
519.127	20.7
519.558	20.95
519.988	21.2
520.418	21.45
520.848	21.67
521.278	21.91
521.708	22.24
522.138	22.45
522.567	22.64
522.997	22.82
523.427	23.03
523.857	23.23
524.286	23.4
524.716	23.57
525.145	23.74
525.575	23.92
526.004	24.07
526.433	24.11
526.863	24.27
527.292	24.43
527.721	24.57
528.15	24.7
528.579	24.81
529.008	24.95
529.437	25.04
529.866	25.16
530.295	25.25
530.724	25.35
531.152	25.45
531.581	25.53
532.01	25.6
532.438	25.69
532.867	25.76
533.295	25.83
533.723	25.88
534.152	25.95
534.58	26
535.008	26.04
535.436	26.09
535.865	26.12
536.293	26.14
536.721	26.18
537.149	26.21
537.576	26.24
538.004	26.27
538.432	26.31
538.86	26.33
539.287	26.34
539.715	26.38
540.143	26.39
540.57	26.41
540.998	26.44
541.425	26.45
541.852	26.49
542.28	26.52
542.707	26.53
543.134	26.55
543.561	26.58
543.988	26.6
544.415	26.61
544.842	26.62
545.269	26.65
545.696	26.67
546.123	26.69
546.549	26.69
546.976	26.7
547.403	26.72
547.829	26.74
548.256	26.77
548.682	26.81
549.108	26.84
549.535	26.87
549.961	26.88
550.387	26.89
550.813	26.92
551.24	26.94
551.666	26.95
552.092	26.96
552.518	26.95
552.943	26.93
553.369	26.91
553.795	26.9
554.221	26.89
554.646	26.88
555.072	26.85
555.498	26.82
555.923	26.78
556.349	26.75
556.774	26.71
557.199	26.67
557.625	26.66
558.05	26.62
558.475	26.58
558.9	26.54
559.325	26.5
559.75	26.44
560.175	26.39
560.6	26.33
561.025	26.27
561.449	26.2
561.874	26.12
562.299	26.03
562.723	25.94
563.148	25.84
563.572	25.73
563.997	25.64
564.421	25.55
564.846	25.44
565.27	25.33
565.694	25.23
566.118	25.13
566.542	25.03
566.966	24.91
567.39	24.79
567.814	24.68
568.238	24.56
568.662	24.43
569.086	24.31
569.509	24.2
569.933	24.08
570.357	23.94
570.78	23.81
571.204	23.69
571.627	23.57
572.05	23.46
572.474	23.36
572.897	23.26
573.32	23.16
573.743	23.06
574.166	22.96
574.589	22.86
575.012	22.79
575.435	22.71
575.858	22.63
576.281	22.56
576.704	22.5
577.126	22.42
577.549	22.33
577.972	22.26
578.394	22.19
578.817	22.11
579.239	22.04
579.661	21.97
580.084	21.9
580.506	21.82
580.928	21.75
581.35	21.69
581.772	21.62
582.194	21.57
582.616	21.5
583.038	21.45
583.46	21.39
583.882	21.32
584.303	21.27
584.725	21.21
585.147	21.15
585.568	21.1
585.99	21.04
586.411	20.97
586.833	20.91
587.254	20.86
587.675	20.8
588.096	20.77
588.518	20.72
588.939	20.69
589.36	20.65
589.781	20.61
590.202	20.57
590.623	20.53
591.043	20.49
591.464	20.46
591.885	20.41
592.305	20.38
592.726	20.35
593.147	20.31
593.567	20.27
593.987	20.23
594.408	20.2
594.828	20.16
595.248	20.14
595.669	20.13
596.089	20.1
596.509	20.08
596.929	20.05
597.349	20.02
597.769	19.99
598.189	19.95
598.608	19.93
599.028	19.91
599.448	19.87
599.867	19.81
600.287	19.77
600.706	19.74
601.126	19.7
601.545	19.66
601.965	19.62
602.384	19.59
602.803	19.55
603.222	19.5
603.641	19.45
604.061	19.42
604.48	19.39
604.898	19.33
605.317	19.29
605.736	19.24
606.155	19.18
606.574	19.13
606.992	19.06
607.411	19.01
607.829	18.92
608.248	18.85
608.666	18.78
609.085	18.71
609.503	18.65
609.921	18.58
610.339	18.51
610.758	18.45
611.176	18.38
611.594	18.32
612.012	18.27
612.43	18.21
612.847	18.15
613.265	18.08
613.683	18.02
614.101	17.96
614.518	17.9
614.936	17.83
615.353	17.76
615.771	17.7
616.188	17.63
616.606	17.56
617.023	17.5
617.44	17.45
617.857	17.42
618.274	17.36
618.691	17.3
619.108	17.26
619.525	17.21
619.942	17.18
620.359	17.15
620.776	17.11
621.192	17.08
621.609	17.05
622.026	17.03
622.442	17
622.859	17
623.275	16.99
623.691	16.97
624.108	16.95
624.524	16.94
624.94	16.93
625.356	16.93
625.772	16.93
626.188	16.92
626.604	16.92
627.02	16.9
627.436	16.89
627.852	16.87
628.268	16.86
628.683	16.84
629.099	16.82
629.514	16.8
629.93	16.76
630.345	16.73
630.761	16.69
631.176	16.63
631.591	16.59
632.007	16.52
632.422	16.47
632.837	16.4
633.252	16.32
633.667	16.23
634.082	16.13
634.497	16.05
634.911	15.94
635.326	15.83
635.741	15.72
636.155	15.59
636.57	15.47
636.984	15.34
637.399	15.18
637.813	15.03
638.228	14.88
638.642	14.72
639.056	14.55
639.47	14.38
639.884	14.22
640.298	14.04
640.712	13.88
641.126	13.7
641.54	13.51
641.954	13.36
642.368	13.2
642.781	13.03
643.195	12.88
643.609	12.72
644.022	12.58
644.436	12.44
644.849	12.3
645.262	12.18
645.676	12.06
646.089	11.94
646.502	11.84
646.915	11.74
647.328	11.67
647.741	11.59
648.154	11.51
648.567	11.44
648.98	11.37
649.393	11.31
649.805	11.26
650.218	11.21
650.631	11.18
651.043	11.12
651.456	11.07
651.868	11.02
652.28	10.97
652.693	10.94
653.105	10.89
653.517	10.83
653.929	10.79
654.341	10.71
654.753	10.65
655.165	10.57
655.577	10.49
655.989	10.4
656.401	10.3
656.813	10.22
657.224	10.12
657.636	10.02
658.047	9.91
658.459	9.8
658.87	9.7
659.282	9.57
659.693	9.45
660.104	9.32
660.515	9.2
660.926	9.08
661.338	8.95
661.749	8.82
662.159	8.69
662.57	8.58
662.981	8.44
663.392	8.32
663.803	8.21
664.213	8.1
664.624	8
665.035	7.89
665.445	7.8
665.855	7.7
666.266	7.63
666.676	7.56
667.086	7.47
667.497	7.42
667.907	7.36
668.317	7.31
668.727	7.26
669.137	7.21
669.547	7.18
669.956	7.14
670.366	7.13
670.776	7.08
671.186	7.06
671.595	7.05
672.005	7.02
672.414	7.02
672.824	7
673.233	7.01
673.642	7.03
674.052	7.03
674.461	7.03
674.87	7.04
675.279	7.08
675.688	7.1
676.097	7.14
676.506	7.19
676.915	7.24
677.323	7.29
677.732	7.35
678.141	7.41
678.549	7.5
678.958	7.61
679.366	7.73
679.775	7.85
680.183	7.98
680.592	8.14
681	8.32
681.408	8.51
681.816	8.73
682.224	8.98
682.632	9.23
683.04	9.52
683.448	9.82
683.856	10.13
684.264	10.49
684.671	10.87
685.079	11.27
685.487	11.7
685.894	12.15
686.302	12.61
686.709	13.11
687.116	13.62
687.524	14.15
687.931	14.69
688.338	15.25
688.745	15.82
689.152	16.4
689.559	17.01
689.966	17.59
690.373	18.19
690.78	18.79
691.187	19.39
691.593	19.99
692	20.58
692.407	21.15
692.813	21.72
693.22	22.27
693.626	22.83
694.032	23.36
694.439	23.9
694.845	24.43
695.251	24.93
695.657	25.42
696.063	25.91
696.469	26.38
696.875	26.85
697.281	27.31
697.687	27.77
698.093	28.19
698.498	28.6
698.904	29
699.31	29.36
699.715	29.74
700.12	30.11
700.526	30.45
700.931	30.8
701.337	31.12
701.742	31.44
702.147	31.73
702.552	32.03
702.957	32.3
703.362	32.6
703.767	32.86
704.172	33.11
704.577	33.36
704.981	33.6
705.386	33.83
705.791	34.07
706.195	34.31
706.6	34.55
707.004	34.75
707.408	34.98
707.813	35.18
708.217	35.4
708.621	35.6
709.025	35.77
709.43	35.94
709.834	36.13
710.237	36.31
710.641	36.44
711.045	36.58
711.449	36.77
711.853	36.92
712.256	37.05
712.66	37.19
713.064	37.33
713.467	37.5
713.87	37.64
714.274	37.76
714.677	37.9
715.08	38.04
715.484	38.17
715.887	38.29
716.29	38.4
716.693	38.54
717.096	38.66
717.499	38.78
717.901	38.88
718.304	39
718.707	39.12
719.109	39.24
719.512	39.34
719.915	39.45
720.317	39.52
720.719	39.62
721.122	39.71
721.524	39.8
721.926	39.88
722.328	39.99
722.731	40.05
723.133	40.12
723.535	40.18
723.937	40.26
724.338	40.33
724.74	40.42
725.142	40.51
725.544	40.55
725.945	40.62
726.347	40.67
726.748	40.7
727.15	40.74
727.551	40.83
727.952	40.87
728.354	40.92
728.755	40.94
729.156	40.96
729.557	40.98
729.958	41.02
730.359	41.06
730.76	41.1
731.161	41.15
731.562	41.19
731.962	41.18
732.363	41.2
732.763	41.24
733.164	41.26
733.564	41.3
733.965	41.3
734.365	41.34
734.766	41.34
735.166	41.35
735.566	41.36
735.966	41.42
736.366	41.44
736.766	41.46
737.166	41.48
737.566	41.51
737.966	41.54
738.365	41.58
738.765	41.59
739.165	41.62
739.564	41.64
739.964	41.67
740.363	41.65
740.763	41.66
741.162	41.67
741.561	41.67
741.96	41.66
742.36	41.66
742.759	41.66
743.158	41.66
743.557	41.67
743.955	41.69
744.354	41.69
744.753	41.73
745.152	41.77
745.55	41.8
745.949	41.81
746.348	41.85
746.746	41.87
747.144	41.88
747.543	41.92
747.941	41.93
748.339	41.94
748.737	41.94
749.136	41.93
749.534	41.92
749.932	41.91
750.33	41.92
750.727	41.94
751.125	41.94
751.523	41.92
751.921	41.89
752.318	41.87
752.716	41.87
753.113	41.87
753.511	41.86
753.908	41.87
754.305	41.85
754.703	41.83
755.1	41.8
755.497	41.78
755.894	41.77
756.291	41.78
756.688	41.76
757.085	41.76
757.482	41.74
757.878	41.73
758.275	41.73
758.672	41.73
759.068	41.74
759.465	41.73
759.861	41.72
760.258	41.71
760.654	41.69
761.05	41.71
761.447	41.7
761.843	41.69
762.239	41.67
762.635	41.64
763.031	41.64
763.427	41.61
763.822	41.61
764.218	41.63
764.614	41.66
765.01	41.66
765.405	41.65
765.801	41.62
766.196	41.63
766.592	41.63
766.987	41.63
767.382	41.64
767.778	41.64
768.173	41.65
768.568	41.64
768.963	41.61
769.358	41.61
769.753	41.62
770.148	41.63
770.542	41.64
770.937	41.66
771.332	41.65
771.726	41.62
772.121	41.63
772.515	41.62
772.91	41.61
773.304	41.63
773.699	41.64
774.093	41.61
774.487	41.61
774.881	41.63
775.275	41.63
775.669	41.62
776.063	41.64
776.457	41.64
776.851	41.65
777.245	41.66
777.638	41.64
778.032	41.67
778.425	41.7
778.819	41.68
779.212	41.66
779.606	41.67
779.999	41.67
