Data from C_3_DEC_CT_2N_Splice17_13-54-56-687.txt Node
Date: Sat Mar 07 13:54:56 EST 2020
User: sa697716
Spectrometer: NQ5500242
Trigger mode: 0
Integration Time (sec): 1.450000E-1
Scans to average: 20
Nonlinearity correction enabled: false
Boxcar width: 5
Storing dark spectrum: false
XAxis mode: Wavelengths
Number of Pixels in Spectrum: 512
>>>>>Begin Spectral Data<<<<<
187.83	108.3
188.298	145.37
188.766	137.79
189.233	124.02
189.701	121.79
190.169	154.01
190.636	178.91
191.104	240.94
191.571	42.43
192.039	-62.56
192.506	65.58
192.974	-23.51
193.441	125.24
193.908	101.05
194.375	110.74
194.842	63.51
195.31	117.51
195.777	255.14
196.244	65.7
196.711	50.99
197.177	54.08
197.644	52.86
198.111	52.62
198.578	52.95
199.045	53.41
199.511	53
199.978	53.11
200.445	53.27
200.911	53.28
201.378	53.08
201.844	53.13
202.31	52.79
202.777	52.81
203.243	52.62
203.709	52.19
204.176	51.36
204.642	51.21
205.108	51.24
205.574	50.6
206.04	49.71
206.506	49.26
206.972	48.98
207.438	48.52
207.903	47.91
208.369	46.93
208.835	45.99
209.301	45.14
209.766	43.68
210.232	42.1
210.697	41
211.163	40.22
211.628	39.07
212.094	37.98
212.559	37.06
213.024	36.29
213.49	35.47
213.955	34.63
214.42	33.79
214.885	33.02
215.35	31.76
215.815	30.23
216.28	28.05
216.745	25.76
217.21	23.54
217.675	21.25
218.14	19.21
218.604	17.55
219.069	16.16
219.534	14.97
219.998	13.96
220.463	13.17
220.927	12.43
221.392	11.89
221.856	11.41
222.32	10.98
222.785	10.67
223.249	10.36
223.713	10.09
224.177	9.85
224.642	9.64
225.106	9.41
225.57	9.2
226.034	9.02
226.497	8.85
226.961	8.7
227.425	8.54
227.889	8.38
228.353	8.25
228.816	8.11
229.28	7.97
229.744	7.85
230.207	7.74
230.671	7.62
231.134	7.5
231.597	7.4
232.061	7.29
232.524	7.19
232.987	7.08
233.45	6.99
233.914	6.89
234.377	6.78
234.84	6.67
235.303	6.59
235.766	6.52
236.229	6.43
236.691	6.34
237.154	6.27
237.617	6.2
238.08	6.14
238.542	6.07
239.005	6.01
239.468	5.97
239.93	5.91
240.393	5.84
240.855	5.76
241.317	5.71
241.78	5.65
242.242	5.58
242.704	5.54
243.166	5.48
243.629	5.43
244.091	5.36
244.553	5.3
245.015	5.26
245.477	5.2
245.939	5.15
246.4	5.11
246.862	5.06
247.324	5.01
247.786	4.95
248.247	4.9
248.709	4.84
249.17	4.78
249.632	4.75
250.093	4.71
250.555	4.66
251.016	4.62
251.477	4.57
251.939	4.53
252.4	4.49
252.861	4.45
253.322	4.43
253.783	4.4
254.244	4.37
254.705	4.32
255.166	4.29
255.627	4.26
256.088	4.23
256.549	4.21
257.009	4.18
257.47	4.14
257.931	4.11
258.391	4.07
258.852	4.03
259.312	4
259.773	3.97
260.233	3.94
260.694	3.91
261.154	3.88
261.614	3.84
262.074	3.8
262.534	3.77
262.994	3.75
263.455	3.72
263.915	3.69
264.374	3.66
264.834	3.64
265.294	3.62
265.754	3.6
266.214	3.57
266.673	3.54
267.133	3.53
267.593	3.52
268.052	3.5
268.512	3.49
268.971	3.48
269.431	3.46
269.89	3.44
270.349	3.43
270.809	3.42
271.268	3.42
271.727	3.41
272.186	3.4
272.645	3.4
273.104	3.38
273.563	3.37
274.022	3.36
274.481	3.36
274.94	3.36
275.399	3.35
275.857	3.34
276.316	3.33
276.775	3.32
277.233	3.32
277.692	3.31
278.15	3.31
278.609	3.31
279.067	3.3
279.525	3.29
279.984	3.29
280.442	3.29
280.9	3.29
281.358	3.28
281.816	3.28
282.274	3.29
282.732	3.28
283.19	3.28
283.648	3.28
284.106	3.27
284.564	3.27
285.021	3.28
285.479	3.28
285.937	3.28
286.394	3.28
286.852	3.27
287.309	3.26
287.767	3.24
288.224	3.24
288.682	3.22
289.139	3.2
289.596	3.19
290.053	3.17
290.511	3.14
290.968	3.13
291.425	3.1
291.882	3.09
292.339	3.08
292.796	3.06
293.252	3.05
293.709	3.05
294.166	3.04
294.623	3.04
295.079	3.03
295.536	3.02
295.992	3.02
296.449	3.01
296.905	3.01
297.362	3.01
297.818	3
298.274	3
298.731	2.99
299.187	2.98
299.643	2.97
300.099	2.97
300.555	2.96
301.011	2.95
301.467	2.95
301.923	2.94
302.379	2.93
302.835	2.94
303.291	2.94
303.746	2.93
304.202	2.93
304.658	2.94
305.113	2.94
305.569	2.94
306.024	2.95
306.479	2.95
306.935	2.95
307.39	2.96
307.845	2.96
308.301	2.96
308.756	2.97
309.211	2.97
309.666	2.98
310.121	2.99
310.576	2.99
311.031	2.99
311.486	2.99
311.94	3
312.395	3.01
312.85	3.01
313.305	3
313.759	3
314.214	2.99
314.668	2.98
315.123	2.99
315.577	2.98
316.032	2.99
316.486	2.98
316.94	2.98
317.394	2.96
317.849	2.95
318.303	2.95
318.757	2.94
319.211	2.94
319.665	2.92
320.119	2.9
320.572	2.89
321.026	2.88
321.48	2.86
321.934	2.85
322.387	2.84
322.841	2.84
323.295	2.84
323.748	2.84
324.202	2.84
324.655	2.85
325.108	2.85
325.562	2.85
326.015	2.85
326.468	2.85
326.921	2.86
327.374	2.86
327.827	2.86
328.28	2.86
328.733	2.86
329.186	2.86
329.639	2.86
330.092	2.86
330.545	2.86
330.997	2.86
331.45	2.88
331.903	2.89
332.355	2.9
332.808	2.9
333.26	2.89
333.713	2.89
334.165	2.9
334.617	2.9
335.069	2.9
335.522	2.91
335.974	2.91
336.426	2.9
336.878	2.9
337.33	2.9
337.782	2.9
338.234	2.91
338.686	2.91
339.137	2.93
339.589	2.92
340.041	2.92
340.493	2.91
340.944	2.9
341.396	2.9
341.847	2.88
342.299	2.87
342.75	2.85
343.201	2.83
343.653	2.82
344.104	2.79
344.555	2.78
345.006	2.76
345.457	2.75
345.908	2.74
346.359	2.73
346.81	2.72
347.261	2.72
347.712	2.72
348.163	2.71
348.613	2.72
349.064	2.72
349.515	2.72
349.965	2.72
350.416	2.72
350.866	2.72
351.317	2.72
351.767	2.73
352.217	2.73
352.668	2.72
353.118	2.73
353.568	2.73
354.018	2.74
354.468	2.75
354.918	2.75
355.368	2.75
355.818	2.76
356.268	2.77
356.718	2.77
357.168	2.77
357.617	2.77
358.067	2.76
358.517	2.77
358.966	2.77
359.416	2.77
359.865	2.76
360.315	2.76
360.764	2.75
361.213	2.75
361.663	2.74
362.112	2.74
362.561	2.75
363.01	2.76
363.459	2.74
363.908	2.75
364.357	2.75
364.806	2.74
365.255	2.74
365.703	2.76
366.152	2.76
366.601	2.76
367.05	2.77
367.498	2.76
367.947	2.76
368.395	2.77
368.844	2.77
369.292	2.77
369.74	2.78
370.189	2.78
370.637	2.77
371.085	2.75
371.533	2.75
371.981	2.75
372.429	2.76
372.877	2.75
373.325	2.76
373.773	2.74
374.221	2.74
374.669	2.73
375.116	2.72
375.564	2.72
376.012	2.72
376.459	2.73
376.907	2.72
377.354	2.72
377.801	2.72
378.249	2.72
378.696	2.73
379.143	2.73
379.591	2.73
380.038	2.73
380.485	2.74
380.932	2.73
381.379	2.74
381.826	2.74
382.273	2.73
382.72	2.73
383.166	2.73
383.613	2.72
384.06	2.72
384.506	2.72
384.953	2.72
385.4	2.73
385.846	2.73
386.292	2.72
386.739	2.73
387.185	2.73
387.631	2.74
388.078	2.74
388.524	2.74
388.97	2.74
389.416	2.75
389.862	2.76
390.308	2.77
390.754	2.79
391.2	2.81
391.645	2.81
392.091	2.84
392.537	2.85
392.983	2.86
393.428	2.88
393.874	2.89
394.319	2.9
394.765	2.9
395.21	2.9
395.655	2.91
396.101	2.92
396.546	2.93
396.991	2.95
397.436	2.96
397.881	2.99
398.326	3
398.771	3.03
399.216	3.04
399.661	3.07
400.106	3.09
400.551	3.1
400.995	3.11
401.44	3.12
401.885	3.13
402.329	3.14
402.774	3.15
403.218	3.18
403.663	3.19
404.107	3.19
404.551	3.21
404.995	3.22
405.44	3.24
405.884	3.25
406.328	3.28
406.772	3.28
407.216	3.29
407.66	3.3
408.104	3.3
408.547	3.32
408.991	3.34
409.435	3.35
409.879	3.37
410.322	3.39
410.766	3.42
411.209	3.43
411.653	3.47
412.096	3.5
412.54	3.52
412.983	3.54
413.426	3.58
413.869	3.61
414.312	3.65
414.756	3.68
415.199	3.69
415.642	3.71
416.085	3.73
416.527	3.72
416.97	3.72
417.413	3.73
417.856	3.73
418.298	3.72
418.741	3.72
419.184	3.71
419.626	3.71
420.069	3.71
420.511	3.72
420.953	3.72
421.396	3.74
421.838	3.76
422.28	3.77
422.722	3.8
423.164	3.81
423.606	3.83
424.048	3.84
424.49	3.85
424.932	3.86
425.374	3.85
425.816	3.84
426.258	3.83
426.699	3.82
427.141	3.82
427.582	3.81
428.024	3.82
428.465	3.82
428.907	3.82
429.348	3.81
429.789	3.81
430.231	3.85
430.672	3.87
431.113	3.91
431.554	3.95
431.995	3.97
432.436	3.98
432.877	4
433.318	4.02
433.759	4.06
434.2	4.1
434.64	4.14
435.081	4.15
435.522	4.18
435.962	4.19
436.403	4.21
436.843	4.23
437.284	4.23
437.724	4.24
438.164	4.23
438.604	4.23
439.045	4.22
439.485	4.22
439.925	4.22
440.365	4.21
440.805	4.2
441.245	4.21
441.685	4.22
442.125	4.23
442.564	4.24
443.004	4.24
443.444	4.25
443.883	4.26
444.323	4.24
444.762	4.25
445.202	4.27
445.641	4.3
446.081	4.29
446.52	4.28
446.959	4.3
447.398	4.31
447.837	4.32
448.276	4.33
448.716	4.33
449.154	4.36
449.593	4.38
450.032	4.38
450.471	4.36
450.91	4.35
451.349	4.36
451.787	4.33
452.226	4.33
452.664	4.31
453.103	4.29
453.541	4.29
453.98	4.28
454.418	4.24
454.856	4.22
455.295	4.2
455.733	4.19
456.171	4.17
456.609	4.17
457.047	4.14
457.485	4.13
457.923	4.13
458.361	4.12
458.798	4.11
459.236	4.11
459.674	4.1
460.111	4.1
460.549	4.12
460.987	4.11
461.424	4.11
461.862	4.12
462.299	4.13
462.736	4.12
463.173	4.13
463.611	4.13
464.048	4.15
464.485	4.16
464.922	4.16
465.359	4.16
465.796	4.2
466.233	4.2
466.67	4.22
467.106	4.24
467.543	4.24
467.98	4.22
468.416	4.21
468.853	4.2
469.29	4.19
469.726	4.19
470.162	4.18
470.599	4.16
471.035	4.14
471.471	4.13
471.907	4.1
472.344	4.09
472.78	4.1
473.216	4.09
473.652	4.08
474.088	4.06
474.523	4.06
474.959	4.05
475.395	4.03
475.831	4.02
476.266	4.01
476.702	3.99
477.138	3.99
477.573	3.98
478.008	3.98
478.444	3.96
478.879	3.97
479.314	3.95
479.75	3.95
480.185	3.93
480.62	3.92
481.055	3.91
481.49	3.89
481.925	3.88
482.36	3.87
482.795	3.85
483.229	3.84
483.664	3.84
484.099	3.83
484.534	3.82
484.968	3.82
485.403	3.82
485.837	3.82
486.271	3.83
486.706	3.82
487.14	3.81
487.574	3.82
488.009	3.82
488.443	3.81
488.877	3.82
489.311	3.83
489.745	3.83
490.179	3.84
490.613	3.85
491.046	3.86
491.48	3.87
491.914	3.89
492.348	3.9
492.781	3.92
493.215	3.94
493.648	3.96
494.082	3.97
494.515	3.99
494.948	4.02
495.382	4.03
495.815	4.06
496.248	4.08
496.681	4.1
497.114	4.13
497.547	4.16
497.98	4.19
498.413	4.22
498.846	4.25
499.279	4.29
499.711	4.31
500.144	4.35
500.577	4.39
501.009	4.44
501.442	4.48
501.874	4.54
502.306	4.59
502.739	4.66
503.171	4.72
503.603	4.79
504.036	4.86
504.468	4.93
504.9	5
505.332	5.07
505.764	5.16
506.196	5.25
506.627	5.35
507.059	5.44
507.491	5.53
507.923	5.64
508.354	5.76
508.786	5.87
509.217	6
509.649	6.13
510.08	6.28
510.512	6.41
510.943	6.55
511.374	6.7
511.805	6.85
512.237	7.01
512.668	7.18
513.099	7.34
513.53	7.52
513.961	7.7
514.391	7.89
514.822	8.08
515.253	8.28
515.684	8.48
516.114	8.69
516.545	8.9
516.975	9.13
517.406	9.35
517.836	9.57
518.267	9.81
518.697	10.02
519.127	10.25
519.558	10.49
519.988	10.72
520.418	10.94
520.848	11.16
521.278	11.38
521.708	11.78
522.138	12
522.567	12.23
522.997	12.43
523.427	12.65
523.857	12.86
524.286	13.06
524.716	13.27
525.145	13.47
525.575	13.67
526.004	13.87
526.433	13.87
526.863	14.05
527.292	14.23
527.721	14.39
528.15	14.56
528.579	14.72
529.008	14.88
529.437	15.03
529.866	15.16
530.295	15.31
530.724	15.43
531.152	15.55
531.581	15.68
532.01	15.79
532.438	15.9
532.867	16.01
533.295	16.1
533.723	16.18
534.152	16.25
534.58	16.34
535.008	16.39
535.436	16.46
535.865	16.53
536.293	16.58
536.721	16.63
537.149	16.68
537.576	16.73
538.004	16.77
538.432	16.81
538.86	16.86
539.287	16.89
539.715	16.96
540.143	16.99
540.57	17.03
540.998	17.06
541.425	17.1
541.852	17.14
542.28	17.17
542.707	17.21
543.134	17.24
543.561	17.29
543.988	17.34
544.415	17.36
544.842	17.39
545.269	17.42
545.696	17.47
546.123	17.49
546.549	17.51
546.976	17.56
547.403	17.58
547.829	17.61
548.256	17.64
548.682	17.65
549.108	17.68
549.535	17.71
549.961	17.71
550.387	17.71
550.813	17.74
551.24	17.74
551.666	17.72
552.092	17.71
552.518	17.7
552.943	17.67
553.369	17.64
553.795	17.61
554.221	17.56
554.646	17.52
555.072	17.47
555.498	17.41
555.923	17.35
556.349	17.27
556.774	17.19
557.199	17.12
557.625	17.04
558.05	16.97
558.475	16.88
558.9	16.8
559.325	16.72
559.75	16.63
560.175	16.53
560.6	16.43
561.025	16.33
561.449	16.22
561.874	16.09
562.299	15.96
562.723	15.83
563.148	15.69
563.572	15.55
563.997	15.4
564.421	15.25
564.846	15.11
565.27	14.96
565.694	14.81
566.118	14.66
566.542	14.51
566.966	14.36
567.39	14.2
567.814	14.05
568.238	13.9
568.662	13.73
569.086	13.58
569.509	13.44
569.933	13.3
570.357	13.15
570.78	13.01
571.204	12.87
571.627	12.73
572.05	12.6
572.474	12.5
572.897	12.38
573.32	12.25
573.743	12.14
574.166	12.02
574.589	11.9
575.012	11.8
575.435	11.7
575.858	11.6
576.281	11.51
576.704	11.41
577.126	11.31
577.549	11.21
577.972	11.13
578.394	11.05
578.817	10.97
579.239	10.89
579.661	10.82
580.084	10.76
580.506	10.7
580.928	10.63
581.35	10.58
581.772	10.51
582.194	10.45
582.616	10.4
583.038	10.33
583.46	10.27
583.882	10.22
584.303	10.16
584.725	10.09
585.147	10.04
585.568	10
585.99	9.94
586.411	9.89
586.833	9.85
587.254	9.79
587.675	9.75
588.096	9.7
588.518	9.65
588.939	9.62
589.36	9.58
589.781	9.54
590.202	9.5
590.623	9.46
591.043	9.43
591.464	9.39
591.885	9.37
592.305	9.33
592.726	9.32
593.147	9.29
593.567	9.27
593.987	9.23
594.408	9.19
594.828	9.16
595.248	9.14
595.669	9.13
596.089	9.1
596.509	9.07
596.929	9.05
597.349	9.01
597.769	8.98
598.189	8.94
598.608	8.91
599.028	8.89
599.448	8.85
599.867	8.82
600.287	8.77
600.706	8.74
601.126	8.7
601.545	8.66
601.965	8.63
602.384	8.6
602.803	8.56
603.222	8.52
603.641	8.46
604.061	8.42
604.48	8.37
604.898	8.32
605.317	8.27
605.736	8.23
606.155	8.18
606.574	8.13
606.992	8.07
607.411	8.01
607.829	7.93
608.248	7.88
608.666	7.82
609.085	7.76
609.503	7.71
609.921	7.65
610.339	7.58
610.758	7.52
611.176	7.47
611.594	7.42
612.012	7.35
612.43	7.34
612.847	7.29
613.265	7.25
613.683	7.2
614.101	7.15
614.518	7.11
614.936	7.05
615.353	7
615.771	6.96
616.188	6.91
616.606	6.87
617.023	6.83
617.44	6.8
617.857	6.76
618.274	6.72
618.691	6.69
619.108	6.65
619.525	6.63
619.942	6.62
620.359	6.6
620.776	6.59
621.192	6.57
621.609	6.55
622.026	6.52
622.442	6.51
622.859	6.49
623.275	6.48
623.691	6.47
624.108	6.46
624.524	6.44
624.94	6.43
625.356	6.42
625.772	6.41
626.188	6.4
626.604	6.38
627.02	6.37
627.436	6.38
627.852	6.37
628.268	6.35
628.683	6.35
629.099	6.35
629.514	6.34
629.93	6.34
630.345	6.34
630.761	6.33
631.176	6.32
631.591	6.31
632.007	6.29
632.422	6.26
632.837	6.25
633.252	6.22
633.667	6.19
634.082	6.15
634.497	6.11
634.911	6.07
635.326	6.03
635.741	6
636.155	5.94
636.57	5.9
636.984	5.86
637.399	5.81
637.813	5.75
638.228	5.69
638.642	5.63
639.056	5.57
639.47	5.51
639.884	5.47
640.298	5.41
640.712	5.36
641.126	5.3
641.54	5.24
641.954	5.17
642.368	5.12
642.781	5.08
643.195	5.02
643.609	4.98
644.022	4.93
644.436	4.88
644.849	4.83
645.262	4.79
645.676	4.74
646.089	4.71
646.502	4.69
646.915	4.66
647.328	4.63
647.741	4.6
648.154	4.57
648.567	4.56
648.98	4.53
649.393	4.51
649.805	4.49
650.218	4.47
650.631	4.46
651.043	4.44
651.456	4.42
651.868	4.4
652.28	4.39
652.693	4.38
653.105	4.36
653.517	4.34
653.929	4.32
654.341	4.3
654.753	4.27
655.165	4.24
655.577	4.22
655.989	4.2
656.401	4.17
656.813	4.14
657.224	4.1
657.636	4.06
658.047	4.04
658.459	4.02
658.87	3.99
659.282	3.96
659.693	3.94
660.104	3.9
660.515	3.88
660.926	3.86
661.338	3.84
661.749	3.82
662.159	3.81
662.57	3.8
662.981	3.78
663.392	3.77
663.803	3.76
664.213	3.75
664.624	3.74
665.035	3.74
665.445	3.73
665.855	3.73
666.266	3.73
666.676	3.74
667.086	3.72
667.497	3.72
667.907	3.72
668.317	3.72
668.727	3.73
669.137	3.74
669.547	3.75
669.956	3.74
670.366	3.75
670.776	3.75
671.186	3.75
671.595	3.76
672.005	3.77
672.414	3.78
672.824	3.8
673.233	3.81
673.642	3.82
674.052	3.84
674.461	3.86
674.87	3.88
675.279	3.88
675.688	3.9
676.097	3.93
676.506	3.95
676.915	3.97
677.323	4
677.732	4.01
678.141	4.04
678.549	4.06
678.958	4.09
679.366	4.12
679.775	4.15
680.183	4.18
680.592	4.23
681	4.26
681.408	4.29
681.816	4.32
682.224	4.36
682.632	4.41
683.04	4.45
683.448	4.49
683.856	4.54
684.264	4.6
684.671	4.66
685.079	4.73
685.487	4.81
685.894	4.91
686.302	5.02
686.709	5.14
687.116	5.27
687.524	5.43
687.931	5.6
688.338	5.79
688.745	5.98
689.152	6.2
689.559	6.44
689.966	6.71
690.373	6.98
690.78	7.29
691.187	7.62
691.593	7.97
692	8.34
692.407	8.74
692.813	9.16
693.22	9.59
693.626	10.04
694.032	10.51
694.439	10.99
694.845	11.5
695.251	12.01
695.657	12.53
696.063	13.07
696.469	13.61
696.875	14.18
697.281	14.74
697.687	15.34
698.093	15.93
698.498	16.51
698.904	17.1
699.31	17.7
699.715	18.32
700.12	18.95
700.526	19.57
700.931	20.19
701.337	20.79
701.742	21.41
702.147	22.01
702.552	22.63
702.957	23.23
703.362	23.83
703.767	24.43
704.172	25.02
704.577	25.62
704.981	26.21
705.386	26.8
705.791	27.39
706.195	27.97
706.6	28.57
707.004	29.14
707.408	29.74
707.813	30.34
708.217	30.9
708.621	31.5
709.025	32.05
709.43	32.59
709.834	33.16
710.237	33.7
710.641	34.26
711.045	34.79
711.449	35.34
711.853	35.89
712.256	36.39
712.66	36.93
713.064	37.43
713.467	37.95
713.87	38.48
714.274	38.97
714.677	39.51
715.08	39.99
715.484	40.49
715.887	40.99
716.29	41.44
716.693	41.94
717.096	42.4
717.499	42.87
717.901	43.32
718.304	43.78
718.707	44.2
719.109	44.63
719.512	45.06
719.915	45.48
720.317	45.87
720.719	46.26
721.122	46.62
721.524	47.02
721.926	47.41
722.328	47.82
722.731	48.17
723.133	48.54
723.535	48.89
723.937	49.25
724.338	49.6
724.74	49.94
725.142	50.4
725.544	50.72
725.945	51.05
726.347	51.32
726.748	51.58
727.15	51.87
727.551	52.16
727.952	52.41
728.354	52.67
728.755	52.88
729.156	53.1
729.557	53.19
729.958	53.43
730.359	53.65
730.76	53.83
731.161	54.06
731.562	54.28
731.962	54.44
732.363	54.64
732.763	54.81
733.164	54.99
733.564	55.17
733.965	55.35
734.365	55.51
734.766	55.64
735.166	55.83
735.566	55.97
735.966	56.09
736.366	56.24
736.766	56.35
737.166	56.48
737.566	56.62
737.966	56.75
738.365	56.86
738.765	56.98
739.165	57.1
739.564	57.21
739.964	57.29
740.363	57.37
740.763	57.47
741.162	57.57
741.561	57.65
741.96	57.71
742.36	57.78
742.759	57.85
743.158	57.91
743.557	57.93
743.955	58.02
744.354	58.06
744.753	58.15
745.152	58.23
745.55	58.3
745.949	58.37
746.348	58.46
746.746	58.52
747.144	58.6
747.543	58.65
747.941	58.72
748.339	58.74
748.737	58.78
749.136	58.79
749.534	58.79
749.932	58.8
750.33	58.8
750.727	58.82
751.125	58.85
751.523	58.84
751.921	58.87
752.318	58.88
752.716	58.91
753.113	58.96
753.511	58.99
753.908	59.04
754.305	59.07
754.703	59.11
755.1	59.12
755.497	59.14
755.894	59.15
756.291	59.14
756.688	59.15
757.085	59.18
757.482	59.19
757.878	59.2
758.275	59.23
758.672	59.23
759.068	59.25
759.465	59.26
759.861	59.26
760.258	59.3
760.654	59.33
761.05	59.33
761.447	59.35
761.843	59.34
762.239	59.35
762.635	59.32
763.031	59.32
763.427	59.29
763.822	59.34
764.218	59.36
764.614	59.36
765.01	59.36
765.405	59.38
765.801	59.35
766.196	59.37
766.592	59.37
766.987	59.39
767.382	59.38
767.778	59.39
768.173	59.4
768.568	59.39
768.963	59.37
769.358	59.39
769.753	59.41
770.148	59.44
770.542	59.42
770.937	59.44
771.332	59.43
771.726	59.45
772.121	59.45
772.515	59.42
772.91	59.42
773.304	59.45
773.699	59.43
774.093	59.4
774.487	59.39
774.881	59.44
775.275	59.4
775.669	59.37
776.063	59.35
776.457	59.36
776.851	59.34
777.245	59.32
777.638	59.29
778.032	59.28
778.425	59.32
778.819	59.34
779.212	59.33
779.606	59.38
779.999	59.39
780.392	59.44
780.786	59.43
781.179	59.45
781.572	59.51
781.965	59.53
782.358	59.59
782.751	59.54
783.143	59.55
783.536	59.52
783.929	59.49
784.322	59.49
784.714	59.5
785.107	59.56
785.499	59.52
785.891	59.51
786.284	59.53
786.676	59.53
787.068	59.56
