Data from C_3_HIR_IL_4N_Splice17_14-27-44-891.txt Node
Date: Sat Mar 07 14:27:44 EST 2020
User: sa697716
Spectrometer: NQ5500242
Trigger mode: 0
Integration Time (sec): 1.450000E-1
Scans to average: 20
Nonlinearity correction enabled: false
Boxcar width: 5
Storing dark spectrum: false
XAxis mode: Wavelengths
Number of Pixels in Spectrum: 512
>>>>>Begin Spectral Data<<<<<
187.83	98.54
188.298	121.75
188.766	98.92
189.233	80.85
189.701	64.54
190.169	77.66
190.636	72.74
191.104	29.28
191.571	-96.5
192.039	-37.54
192.506	-143.81
192.974	40.12
193.441	144.31
193.908	46.9
194.375	62.93
194.842	-51.94
195.31	-44.68
195.777	-271.01
196.244	40.07
196.711	66.82
197.177	71.71
197.644	72.6
198.111	73.06
198.578	73.21
199.045	73.64
199.511	73.56
199.978	73.76
200.445	73.82
200.911	74.05
201.378	74.29
201.844	74.21
202.31	73.89
202.777	74.02
203.243	73.81
203.709	73.76
204.176	73.12
204.642	72.59
205.108	72.49
205.574	72.4
206.04	71.75
206.506	71.23
206.972	70.76
207.438	69.98
207.903	68.7
208.369	67.18
208.835	65.4
209.301	63.85
209.766	62.13
210.232	60.18
210.697	58.24
211.163	56.65
211.628	55.19
212.094	53.46
212.559	51.85
213.024	50.68
213.49	49.61
213.955	48.53
214.42	47.36
214.885	45.93
215.35	44.19
215.815	41.69
216.28	38.66
216.745	35.26
217.21	31.98
217.675	28.9
218.14	26.1
218.604	23.66
219.069	21.59
219.534	19.87
219.998	18.47
220.463	17.28
220.927	16.25
221.392	15.47
221.856	14.82
222.32	14.25
222.785	13.74
223.249	13.27
223.713	12.88
224.177	12.54
224.642	12.22
225.106	11.92
225.57	11.61
226.034	11.35
226.497	11.11
226.961	10.86
227.425	10.63
227.889	10.42
228.353	10.24
228.816	10.03
229.28	9.84
229.744	9.67
230.207	9.5
230.671	9.34
231.134	9.2
231.597	9.05
232.061	8.91
232.524	8.78
232.987	8.67
233.45	8.56
233.914	8.45
234.377	8.34
234.84	8.22
235.303	8.13
235.766	8.04
236.229	7.95
236.691	7.85
237.154	7.77
237.617	7.7
238.08	7.62
238.542	7.54
239.005	7.48
239.468	7.42
239.93	7.37
240.393	7.29
240.855	7.21
241.317	7.15
241.78	7.08
242.242	7
242.704	6.94
243.166	6.88
243.629	6.83
244.091	6.76
244.553	6.69
245.015	6.63
245.477	6.58
245.939	6.52
246.4	6.47
246.862	6.42
247.324	6.38
247.786	6.33
248.247	6.27
248.709	6.2
249.17	6.15
249.632	6.1
250.093	6.05
250.555	6
251.016	5.95
251.477	5.91
251.939	5.86
252.4	5.82
252.861	5.77
253.322	5.74
253.783	5.71
254.244	5.68
254.705	5.64
255.166	5.6
255.627	5.57
256.088	5.54
256.549	5.51
257.009	5.47
257.47	5.43
257.931	5.39
258.391	5.34
258.852	5.29
259.312	5.25
259.773	5.21
260.233	5.18
260.694	5.14
261.154	5.09
261.614	5.05
262.074	5.01
262.534	4.97
262.994	4.95
263.455	4.92
263.915	4.89
264.374	4.86
264.834	4.84
265.294	4.81
265.754	4.78
266.214	4.76
266.673	4.74
267.133	4.72
267.593	4.71
268.052	4.7
268.512	4.68
268.971	4.66
269.431	4.65
269.89	4.64
270.349	4.62
270.809	4.61
271.268	4.6
271.727	4.58
272.186	4.57
272.645	4.56
273.104	4.54
273.563	4.53
274.022	4.52
274.481	4.51
274.94	4.5
275.399	4.48
275.857	4.47
276.316	4.46
276.775	4.45
277.233	4.45
277.692	4.44
278.15	4.43
278.609	4.42
279.067	4.4
279.525	4.4
279.984	4.39
280.442	4.39
280.9	4.39
281.358	4.39
281.816	4.39
282.274	4.38
282.732	4.38
283.19	4.38
283.648	4.38
284.106	4.38
284.564	4.38
285.021	4.38
285.479	4.38
285.937	4.37
286.394	4.37
286.852	4.36
287.309	4.35
287.767	4.34
288.224	4.33
288.682	4.31
289.139	4.3
289.596	4.28
290.053	4.26
290.511	4.24
290.968	4.23
291.425	4.21
291.882	4.19
292.339	4.17
292.796	4.15
293.252	4.14
293.709	4.13
294.166	4.12
294.623	4.11
295.079	4.1
295.536	4.09
295.992	4.09
296.449	4.08
296.905	4.08
297.362	4.07
297.818	4.06
298.274	4.06
298.731	4.04
299.187	4.04
299.643	4.04
300.099	4.03
300.555	4.03
301.011	4.02
301.467	4.02
301.923	4.02
302.379	4.02
302.835	4.02
303.291	4.02
303.746	4.02
304.202	4.02
304.658	4.02
305.113	4.03
305.569	4.03
306.024	4.03
306.479	4.03
306.935	4.03
307.39	4.03
307.845	4.04
308.301	4.04
308.756	4.05
309.211	4.05
309.666	4.06
310.121	4.06
310.576	4.07
311.031	4.07
311.486	4.08
311.94	4.09
312.395	4.1
312.85	4.1
313.305	4.11
313.759	4.11
314.214	4.11
314.668	4.11
315.123	4.12
315.577	4.11
316.032	4.11
316.486	4.1
316.94	4.09
317.394	4.08
317.849	4.07
318.303	4.06
318.757	4.05
319.211	4.04
319.665	4.02
320.119	4
320.572	3.99
321.026	3.99
321.48	3.98
321.934	3.97
322.387	3.96
322.841	3.95
323.295	3.94
323.748	3.94
324.202	3.94
324.655	3.94
325.108	3.94
325.562	3.95
326.015	3.95
326.468	3.95
326.921	3.96
327.374	3.97
327.827	3.97
328.28	3.97
328.733	3.97
329.186	3.99
329.639	3.99
330.092	4
330.545	4
330.997	4.01
331.45	4.01
331.903	4.02
332.355	4.03
332.808	4.03
333.26	4.05
333.713	4.06
334.165	4.05
334.617	4.06
335.069	4.06
335.522	4.07
335.974	4.08
336.426	4.08
336.878	4.08
337.33	4.07
337.782	4.07
338.234	4.07
338.686	4.07
339.137	4.08
339.589	4.07
340.041	4.07
340.493	4.06
340.944	4.04
341.396	4.03
341.847	4.02
342.299	4.01
342.75	3.99
343.201	3.97
343.653	3.95
344.104	3.93
344.555	3.91
345.006	3.89
345.457	3.87
345.908	3.87
346.359	3.87
346.81	3.86
347.261	3.85
347.712	3.85
348.163	3.85
348.613	3.85
349.064	3.86
349.515	3.86
349.965	3.86
350.416	3.86
350.866	3.86
351.317	3.85
351.767	3.86
352.217	3.85
352.668	3.85
353.118	3.86
353.568	3.86
354.018	3.87
354.468	3.87
354.918	3.87
355.368	3.88
355.818	3.88
356.268	3.89
356.718	3.89
357.168	3.9
357.617	3.89
358.067	3.89
358.517	3.9
358.966	3.9
359.416	3.9
359.865	3.9
360.315	3.9
360.764	3.91
361.213	3.9
361.663	3.9
362.112	3.91
362.561	3.92
363.01	3.92
363.459	3.91
363.908	3.91
364.357	3.9
364.806	3.9
365.255	3.9
365.703	3.9
366.152	3.92
366.601	3.93
367.05	3.93
367.498	3.92
367.947	3.93
368.395	3.95
368.844	3.95
369.292	3.96
369.74	3.98
370.189	3.98
370.637	3.99
371.085	3.98
371.533	3.99
371.981	4
372.429	4.02
372.877	4.03
373.325	4.03
373.773	4.03
374.221	4.04
374.669	4.05
375.116	4.04
375.564	4.05
376.012	4.06
376.459	4.06
376.907	4.08
377.354	4.09
377.801	4.1
378.249	4.12
378.696	4.14
379.143	4.15
379.591	4.17
380.038	4.2
380.485	4.22
380.932	4.24
381.379	4.27
381.826	4.28
382.273	4.3
382.72	4.31
383.166	4.32
383.613	4.34
384.06	4.35
384.506	4.36
384.953	4.38
385.4	4.4
385.846	4.42
386.292	4.44
386.739	4.47
387.185	4.49
387.631	4.52
388.078	4.55
388.524	4.58
388.97	4.6
389.416	4.63
389.862	4.67
390.308	4.69
390.754	4.72
391.2	4.75
391.645	4.78
392.091	4.82
392.537	4.85
392.983	4.88
393.428	4.92
393.874	4.95
394.319	4.97
394.765	4.97
395.21	5
395.655	5.02
396.101	5.05
396.546	5.07
396.991	5.09
397.436	5.12
397.881	5.15
398.326	5.17
398.771	5.2
399.216	5.24
399.661	5.29
400.106	5.31
400.551	5.32
400.995	5.33
401.44	5.34
401.885	5.36
402.329	5.37
402.774	5.38
403.218	5.41
403.663	5.43
404.107	5.44
404.551	5.46
404.995	5.48
405.44	5.49
405.884	5.52
406.328	5.54
406.772	5.56
407.216	5.59
407.66	5.6
408.104	5.6
408.547	5.61
408.991	5.63
409.435	5.65
409.879	5.67
410.322	5.7
410.766	5.71
411.209	5.74
411.653	5.77
412.096	5.78
412.54	5.81
412.983	5.84
413.426	5.88
413.869	5.9
414.312	5.94
414.756	5.97
415.199	5.99
415.642	6.01
416.085	6.02
416.527	6.03
416.97	6.03
417.413	6.02
417.856	6.02
418.298	6.01
418.741	6.01
419.184	5.99
419.626	5.99
420.069	6
420.511	6
420.953	6.01
421.396	6.02
421.838	6.04
422.28	6.06
422.722	6.08
423.164	6.09
423.606	6.11
424.048	6.14
424.49	6.15
424.932	6.16
425.374	6.14
425.816	6.12
426.258	6.1
426.699	6.08
427.141	6.08
427.582	6.07
428.024	6.09
428.465	6.09
428.907	6.09
429.348	6.08
429.789	6.09
430.231	6.12
430.672	6.15
431.113	6.19
431.554	6.21
431.995	6.23
432.436	6.24
432.877	6.26
433.318	6.27
433.759	6.3
434.2	6.33
434.64	6.36
435.081	6.38
435.522	6.41
435.962	6.43
436.403	6.48
436.843	6.49
437.284	6.5
437.724	6.51
438.164	6.5
438.604	6.51
439.045	6.52
439.485	6.51
439.925	6.5
440.365	6.5
440.805	6.48
441.245	6.48
441.685	6.5
442.125	6.51
442.564	6.53
443.004	6.52
443.444	6.52
443.883	6.51
444.323	6.52
444.762	6.54
445.202	6.53
445.641	6.56
446.081	6.56
446.52	6.55
446.959	6.58
447.398	6.58
447.837	6.59
448.276	6.61
448.716	6.63
449.154	6.65
449.593	6.65
450.032	6.67
450.471	6.64
450.91	6.63
451.349	6.63
451.787	6.59
452.226	6.56
452.664	6.55
453.103	6.52
453.541	6.51
453.98	6.5
454.418	6.47
454.856	6.44
455.295	6.43
455.733	6.4
456.171	6.38
456.609	6.36
457.047	6.34
457.485	6.32
457.923	6.31
458.361	6.28
458.798	6.27
459.236	6.26
459.674	6.24
460.111	6.23
460.549	6.23
460.987	6.23
461.424	6.23
461.862	6.23
462.299	6.24
462.736	6.23
463.173	6.23
463.611	6.22
464.048	6.22
464.485	6.23
464.922	6.23
465.359	6.24
465.796	6.24
466.233	6.25
466.67	6.27
467.106	6.27
467.543	6.27
467.98	6.27
468.416	6.27
468.853	6.27
469.29	6.28
469.726	6.26
470.162	6.25
470.599	6.25
471.035	6.23
471.471	6.2
471.907	6.19
472.344	6.2
472.78	6.19
473.216	6.17
473.652	6.16
474.088	6.13
474.523	6.13
474.959	6.13
475.395	6.1
475.831	6.08
476.266	6.08
476.702	6.06
477.138	6.05
477.573	6.04
478.008	6.04
478.444	6.01
478.879	6.01
479.314	6
479.75	6
480.185	5.98
480.62	5.98
481.055	5.96
481.49	5.94
481.925	5.92
482.36	5.91
482.795	5.9
483.229	5.88
483.664	5.88
484.099	5.85
484.534	5.83
484.968	5.83
485.403	5.81
485.837	5.81
486.271	5.81
486.706	5.79
487.14	5.79
487.574	5.78
488.009	5.78
488.443	5.77
488.877	5.76
489.311	5.77
489.745	5.77
490.179	5.79
490.613	5.8
491.046	5.8
491.48	5.8
491.914	5.81
492.348	5.82
492.781	5.84
493.215	5.86
493.648	5.88
494.082	5.9
494.515	5.91
494.948	5.92
495.382	5.93
495.815	5.96
496.248	5.99
496.681	6
497.114	6.03
497.547	6.05
497.98	6.07
498.413	6.09
498.846	6.12
499.279	6.16
499.711	6.19
500.144	6.23
500.577	6.27
501.009	6.31
501.442	6.36
501.874	6.41
502.306	6.46
502.739	6.52
503.171	6.58
503.603	6.63
504.036	6.7
504.468	6.76
504.9	6.82
505.332	6.89
505.764	6.98
506.196	7.05
506.627	7.15
507.059	7.24
507.491	7.33
507.923	7.43
508.354	7.55
508.786	7.67
509.217	7.8
509.649	7.93
510.08	8.07
510.512	8.21
510.943	8.35
511.374	8.49
511.805	8.63
512.237	8.78
512.668	8.94
513.099	9.1
513.53	9.27
513.961	9.44
514.391	9.62
514.822	9.8
515.253	9.98
515.684	10.17
516.114	10.36
516.545	10.56
516.975	10.75
517.406	10.95
517.836	11.15
518.267	11.37
518.697	11.57
519.127	11.76
519.558	11.97
519.988	12.18
520.418	12.38
520.848	12.6
521.278	12.81
521.708	13.12
522.138	13.33
522.567	13.53
522.997	13.72
523.427	13.92
523.857	14.12
524.286	14.31
524.716	14.5
525.145	14.69
525.575	14.87
526.004	15.05
526.433	15.13
526.863	15.29
527.292	15.47
527.721	15.63
528.15	15.78
528.579	15.92
529.008	16.08
529.437	16.21
529.866	16.33
530.295	16.46
530.724	16.58
531.152	16.68
531.581	16.79
532.01	16.89
532.438	16.98
532.867	17.08
533.295	17.16
533.723	17.23
534.152	17.31
534.58	17.39
535.008	17.44
535.436	17.51
535.865	17.57
536.293	17.62
536.721	17.66
537.149	17.7
537.576	17.74
538.004	17.8
538.432	17.84
538.86	17.86
539.287	17.88
539.715	17.92
540.143	17.95
540.57	17.98
540.998	18.01
541.425	18.03
541.852	18.06
542.28	18.09
542.707	18.12
543.134	18.15
543.561	18.19
543.988	18.22
544.415	18.24
544.842	18.26
545.269	18.28
545.696	18.32
546.123	18.36
546.549	18.4
546.976	18.42
547.403	18.44
547.829	18.46
548.256	18.48
548.682	18.49
549.108	18.53
549.535	18.57
549.961	18.59
550.387	18.61
550.813	18.62
551.24	18.61
551.666	18.61
552.092	18.62
552.518	18.63
552.943	18.63
553.369	18.62
553.795	18.58
554.221	18.54
554.646	18.52
555.072	18.48
555.498	18.44
555.923	18.4
556.349	18.35
556.774	18.29
557.199	18.23
557.625	18.16
558.05	18.09
558.475	18.03
558.9	17.97
559.325	17.89
559.75	17.82
560.175	17.74
560.6	17.64
561.025	17.54
561.449	17.45
561.874	17.34
562.299	17.22
562.723	17.12
563.148	16.99
563.572	16.86
563.997	16.73
564.421	16.6
564.846	16.46
565.27	16.33
565.694	16.2
566.118	16.06
566.542	15.92
566.966	15.77
567.39	15.63
567.814	15.48
568.238	15.34
568.662	15.2
569.086	15.07
569.509	14.93
569.933	14.79
570.357	14.66
570.78	14.52
571.204	14.39
571.627	14.28
572.05	14.16
572.474	14.05
572.897	13.95
573.32	13.84
573.743	13.72
574.166	13.62
574.589	13.53
575.012	13.44
575.435	13.36
575.858	13.28
576.281	13.19
576.704	13.12
577.126	13.04
577.549	12.95
577.972	12.87
578.394	12.81
578.817	12.73
579.239	12.67
579.661	12.61
580.084	12.55
580.506	12.49
580.928	12.43
581.35	12.36
581.772	12.3
582.194	12.26
582.616	12.2
583.038	12.14
583.46	12.09
583.882	12.03
584.303	11.97
584.725	11.91
585.147	11.87
585.568	11.82
585.99	11.78
586.411	11.75
586.833	11.69
587.254	11.65
587.675	11.61
588.096	11.56
588.518	11.52
588.939	11.5
589.36	11.46
589.781	11.42
590.202	11.39
590.623	11.37
591.043	11.31
591.464	11.28
591.885	11.26
592.305	11.24
592.726	11.22
593.147	11.19
593.567	11.15
593.987	11.12
594.408	11.1
594.828	11.06
595.248	11.03
595.669	11.02
596.089	10.99
596.509	10.95
596.929	10.91
597.349	10.88
597.769	10.85
598.189	10.83
598.608	10.81
599.028	10.77
599.448	10.74
599.867	10.71
600.287	10.68
600.706	10.64
601.126	10.61
601.545	10.58
601.965	10.54
602.384	10.51
602.803	10.47
603.222	10.43
603.641	10.39
604.061	10.36
604.48	10.3
604.898	10.25
605.317	10.21
605.736	10.17
606.155	10.12
606.574	10.08
606.992	10.03
607.411	9.99
607.829	9.91
608.248	9.86
608.666	9.81
609.085	9.77
609.503	9.73
609.921	9.68
610.339	9.63
610.758	9.59
611.176	9.53
611.594	9.49
612.012	9.44
612.43	9.41
612.847	9.36
613.265	9.3
613.683	9.26
614.101	9.21
614.518	9.17
614.936	9.12
615.353	9.07
615.771	9.03
616.188	8.99
616.606	8.95
617.023	8.92
617.44	8.88
617.857	8.86
618.274	8.83
618.691	8.78
619.108	8.75
619.525	8.72
619.942	8.71
620.359	8.69
620.776	8.66
621.192	8.64
621.609	8.63
622.026	8.62
622.442	8.6
622.859	8.57
623.275	8.57
623.691	8.56
624.108	8.55
624.524	8.54
624.94	8.52
625.356	8.52
625.772	8.51
626.188	8.49
626.604	8.48
627.02	8.47
627.436	8.47
627.852	8.46
628.268	8.45
628.683	8.44
629.099	8.43
629.514	8.42
629.93	8.41
630.345	8.4
630.761	8.39
631.176	8.36
631.591	8.35
632.007	8.33
632.422	8.31
632.837	8.29
633.252	8.24
633.667	8.2
634.082	8.15
634.497	8.11
634.911	8.06
635.326	8.01
635.741	7.98
636.155	7.92
636.57	7.86
636.984	7.82
637.399	7.74
637.813	7.69
638.228	7.63
638.642	7.58
639.056	7.5
639.47	7.45
639.884	7.39
640.298	7.31
640.712	7.24
641.126	7.19
641.54	7.12
641.954	7.07
642.368	7.01
642.781	6.97
643.195	6.91
643.609	6.87
644.022	6.82
644.436	6.79
644.849	6.75
645.262	6.71
645.676	6.67
646.089	6.64
646.502	6.61
646.915	6.59
647.328	6.56
647.741	6.54
648.154	6.51
648.567	6.49
648.98	6.46
649.393	6.45
649.805	6.45
650.218	6.43
650.631	6.43
651.043	6.42
651.456	6.4
651.868	6.37
652.28	6.36
652.693	6.35
653.105	6.33
653.517	6.31
653.929	6.3
654.341	6.27
654.753	6.25
655.165	6.23
655.577	6.2
655.989	6.19
656.401	6.17
656.813	6.16
657.224	6.14
657.636	6.11
658.047	6.1
658.459	6.07
658.87	6.06
659.282	6.03
659.693	5.99
660.104	5.96
660.515	5.92
660.926	5.9
661.338	5.87
661.749	5.84
662.159	5.82
662.57	5.8
662.981	5.78
663.392	5.76
663.803	5.75
664.213	5.75
664.624	5.74
665.035	5.74
665.445	5.73
665.855	5.73
666.266	5.73
666.676	5.74
667.086	5.73
667.497	5.73
667.907	5.74
668.317	5.74
668.727	5.75
669.137	5.76
669.547	5.76
669.956	5.78
670.366	5.79
670.776	5.79
671.186	5.79
671.595	5.8
672.005	5.8
672.414	5.81
672.824	5.83
673.233	5.85
673.642	5.86
674.052	5.87
674.461	5.88
674.87	5.91
675.279	5.93
675.688	5.96
676.097	6
676.506	6.03
676.915	6.05
677.323	6.08
677.732	6.1
678.141	6.13
678.549	6.16
678.958	6.19
679.366	6.21
679.775	6.25
680.183	6.28
680.592	6.31
681	6.35
681.408	6.39
681.816	6.44
682.224	6.49
682.632	6.53
683.04	6.58
683.448	6.64
683.856	6.68
684.264	6.74
684.671	6.81
685.079	6.88
685.487	6.97
685.894	7.08
686.302	7.19
686.709	7.32
687.116	7.46
687.524	7.62
687.931	7.8
688.338	8.01
688.745	8.22
689.152	8.46
689.559	8.73
689.966	9
690.373	9.29
690.78	9.6
691.187	9.94
691.593	10.29
692	10.67
692.407	11.05
692.813	11.44
693.22	11.86
693.626	12.3
694.032	12.73
694.439	13.19
694.845	13.68
695.251	14.15
695.657	14.63
696.063	15.14
696.469	15.63
696.875	16.15
697.281	16.68
697.687	17.23
698.093	17.76
698.498	18.31
698.904	18.84
699.31	19.37
699.715	19.89
700.12	20.44
700.526	20.98
700.931	21.52
701.337	22.04
701.742	22.57
702.147	23.08
702.552	23.6
702.957	24.08
703.362	24.6
703.767	25.11
704.172	25.64
704.577	26.12
704.981	26.62
705.386	27.12
705.791	27.63
706.195	28.13
706.6	28.63
707.004	29.1
707.408	29.61
707.813	30.1
708.217	30.58
708.621	31.06
709.025	31.51
709.43	31.96
709.834	32.42
710.237	32.85
710.641	33.3
711.045	33.75
711.449	34.21
711.853	34.65
712.256	35.07
712.66	35.49
713.064	35.91
713.467	36.35
713.87	36.77
714.274	37.18
714.677	37.61
715.08	38
715.484	38.41
715.887	38.82
716.29	39.21
716.693	39.61
717.096	39.98
717.499	40.36
717.901	40.75
718.304	41.13
718.707	41.52
719.109	41.89
719.512	42.26
719.915	42.6
720.317	42.91
720.719	43.22
721.122	43.55
721.524	43.88
721.926	44.21
722.328	44.51
722.731	44.81
723.133	45.09
723.535	45.35
723.937	45.62
724.338	45.89
724.74	46.17
725.142	46.47
725.544	46.7
725.945	46.96
726.347	47.16
726.748	47.37
727.15	47.58
727.551	47.79
727.952	47.99
728.354	48.21
728.755	48.4
729.156	48.59
729.557	48.73
729.958	48.9
730.359	49.07
730.76	49.27
731.161	49.43
731.562	49.62
731.962	49.76
732.363	49.92
732.763	50.05
733.164	50.2
733.564	50.33
733.965	50.47
734.365	50.62
734.766	50.74
735.166	50.84
735.566	50.95
735.966	51.04
736.366	51.17
736.766	51.26
737.166	51.37
737.566	51.46
737.966	51.54
738.365	51.62
738.765	51.71
739.165	51.77
739.564	51.88
739.964	51.94
740.363	51.99
740.763	52.04
741.162	52.1
741.561	52.14
741.96	52.18
742.36	52.24
742.759	52.28
743.158	52.3
743.557	52.35
743.955	52.39
744.354	52.46
744.753	52.53
745.152	52.62
745.55	52.71
745.949	52.76
746.348	52.85
746.746	52.92
747.144	53
747.543	53.06
747.941	53.13
748.339	53.15
748.737	53.18
749.136	53.21
749.534	53.22
749.932	53.24
750.33	53.26
750.727	53.28
751.125	53.29
751.523	53.29
751.921	53.29
752.318	53.29
752.716	53.3
753.113	53.35
753.511	53.36
753.908	53.37
754.305	53.36
754.703	53.36
755.1	53.36
755.497	53.36
755.894	53.36
756.291	53.37
756.688	53.35
757.085	53.37
757.482	53.36
757.878	53.36
758.275	53.37
758.672	53.37
759.068	53.42
759.465	53.43
759.861	53.42
760.258	53.46
760.654	53.45
761.05	53.48
761.447	53.48
761.843	53.46
762.239	53.47
762.635	53.43
763.031	53.42
763.427	53.38
763.822	53.38
764.218	53.39
764.614	53.38
765.01	53.37
765.405	53.35
765.801	53.31
766.196	53.33
766.592	53.3
766.987	53.32
767.382	53.32
767.778	53.33
768.173	53.31
768.568	53.29
768.963	53.27
769.358	53.28
769.753	53.3
770.148	53.36
770.542	53.35
770.937	53.37
771.332	53.37
771.726	53.39
772.121	53.4
772.515	53.42
772.91	53.43
773.304	53.47
773.699	53.46
774.093	53.44
774.487	53.43
774.881	53.44
775.275	53.43
775.669	53.42
776.063	53.39
776.457	53.4
776.851	53.38
777.245	53.35
777.638	53.32
778.032	53.32
778.425	53.35
778.819	53.31
779.212	53.32
779.606	53.34
779.999	53.34
780.392	53.39
780.786	53.4
781.179	53.44
781.572	53.5
781.965	53.5
782.358	53.53
782.751	53.51
783.143	53.56
783.536	53.53
783.929	53.53
784.322	53.58
784.714	53.58
785.107	53.59
