Data from C_3_HIR_WI_4N_Splice17_14-02-38-895.txt Node
Date: Sat Mar 07 14:02:38 EST 2020
User: sa697716
Spectrometer: NQ5500242
Trigger mode: 0
Integration Time (sec): 1.450000E-1
Scans to average: 20
Nonlinearity correction enabled: false
Boxcar width: 5
Storing dark spectrum: false
XAxis mode: Wavelengths
Number of Pixels in Spectrum: 512
>>>>>Begin Spectral Data<<<<<
187.83	69.12
188.298	75.21
188.766	55.03
189.233	47.14
189.701	36.53
190.169	50.5
190.636	39.42
191.104	78.3
191.571	-125.15
192.039	-189.79
192.506	-422.15
192.974	144.15
193.441	208.18
193.908	83.43
194.375	19.97
194.842	-24.69
195.31	-23.84
195.777	-38.53
196.244	51.68
196.711	52.64
197.177	55.86
197.644	56.55
198.111	56.8
198.578	57.46
199.045	58.02
199.511	58.2
199.978	58.22
200.445	58.63
200.911	58.31
201.378	58.51
201.844	58.71
202.31	58.38
202.777	58.59
203.243	58.65
203.709	58.1
204.176	57.59
204.642	57.55
205.108	57.38
205.574	56.71
206.04	56.25
206.506	55.37
206.972	54.9
207.438	54.33
207.903	53.53
208.369	52.5
208.835	51.46
209.301	49.99
209.766	48.52
210.232	47
210.697	45.81
211.163	44.63
211.628	43.92
212.094	42.7
212.559	41.71
213.024	40.74
213.49	39.77
213.955	38.75
214.42	37.94
214.885	36.67
215.35	35.39
215.815	33.58
216.28	31.2
216.745	28.47
217.21	25.84
217.675	23.45
218.14	21.37
218.604	19.64
219.069	18.16
219.534	16.95
219.998	15.94
220.463	15.03
220.927	14.26
221.392	13.65
221.856	13.18
222.32	12.77
222.785	12.46
223.249	12.14
223.713	11.81
224.177	11.56
224.642	11.33
225.106	11.04
225.57	10.83
226.034	10.62
226.497	10.44
226.961	10.23
227.425	10.05
227.889	9.84
228.353	9.65
228.816	9.48
229.28	9.32
229.744	9.14
230.207	9.01
230.671	8.86
231.134	8.73
231.597	8.61
232.061	8.48
232.524	8.36
232.987	8.25
233.45	8.15
233.914	8.06
234.377	7.96
234.84	7.87
235.303	7.79
235.766	7.71
236.229	7.62
236.691	7.55
237.154	7.48
237.617	7.42
238.08	7.35
238.542	7.28
239.005	7.23
239.468	7.16
239.93	7.09
240.393	7.03
240.855	6.96
241.317	6.89
241.78	6.82
242.242	6.75
242.704	6.69
243.166	6.62
243.629	6.57
244.091	6.5
244.553	6.44
245.015	6.39
245.477	6.32
245.939	6.27
246.4	6.21
246.862	6.17
247.324	6.13
247.786	6.08
248.247	6.02
248.709	5.96
249.17	5.9
249.632	5.86
250.093	5.82
250.555	5.78
251.016	5.74
251.477	5.7
251.939	5.66
252.4	5.62
252.861	5.59
253.322	5.56
253.783	5.53
254.244	5.51
254.705	5.48
255.166	5.45
255.627	5.41
256.088	5.39
256.549	5.36
257.009	5.33
257.47	5.29
257.931	5.25
258.391	5.22
258.852	5.18
259.312	5.14
259.773	5.11
260.233	5.08
260.694	5.05
261.154	5.01
261.614	4.98
262.074	4.95
262.534	4.91
262.994	4.89
263.455	4.87
263.915	4.84
264.374	4.83
264.834	4.81
265.294	4.78
265.754	4.77
266.214	4.75
266.673	4.73
267.133	4.72
267.593	4.71
268.052	4.7
268.512	4.69
268.971	4.68
269.431	4.66
269.89	4.65
270.349	4.65
270.809	4.63
271.268	4.62
271.727	4.61
272.186	4.6
272.645	4.59
273.104	4.58
273.563	4.57
274.022	4.56
274.481	4.55
274.94	4.53
275.399	4.52
275.857	4.51
276.316	4.49
276.775	4.48
277.233	4.47
277.692	4.46
278.15	4.46
278.609	4.46
279.067	4.45
279.525	4.45
279.984	4.44
280.442	4.43
280.9	4.43
281.358	4.43
281.816	4.43
282.274	4.43
282.732	4.42
283.19	4.42
283.648	4.4
284.106	4.39
284.564	4.38
285.021	4.38
285.479	4.37
285.937	4.36
286.394	4.36
286.852	4.35
287.309	4.34
287.767	4.32
288.224	4.31
288.682	4.3
289.139	4.29
289.596	4.27
290.053	4.26
290.511	4.24
290.968	4.22
291.425	4.2
291.882	4.19
292.339	4.17
292.796	4.16
293.252	4.15
293.709	4.14
294.166	4.13
294.623	4.12
295.079	4.1
295.536	4.09
295.992	4.08
296.449	4.07
296.905	4.06
297.362	4.06
297.818	4.04
298.274	4.04
298.731	4.03
299.187	4.01
299.643	3.99
300.099	3.99
300.555	3.97
301.011	3.96
301.467	3.95
301.923	3.94
302.379	3.93
302.835	3.93
303.291	3.92
303.746	3.91
304.202	3.91
304.658	3.91
305.113	3.9
305.569	3.9
306.024	3.9
306.479	3.9
306.935	3.89
307.39	3.88
307.845	3.88
308.301	3.87
308.756	3.87
309.211	3.86
309.666	3.87
310.121	3.87
310.576	3.86
311.031	3.86
311.486	3.86
311.94	3.87
312.395	3.87
312.85	3.87
313.305	3.86
313.759	3.87
314.214	3.86
314.668	3.85
315.123	3.85
315.577	3.84
316.032	3.83
316.486	3.82
316.94	3.81
317.394	3.79
317.849	3.77
318.303	3.76
318.757	3.75
319.211	3.74
319.665	3.72
320.119	3.7
320.572	3.69
321.026	3.68
321.48	3.66
321.934	3.64
322.387	3.63
322.841	3.63
323.295	3.62
323.748	3.61
324.202	3.61
324.655	3.61
325.108	3.6
325.562	3.6
326.015	3.6
326.468	3.6
326.921	3.6
327.374	3.59
327.827	3.6
328.28	3.59
328.733	3.59
329.186	3.58
329.639	3.58
330.092	3.58
330.545	3.57
330.997	3.57
331.45	3.57
331.903	3.58
332.355	3.58
332.808	3.57
333.26	3.57
333.713	3.57
334.165	3.57
334.617	3.57
335.069	3.56
335.522	3.57
335.974	3.58
336.426	3.57
336.878	3.56
337.33	3.56
337.782	3.57
338.234	3.58
338.686	3.58
339.137	3.58
339.589	3.57
340.041	3.57
340.493	3.55
340.944	3.53
341.396	3.53
341.847	3.51
342.299	3.49
342.75	3.47
343.201	3.45
343.653	3.43
344.104	3.41
344.555	3.4
345.006	3.38
345.457	3.37
345.908	3.37
346.359	3.36
346.81	3.35
347.261	3.35
347.712	3.33
348.163	3.32
348.613	3.33
349.064	3.33
349.515	3.33
349.965	3.33
350.416	3.32
350.866	3.32
351.317	3.31
351.767	3.31
352.217	3.31
352.668	3.32
353.118	3.32
353.568	3.31
354.018	3.31
354.468	3.31
354.918	3.31
355.368	3.32
355.818	3.32
356.268	3.33
356.718	3.33
357.168	3.32
357.617	3.32
358.067	3.32
358.517	3.34
358.966	3.35
359.416	3.35
359.865	3.35
360.315	3.35
360.764	3.36
361.213	3.36
361.663	3.37
362.112	3.38
362.561	3.39
363.01	3.39
363.459	3.38
363.908	3.37
364.357	3.38
364.806	3.39
365.255	3.4
365.703	3.41
366.152	3.42
366.601	3.43
367.05	3.44
367.498	3.45
367.947	3.47
368.395	3.49
368.844	3.52
369.292	3.54
369.74	3.56
370.189	3.57
370.637	3.59
371.085	3.6
371.533	3.63
371.981	3.64
372.429	3.65
372.877	3.67
373.325	3.68
373.773	3.7
374.221	3.72
374.669	3.73
375.116	3.75
375.564	3.76
376.012	3.79
376.459	3.81
376.907	3.84
377.354	3.87
377.801	3.9
378.249	3.94
378.696	3.97
379.143	3.99
379.591	4.03
380.038	4.07
380.485	4.11
380.932	4.14
381.379	4.18
381.826	4.21
382.273	4.24
382.72	4.26
383.166	4.29
383.613	4.32
384.06	4.35
384.506	4.37
384.953	4.4
385.4	4.43
385.846	4.46
386.292	4.49
386.739	4.52
387.185	4.55
387.631	4.6
388.078	4.62
388.524	4.65
388.97	4.69
389.416	4.73
389.862	4.77
390.308	4.81
390.754	4.85
391.2	4.88
391.645	4.92
392.091	4.96
392.537	4.99
392.983	5.03
393.428	5.08
393.874	5.11
394.319	5.14
394.765	5.17
395.21	5.19
395.655	5.22
396.101	5.26
396.546	5.28
396.991	5.3
397.436	5.32
397.881	5.36
398.326	5.38
398.771	5.41
399.216	5.44
399.661	5.46
400.106	5.49
400.551	5.49
400.995	5.5
401.44	5.51
401.885	5.52
402.329	5.52
402.774	5.52
403.218	5.54
403.663	5.54
404.107	5.54
404.551	5.53
404.995	5.53
405.44	5.52
405.884	5.53
406.328	5.53
406.772	5.52
407.216	5.53
407.66	5.53
408.104	5.51
408.547	5.52
408.991	5.52
409.435	5.53
409.879	5.53
410.322	5.55
410.766	5.56
411.209	5.57
411.653	5.59
412.096	5.59
412.54	5.59
412.983	5.6
413.426	5.62
413.869	5.63
414.312	5.66
414.756	5.67
415.199	5.67
415.642	5.67
416.085	5.67
416.527	5.66
416.97	5.66
417.413	5.66
417.856	5.66
418.298	5.65
418.741	5.65
419.184	5.63
419.626	5.63
420.069	5.64
420.511	5.63
420.953	5.63
421.396	5.64
421.838	5.63
422.28	5.64
422.722	5.65
423.164	5.65
423.606	5.64
424.048	5.65
424.49	5.65
424.932	5.64
425.374	5.62
425.816	5.6
426.258	5.58
426.699	5.57
427.141	5.55
427.582	5.53
428.024	5.53
428.465	5.53
428.907	5.52
429.348	5.51
429.789	5.49
430.231	5.5
430.672	5.51
431.113	5.53
431.554	5.53
431.995	5.54
432.436	5.55
432.877	5.56
433.318	5.57
433.759	5.59
434.2	5.61
434.64	5.63
435.081	5.64
435.522	5.66
435.962	5.68
436.403	5.71
436.843	5.73
437.284	5.75
437.724	5.76
438.164	5.76
438.604	5.77
439.045	5.79
439.485	5.8
439.925	5.8
440.365	5.81
440.805	5.81
441.245	5.82
441.685	5.84
442.125	5.87
442.564	5.89
443.004	5.89
443.444	5.91
443.883	5.93
444.323	5.96
444.762	5.99
445.202	6.02
445.641	6.06
446.081	6.09
446.52	6.11
446.959	6.14
447.398	6.17
447.837	6.21
448.276	6.23
448.716	6.26
449.154	6.29
449.593	6.31
450.032	6.33
450.471	6.35
450.91	6.34
451.349	6.36
451.787	6.37
452.226	6.37
452.664	6.37
453.103	6.38
453.541	6.39
453.98	6.39
454.418	6.39
454.856	6.38
455.295	6.37
455.733	6.36
456.171	6.34
456.609	6.33
457.047	6.31
457.485	6.31
457.923	6.3
458.361	6.28
458.798	6.28
459.236	6.27
459.674	6.27
460.111	6.26
460.549	6.27
460.987	6.28
461.424	6.28
461.862	6.29
462.299	6.3
462.736	6.29
463.173	6.29
463.611	6.28
464.048	6.28
464.485	6.27
464.922	6.29
465.359	6.28
465.796	6.28
466.233	6.28
466.67	6.27
467.106	6.28
467.543	6.28
467.98	6.28
468.416	6.28
468.853	6.29
469.29	6.29
469.726	6.31
470.162	6.32
470.599	6.32
471.035	6.31
471.471	6.32
471.907	6.31
472.344	6.31
472.78	6.32
473.216	6.32
473.652	6.33
474.088	6.32
474.523	6.32
474.959	6.32
475.395	6.31
475.831	6.32
476.266	6.31
476.702	6.31
477.138	6.32
477.573	6.33
478.008	6.34
478.444	6.32
478.879	6.33
479.314	6.31
479.75	6.31
480.185	6.3
480.62	6.29
481.055	6.29
481.49	6.29
481.925	6.29
482.36	6.29
482.795	6.28
483.229	6.29
483.664	6.31
484.099	6.32
484.534	6.34
484.968	6.36
485.403	6.38
485.837	6.4
486.271	6.44
486.706	6.45
487.14	6.47
487.574	6.5
488.009	6.54
488.443	6.56
488.877	6.59
489.311	6.63
489.745	6.67
490.179	6.73
490.613	6.78
491.046	6.83
491.48	6.9
491.914	6.98
492.348	7.04
492.781	7.12
493.215	7.19
493.648	7.27
494.082	7.35
494.515	7.42
494.948	7.51
495.382	7.6
495.815	7.69
496.248	7.78
496.681	7.88
497.114	7.99
497.547	8.1
497.98	8.23
498.413	8.35
498.846	8.48
499.279	8.61
499.711	8.74
500.144	8.88
500.577	9.03
501.009	9.18
501.442	9.33
501.874	9.5
502.306	9.66
502.739	9.84
503.171	10.02
503.603	10.19
504.036	10.39
504.468	10.59
504.9	10.8
505.332	11.01
505.764	11.23
506.196	11.46
506.627	11.69
507.059	11.94
507.491	12.18
507.923	12.43
508.354	12.7
508.786	12.96
509.217	13.23
509.649	13.51
510.08	13.78
510.512	14.06
510.943	14.35
511.374	14.64
511.805	14.94
512.237	15.23
512.668	15.53
513.099	15.84
513.53	16.14
513.961	16.45
514.391	16.76
514.822	17.08
515.253	17.41
515.684	17.73
516.114	18.05
516.545	18.37
516.975	18.7
517.406	19.02
517.836	19.33
518.267	19.68
518.697	20
519.127	20.31
519.558	20.62
519.988	20.93
520.418	21.22
520.848	21.52
521.278	21.81
521.708	22.24
522.138	22.52
522.567	22.81
522.997	23.06
523.427	23.32
523.857	23.59
524.286	23.83
524.716	24.07
525.145	24.3
525.575	24.52
526.004	24.74
526.433	24.8
526.863	25
527.292	25.18
527.721	25.35
528.15	25.51
528.579	25.66
529.008	25.83
529.437	25.97
529.866	26.13
530.295	26.27
530.724	26.4
531.152	26.53
531.581	26.65
532.01	26.77
532.438	26.88
532.867	26.99
533.295	27.09
533.723	27.17
534.152	27.24
534.58	27.31
535.008	27.37
535.436	27.45
535.865	27.51
536.293	27.56
536.721	27.61
537.149	27.65
537.576	27.68
538.004	27.74
538.432	27.77
538.86	27.82
539.287	27.86
539.715	27.9
540.143	27.93
540.57	27.96
540.998	28
541.425	28.01
541.852	28.05
542.28	28.1
542.707	28.12
543.134	28.15
543.561	28.18
543.988	28.21
544.415	28.22
544.842	28.24
545.269	28.27
545.696	28.31
546.123	28.34
546.549	28.38
546.976	28.38
547.403	28.42
547.829	28.43
548.256	28.46
548.682	28.47
549.108	28.5
549.535	28.55
549.961	28.55
550.387	28.55
550.813	28.57
551.24	28.56
551.666	28.57
552.092	28.58
552.518	28.59
552.943	28.59
553.369	28.59
553.795	28.57
554.221	28.54
554.646	28.51
555.072	28.48
555.498	28.45
555.923	28.41
556.349	28.36
556.774	28.29
557.199	28.22
557.625	28.16
558.05	28.09
558.475	28.02
558.9	27.94
559.325	27.88
559.75	27.8
560.175	27.71
560.6	27.6
561.025	27.52
561.449	27.42
561.874	27.31
562.299	27.2
562.723	27.08
563.148	26.95
563.572	26.82
563.997	26.69
564.421	26.54
564.846	26.4
565.27	26.27
565.694	26.13
566.118	25.97
566.542	25.84
566.966	25.68
567.39	25.52
567.814	25.36
568.238	25.2
568.662	25.03
569.086	24.87
569.509	24.71
569.933	24.56
570.357	24.38
570.78	24.23
571.204	24.06
571.627	23.91
572.05	23.76
572.474	23.62
572.897	23.49
573.32	23.36
573.743	23.23
574.166	23.11
574.589	22.98
575.012	22.86
575.435	22.75
575.858	22.63
576.281	22.52
576.704	22.42
577.126	22.31
577.549	22.2
577.972	22.09
578.394	22
578.817	21.9
579.239	21.81
579.661	21.72
580.084	21.63
580.506	21.54
580.928	21.45
581.35	21.36
581.772	21.27
582.194	21.19
582.616	21.12
583.038	21.04
583.46	20.97
583.882	20.9
584.303	20.83
584.725	20.76
585.147	20.69
585.568	20.62
585.99	20.56
586.411	20.5
586.833	20.42
587.254	20.35
587.675	20.28
588.096	20.21
588.518	20.14
588.939	20.09
589.36	20.04
589.781	19.99
590.202	19.94
590.623	19.89
591.043	19.83
591.464	19.8
591.885	19.75
592.305	19.73
592.726	19.69
593.147	19.66
593.567	19.62
593.987	19.58
594.408	19.55
594.828	19.51
595.248	19.48
595.669	19.45
596.089	19.41
596.509	19.39
596.929	19.37
597.349	19.33
597.769	19.29
598.189	19.26
598.608	19.23
599.028	19.2
599.448	19.16
599.867	19.11
600.287	19.08
600.706	19.04
601.126	18.99
601.545	18.93
601.965	18.89
602.384	18.83
602.803	18.76
603.222	18.7
603.641	18.63
604.061	18.56
604.48	18.49
604.898	18.4
605.317	18.33
605.736	18.25
606.155	18.17
606.574	18.08
606.992	17.99
607.411	17.91
607.829	17.8
608.248	17.7
608.666	17.61
609.085	17.53
609.503	17.46
609.921	17.37
610.339	17.29
610.758	17.2
611.176	17.09
611.594	17.03
612.012	16.94
612.43	16.88
612.847	16.81
613.265	16.72
613.683	16.64
614.101	16.56
614.518	16.48
614.936	16.4
615.353	16.31
615.771	16.26
616.188	16.18
616.606	16.11
617.023	16.04
617.44	15.98
617.857	15.92
618.274	15.84
618.691	15.76
619.108	15.71
619.525	15.66
619.942	15.62
620.359	15.58
620.776	15.53
621.192	15.5
621.609	15.47
622.026	15.43
622.442	15.4
622.859	15.4
623.275	15.37
623.691	15.34
624.108	15.32
624.524	15.3
624.94	15.28
625.356	15.27
625.772	15.24
626.188	15.22
626.604	15.21
627.02	15.19
627.436	15.16
627.852	15.15
628.268	15.13
628.683	15.13
629.099	15.11
629.514	15.09
629.93	15.05
630.345	15.03
630.761	15
631.176	14.97
631.591	14.93
632.007	14.89
632.422	14.84
632.837	14.77
633.252	14.69
633.667	14.62
634.082	14.54
634.497	14.47
634.911	14.37
635.326	14.27
635.741	14.17
636.155	14.07
636.57	13.96
636.984	13.86
637.399	13.75
637.813	13.64
638.228	13.52
638.642	13.39
639.056	13.26
639.47	13.14
639.884	13.01
640.298	12.86
640.712	12.73
641.126	12.59
641.54	12.45
641.954	12.31
642.368	12.16
642.781	12.03
643.195	11.91
643.609	11.78
644.022	11.65
644.436	11.54
644.849	11.42
645.262	11.3
645.676	11.2
646.089	11.11
646.502	11.03
646.915	10.95
647.328	10.87
647.741	10.79
648.154	10.71
648.567	10.65
648.98	10.59
649.393	10.54
649.805	10.46
650.218	10.4
650.631	10.34
651.043	10.28
651.456	10.23
651.868	10.17
652.28	10.11
652.693	10.05
653.105	9.99
653.517	9.92
653.929	9.87
654.341	9.81
654.753	9.74
655.165	9.65
655.577	9.57
655.989	9.47
656.401	9.38
656.813	9.28
657.224	9.17
657.636	9.06
658.047	8.95
658.459	8.83
658.87	8.71
659.282	8.59
659.693	8.49
660.104	8.37
660.515	8.25
660.926	8.14
661.338	8.03
661.749	7.93
662.159	7.84
662.57	7.74
662.981	7.65
663.392	7.56
663.803	7.48
664.213	7.39
664.624	7.3
665.035	7.23
665.445	7.17
665.855	7.12
666.266	7.05
666.676	7.01
667.086	6.95
667.497	6.91
667.907	6.86
668.317	6.83
668.727	6.8
669.137	6.77
669.547	6.76
669.956	6.73
670.366	6.72
670.776	6.7
671.186	6.68
671.595	6.68
672.005	6.68
672.414	6.68
672.824	6.68
673.233	6.68
673.642	6.7
674.052	6.7
674.461	6.71
674.87	6.73
675.279	6.76
675.688	6.79
676.097	6.82
676.506	6.85
676.915	6.89
677.323	6.93
677.732	6.99
678.141	7.05
678.549	7.11
678.958	7.17
679.366	7.24
679.775	7.31
680.183	7.4
680.592	7.51
681	7.63
681.408	7.76
681.816	7.9
682.224	8.05
682.632	8.22
683.04	8.41
683.448	8.62
683.856	8.85
684.264	9.1
684.671	9.36
685.079	9.65
685.487	9.96
685.894	10.29
686.302	10.66
686.709	11.06
687.116	11.47
687.524	11.91
687.931	12.37
688.338	12.86
688.745	13.36
689.152	13.89
689.559	14.44
689.966	15.01
690.373	15.59
690.78	16.19
691.187	16.78
691.593	17.38
692	18.01
692.407	18.62
692.813	19.24
693.22	19.87
693.626	20.49
694.032	21.11
694.439	21.72
694.845	22.33
695.251	22.94
695.657	23.54
696.063	24.14
696.469	24.71
696.875	25.3
697.281	25.86
697.687	26.43
698.093	27
698.498	27.54
698.904	28.09
699.31	28.6
699.715	29.11
700.12	29.62
700.526	30.12
700.931	30.63
701.337	31.09
701.742	31.57
702.147	32.01
702.552	32.44
702.957	32.85
703.362	33.28
703.767	33.69
704.172	34.09
704.577	34.48
704.981	34.87
705.386	35.23
705.791	35.59
706.195	35.96
706.6	36.35
707.004	36.69
707.408	37.07
707.813	37.4
708.217	37.72
708.621	38.06
709.025	38.38
709.43	38.67
709.834	38.98
710.237	39.28
710.641	39.57
711.045	39.81
711.449	40.12
711.853	40.4
712.256	40.66
712.66	40.91
713.064	41.16
713.467	41.41
713.87	41.66
714.274	41.88
714.677	42.14
715.08	42.36
715.484	42.6
715.887	42.81
716.29	43.01
716.693	43.23
717.096	43.45
717.499	43.68
717.901	43.86
718.304	44.07
718.707	44.29
719.109	44.46
719.512	44.65
719.915	44.84
720.317	45.02
720.719	45.18
721.122	45.35
721.524	45.53
721.926	45.68
722.328	45.88
722.731	46.01
723.133	46.17
723.535	46.3
723.937	46.45
724.338	46.57
724.74	46.69
725.142	46.88
725.544	47
725.945	47.12
726.347	47.21
726.748	47.29
727.15	47.39
727.551	47.47
727.952	47.58
728.354	47.67
728.755	47.77
729.156	47.86
729.557	47.89
729.958	47.95
730.359	47.99
730.76	48.08
731.161	48.16
731.562	48.28
731.962	48.34
732.363	48.4
732.763	48.45
733.164	48.5
733.564	48.55
733.965	48.59
734.365	48.67
734.766	48.75
735.166	48.8
735.566	48.87
735.966	48.9
736.366	48.95
736.766	48.99
737.166	49.05
737.566	49.09
737.966	49.14
738.365	49.2
738.765	49.23
739.165	49.24
739.564	49.28
739.964	49.28
740.363	49.31
740.763	49.35
741.162	49.38
741.561	49.38
741.96	49.4
742.36	49.43
742.759	49.44
743.158	49.45
743.557	49.47
743.955	49.49
744.354	49.52
744.753	49.52
745.152	49.57
745.55	49.61
745.949	49.66
746.348	49.72
746.746	49.72
747.144	49.77
747.543	49.8
747.941	49.82
748.339	49.8
748.737	49.84
749.136	49.87
749.534	49.85
749.932	49.84
750.33	49.85
750.727	49.83
751.125	49.86
751.523	49.85
751.921	49.87
752.318	49.89
752.716	49.9
753.113	49.9
753.511	49.89
753.908	49.87
754.305	49.89
754.703	49.86
755.1	49.86
755.497	49.84
755.894	49.84
756.291	49.8
756.688	49.78
757.085	49.78
757.482	49.78
757.878	49.78
758.275	49.78
758.672	49.75
759.068	49.79
759.465	49.79
759.861	49.77
760.258	49.76
760.654	49.76
761.05	49.78
761.447	49.79
761.843	49.77
762.239	49.76
762.635	49.74
763.031	49.75
763.427	49.71
763.822	49.71
764.218	49.73
764.614	49.75
765.01	49.73
765.405	49.72
765.801	49.69
766.196	49.69
766.592	49.68
766.987	49.72
767.382	49.71
767.778	49.71
768.173	49.71
768.568	49.7
768.963	49.69
769.358	49.72
769.753	49.73
770.148	49.76
770.542	49.76
770.937	49.77
771.332	49.76
771.726	49.77
772.121	49.77
772.515	49.77
772.91	49.76
773.304	49.77
773.699	49.77
774.093	49.75
774.487	49.76
774.881	49.8
775.275	49.79
775.669	49.8
776.063	49.78
776.457	49.79
776.851	49.76
777.245	49.74
777.638	49.75
778.032	49.76
778.425	49.8
778.819	49.79
779.212	49.79
779.606	49.83
779.999	49.85
780.392	49.87
