Data from C_3_HIR_WI_4N_Splice17_14-02-33-768.txt Node
Date: Sat Mar 07 14:02:33 EST 2020
User: sa697716
Spectrometer: NQ5500242
Trigger mode: 0
Integration Time (sec): 1.450000E-1
Scans to average: 20
Nonlinearity correction enabled: false
Boxcar width: 5
Storing dark spectrum: false
XAxis mode: Wavelengths
Number of Pixels in Spectrum: 512
>>>>>Begin Spectral Data<<<<<
187.83	120.11
188.298	134.66
188.766	92.61
189.233	72.16
189.701	73.17
190.169	86.48
190.636	59.72
191.104	-1.84
191.571	-144.9
192.039	-119.81
192.506	-349.25
192.974	116.35
193.441	302.14
193.908	66
194.375	-5.03
194.842	-70.27
195.31	-71.78
195.777	-360.8
196.244	29.13
196.711	50.97
197.177	55.05
197.644	54.84
198.111	55.22
198.578	55.17
199.045	55.49
199.511	55.9
199.978	56.35
200.445	56.63
200.911	56.82
201.378	56.78
201.844	56.5
202.31	55.97
202.777	56.05
203.243	55.89
203.709	55.27
204.176	54.81
204.642	54.53
205.108	54.28
205.574	53.85
206.04	52.99
206.506	52.65
206.972	52.6
207.438	52.53
207.903	51.77
208.369	50.67
208.835	49.83
209.301	48.95
209.766	47.39
210.232	45.78
210.697	44.34
211.163	43.44
211.628	42.38
212.094	41.11
212.559	39.98
213.024	39.01
213.49	38.22
213.955	37.28
214.42	36.41
214.885	35.52
215.35	34.29
215.815	32.65
216.28	30.44
216.745	27.83
217.21	25.46
217.675	23.21
218.14	21.27
218.604	19.5
219.069	18.07
219.534	16.79
219.998	15.76
220.463	14.92
220.927	14.14
221.392	13.56
221.856	13.12
222.32	12.7
222.785	12.34
223.249	11.98
223.713	11.71
224.177	11.44
224.642	11.2
225.106	10.94
225.57	10.7
226.034	10.51
226.497	10.3
226.961	10.09
227.425	9.91
227.889	9.72
228.353	9.55
228.816	9.38
229.28	9.22
229.744	9.06
230.207	8.93
230.671	8.78
231.134	8.65
231.597	8.54
232.061	8.43
232.524	8.3
232.987	8.19
233.45	8.09
233.914	7.98
234.377	7.87
234.84	7.77
235.303	7.69
235.766	7.61
236.229	7.54
236.691	7.45
237.154	7.38
237.617	7.32
238.08	7.24
238.542	7.18
239.005	7.14
239.468	7.07
239.93	7.03
240.393	6.95
240.855	6.88
241.317	6.81
241.78	6.75
242.242	6.68
242.704	6.62
243.166	6.57
243.629	6.51
244.091	6.43
244.553	6.37
245.015	6.3
245.477	6.25
245.939	6.21
246.4	6.16
246.862	6.11
247.324	6.07
247.786	6.01
248.247	5.94
248.709	5.89
249.17	5.85
249.632	5.81
250.093	5.77
250.555	5.73
251.016	5.69
251.477	5.64
251.939	5.61
252.4	5.58
252.861	5.54
253.322	5.52
253.783	5.49
254.244	5.46
254.705	5.42
255.166	5.39
255.627	5.36
256.088	5.33
256.549	5.3
257.009	5.27
257.47	5.23
257.931	5.2
258.391	5.16
258.852	5.12
259.312	5.08
259.773	5.04
260.233	5.02
260.694	4.99
261.154	4.96
261.614	4.94
262.074	4.91
262.534	4.87
262.994	4.85
263.455	4.83
263.915	4.81
264.374	4.79
264.834	4.77
265.294	4.74
265.754	4.72
266.214	4.71
266.673	4.69
267.133	4.68
267.593	4.67
268.052	4.66
268.512	4.64
268.971	4.63
269.431	4.62
269.89	4.61
270.349	4.6
270.809	4.59
271.268	4.57
271.727	4.56
272.186	4.55
272.645	4.54
273.104	4.52
273.563	4.51
274.022	4.5
274.481	4.49
274.94	4.49
275.399	4.47
275.857	4.46
276.316	4.46
276.775	4.45
277.233	4.45
277.692	4.44
278.15	4.43
278.609	4.42
279.067	4.41
279.525	4.41
279.984	4.4
280.442	4.39
280.9	4.39
281.358	4.39
281.816	4.38
282.274	4.37
282.732	4.36
283.19	4.35
283.648	4.34
284.106	4.33
284.564	4.33
285.021	4.33
285.479	4.33
285.937	4.31
286.394	4.3
286.852	4.29
287.309	4.29
287.767	4.28
288.224	4.27
288.682	4.26
289.139	4.25
289.596	4.23
290.053	4.2
290.511	4.18
290.968	4.17
291.425	4.15
291.882	4.13
292.339	4.11
292.796	4.1
293.252	4.08
293.709	4.07
294.166	4.07
294.623	4.05
295.079	4.04
295.536	4.03
295.992	4.02
296.449	4.01
296.905	4.01
297.362	4.01
297.818	4
298.274	3.98
298.731	3.97
299.187	3.96
299.643	3.95
300.099	3.94
300.555	3.93
301.011	3.91
301.467	3.91
301.923	3.89
302.379	3.88
302.835	3.87
303.291	3.87
303.746	3.86
304.202	3.86
304.658	3.86
305.113	3.86
305.569	3.85
306.024	3.86
306.479	3.85
306.935	3.84
307.39	3.84
307.845	3.83
308.301	3.83
308.756	3.83
309.211	3.83
309.666	3.83
310.121	3.82
310.576	3.82
311.031	3.82
311.486	3.82
311.94	3.83
312.395	3.83
312.85	3.83
313.305	3.83
313.759	3.83
314.214	3.83
314.668	3.82
315.123	3.82
315.577	3.81
316.032	3.8
316.486	3.79
316.94	3.78
317.394	3.77
317.849	3.75
318.303	3.73
318.757	3.71
319.211	3.7
319.665	3.68
320.119	3.67
320.572	3.66
321.026	3.64
321.48	3.64
321.934	3.62
322.387	3.61
322.841	3.61
323.295	3.6
323.748	3.6
324.202	3.59
324.655	3.6
325.108	3.6
325.562	3.59
326.015	3.58
326.468	3.57
326.921	3.57
327.374	3.56
327.827	3.55
328.28	3.55
328.733	3.55
329.186	3.54
329.639	3.53
330.092	3.52
330.545	3.52
330.997	3.52
331.45	3.52
331.903	3.52
332.355	3.53
332.808	3.53
333.26	3.52
333.713	3.51
334.165	3.51
334.617	3.52
335.069	3.51
335.522	3.52
335.974	3.52
336.426	3.52
336.878	3.52
337.33	3.51
337.782	3.52
338.234	3.53
338.686	3.53
339.137	3.54
339.589	3.52
340.041	3.52
340.493	3.5
340.944	3.49
341.396	3.48
341.847	3.46
342.299	3.45
342.75	3.43
343.201	3.4
343.653	3.38
344.104	3.36
344.555	3.35
345.006	3.33
345.457	3.32
345.908	3.31
346.359	3.3
346.81	3.29
347.261	3.28
347.712	3.28
348.163	3.27
348.613	3.27
349.064	3.28
349.515	3.28
349.965	3.28
350.416	3.27
350.866	3.27
351.317	3.27
351.767	3.27
352.217	3.27
352.668	3.27
353.118	3.27
353.568	3.27
354.018	3.28
354.468	3.28
354.918	3.28
355.368	3.29
355.818	3.29
356.268	3.29
356.718	3.29
357.168	3.29
357.617	3.29
358.067	3.3
358.517	3.31
358.966	3.31
359.416	3.31
359.865	3.31
360.315	3.31
360.764	3.31
361.213	3.32
361.663	3.32
362.112	3.33
362.561	3.34
363.01	3.34
363.459	3.33
363.908	3.33
364.357	3.34
364.806	3.34
365.255	3.35
365.703	3.37
366.152	3.39
366.601	3.4
367.05	3.42
367.498	3.43
367.947	3.45
368.395	3.48
368.844	3.49
369.292	3.51
369.74	3.52
370.189	3.54
370.637	3.55
371.085	3.56
371.533	3.57
371.981	3.59
372.429	3.61
372.877	3.63
373.325	3.65
373.773	3.67
374.221	3.68
374.669	3.71
375.116	3.72
375.564	3.75
376.012	3.77
376.459	3.78
376.907	3.81
377.354	3.84
377.801	3.87
378.249	3.9
378.696	3.93
379.143	3.96
379.591	3.98
380.038	4.02
380.485	4.05
380.932	4.08
381.379	4.12
381.826	4.15
382.273	4.17
382.72	4.2
383.166	4.23
383.613	4.26
384.06	4.28
384.506	4.32
384.953	4.35
385.4	4.39
385.846	4.42
386.292	4.46
386.739	4.49
387.185	4.53
387.631	4.57
388.078	4.61
388.524	4.65
388.97	4.69
389.416	4.73
389.862	4.76
390.308	4.79
390.754	4.84
391.2	4.87
391.645	4.9
392.091	4.95
392.537	4.98
392.983	5.01
393.428	5.05
393.874	5.09
394.319	5.12
394.765	5.13
395.21	5.16
395.655	5.18
396.101	5.21
396.546	5.23
396.991	5.25
397.436	5.27
397.881	5.31
398.326	5.34
398.771	5.36
399.216	5.39
399.661	5.42
400.106	5.44
400.551	5.45
400.995	5.45
401.44	5.46
401.885	5.46
402.329	5.46
402.774	5.47
403.218	5.49
403.663	5.49
404.107	5.49
404.551	5.5
404.995	5.5
405.44	5.51
405.884	5.52
406.328	5.53
406.772	5.53
407.216	5.54
407.66	5.53
408.104	5.52
408.547	5.51
408.991	5.51
409.435	5.51
409.879	5.52
410.322	5.52
410.766	5.52
411.209	5.53
411.653	5.55
412.096	5.56
412.54	5.56
412.983	5.57
413.426	5.59
413.869	5.6
414.312	5.62
414.756	5.64
415.199	5.65
415.642	5.66
416.085	5.66
416.527	5.65
416.97	5.64
417.413	5.64
417.856	5.65
418.298	5.63
418.741	5.62
419.184	5.62
419.626	5.6
420.069	5.61
420.511	5.6
420.953	5.59
421.396	5.6
421.838	5.6
422.28	5.6
422.722	5.61
423.164	5.61
423.606	5.61
424.048	5.61
424.49	5.61
424.932	5.6
425.374	5.59
425.816	5.57
426.258	5.55
426.699	5.53
427.141	5.52
427.582	5.5
428.024	5.51
428.465	5.51
428.907	5.49
429.348	5.46
429.789	5.45
430.231	5.46
430.672	5.48
431.113	5.5
431.554	5.51
431.995	5.52
432.436	5.53
432.877	5.53
433.318	5.54
433.759	5.56
434.2	5.6
434.64	5.62
435.081	5.63
435.522	5.64
435.962	5.65
436.403	5.68
436.843	5.7
437.284	5.71
437.724	5.72
438.164	5.72
438.604	5.74
439.045	5.73
439.485	5.75
439.925	5.75
440.365	5.76
440.805	5.77
441.245	5.78
441.685	5.81
442.125	5.84
442.564	5.86
443.004	5.87
443.444	5.88
443.883	5.92
444.323	5.94
444.762	5.97
445.202	5.99
445.641	6.04
446.081	6.08
446.52	6.09
446.959	6.13
447.398	6.17
447.837	6.21
448.276	6.23
448.716	6.26
449.154	6.3
449.593	6.33
450.032	6.35
450.471	6.35
450.91	6.36
451.349	6.39
451.787	6.38
452.226	6.37
452.664	6.37
453.103	6.37
453.541	6.36
453.98	6.37
454.418	6.36
454.856	6.36
455.295	6.35
455.733	6.33
456.171	6.31
456.609	6.32
457.047	6.31
457.485	6.29
457.923	6.3
458.361	6.28
458.798	6.27
459.236	6.27
459.674	6.26
460.111	6.25
460.549	6.26
460.987	6.26
461.424	6.25
461.862	6.26
462.299	6.27
462.736	6.25
463.173	6.26
463.611	6.25
464.048	6.25
464.485	6.27
464.922	6.26
465.359	6.26
465.796	6.26
466.233	6.26
466.67	6.27
467.106	6.28
467.543	6.28
467.98	6.29
468.416	6.29
468.853	6.29
469.29	6.27
469.726	6.28
470.162	6.29
470.599	6.29
471.035	6.28
471.471	6.29
471.907	6.28
472.344	6.29
472.78	6.3
473.216	6.31
473.652	6.32
474.088	6.32
474.523	6.32
474.959	6.33
475.395	6.32
475.831	6.32
476.266	6.31
476.702	6.31
477.138	6.3
477.573	6.3
478.008	6.3
478.444	6.28
478.879	6.29
479.314	6.28
479.75	6.28
480.185	6.27
480.62	6.28
481.055	6.29
481.49	6.28
481.925	6.28
482.36	6.29
482.795	6.29
483.229	6.3
483.664	6.32
484.099	6.33
484.534	6.34
484.968	6.37
485.403	6.39
485.837	6.41
486.271	6.44
486.706	6.47
487.14	6.49
487.574	6.51
488.009	6.54
488.443	6.57
488.877	6.61
489.311	6.66
489.745	6.7
490.179	6.75
490.613	6.8
491.046	6.85
491.48	6.91
491.914	6.99
492.348	7.06
492.781	7.15
493.215	7.22
493.648	7.29
494.082	7.37
494.515	7.45
494.948	7.53
495.382	7.61
495.815	7.71
496.248	7.79
496.681	7.89
497.114	7.99
497.547	8.09
497.98	8.21
498.413	8.34
498.846	8.46
499.279	8.59
499.711	8.73
500.144	8.88
500.577	9.03
501.009	9.18
501.442	9.33
501.874	9.5
502.306	9.67
502.739	9.86
503.171	10.05
503.603	10.24
504.036	10.44
504.468	10.63
504.9	10.82
505.332	11.04
505.764	11.26
506.196	11.49
506.627	11.72
507.059	11.96
507.491	12.19
507.923	12.43
508.354	12.7
508.786	12.97
509.217	13.25
509.649	13.53
510.08	13.81
510.512	14.1
510.943	14.38
511.374	14.66
511.805	14.96
512.237	15.26
512.668	15.57
513.099	15.88
513.53	16.2
513.961	16.51
514.391	16.82
514.822	17.14
515.253	17.44
515.684	17.78
516.114	18.11
516.545	18.44
516.975	18.78
517.406	19.1
517.836	19.41
518.267	19.74
518.697	20.05
519.127	20.36
519.558	20.67
519.988	20.98
520.418	21.29
520.848	21.58
521.278	21.87
521.708	22.29
522.138	22.57
522.567	22.84
522.997	23.08
523.427	23.35
523.857	23.61
524.286	23.85
524.716	24.1
525.145	24.33
525.575	24.55
526.004	24.78
526.433	24.84
526.863	25.05
527.292	25.23
527.721	25.42
528.15	25.59
528.579	25.75
529.008	25.92
529.437	26.06
529.866	26.19
530.295	26.34
530.724	26.47
531.152	26.6
531.581	26.72
532.01	26.84
532.438	26.95
532.867	27.06
533.295	27.16
533.723	27.26
534.152	27.33
534.58	27.43
535.008	27.48
535.436	27.54
535.865	27.59
536.293	27.64
536.721	27.68
537.149	27.74
537.576	27.78
538.004	27.83
538.432	27.86
538.86	27.91
539.287	27.94
539.715	27.99
540.143	28.03
540.57	28.06
540.998	28.09
541.425	28.13
541.852	28.14
542.28	28.18
542.707	28.2
543.134	28.24
543.561	28.26
543.988	28.3
544.415	28.31
544.842	28.32
545.269	28.36
545.696	28.38
546.123	28.41
546.549	28.45
546.976	28.48
547.403	28.51
547.829	28.52
548.256	28.55
548.682	28.56
549.108	28.59
549.535	28.63
549.961	28.66
550.387	28.67
550.813	28.68
551.24	28.69
551.666	28.68
552.092	28.67
552.518	28.66
552.943	28.63
553.369	28.62
553.795	28.59
554.221	28.57
554.646	28.54
555.072	28.52
555.498	28.48
555.923	28.43
556.349	28.38
556.774	28.33
557.199	28.29
557.625	28.23
558.05	28.18
558.475	28.11
558.9	28.03
559.325	27.95
559.75	27.86
560.175	27.77
560.6	27.68
561.025	27.6
561.449	27.5
561.874	27.39
562.299	27.28
562.723	27.15
563.148	27.04
563.572	26.91
563.997	26.76
564.421	26.62
564.846	26.48
565.27	26.34
565.694	26.19
566.118	26.04
566.542	25.88
566.966	25.73
567.39	25.57
567.814	25.41
568.238	25.25
568.662	25.1
569.086	24.95
569.509	24.8
569.933	24.64
570.357	24.48
570.78	24.32
571.204	24.17
571.627	24.03
572.05	23.87
572.474	23.75
572.897	23.62
573.32	23.48
573.743	23.33
574.166	23.2
574.589	23.06
575.012	22.94
575.435	22.83
575.858	22.72
576.281	22.6
576.704	22.5
577.126	22.38
577.549	22.27
577.972	22.18
578.394	22.08
578.817	21.98
579.239	21.9
579.661	21.8
580.084	21.71
580.506	21.63
580.928	21.54
581.35	21.44
581.772	21.35
582.194	21.26
582.616	21.17
583.038	21.08
583.46	21
583.882	20.93
584.303	20.86
584.725	20.77
585.147	20.69
585.568	20.63
585.99	20.57
586.411	20.51
586.833	20.45
587.254	20.4
587.675	20.35
588.096	20.29
588.518	20.22
588.939	20.17
589.36	20.12
589.781	20.07
590.202	20.03
590.623	19.99
591.043	19.95
591.464	19.91
591.885	19.87
592.305	19.83
592.726	19.81
593.147	19.77
593.567	19.74
593.987	19.7
594.408	19.67
594.828	19.62
595.248	19.58
595.669	19.54
596.089	19.51
596.509	19.48
596.929	19.45
597.349	19.41
597.769	19.37
598.189	19.33
598.608	19.31
599.028	19.26
599.448	19.23
599.867	19.18
600.287	19.14
600.706	19.08
601.126	19.02
601.545	18.97
601.965	18.92
602.384	18.87
602.803	18.8
603.222	18.73
603.641	18.66
604.061	18.61
604.48	18.52
604.898	18.45
605.317	18.38
605.736	18.31
606.155	18.23
606.574	18.13
606.992	18.05
607.411	17.98
607.829	17.87
608.248	17.78
608.666	17.68
609.085	17.6
609.503	17.52
609.921	17.43
610.339	17.35
610.758	17.26
611.176	17.18
611.594	17.08
612.012	17
612.43	16.93
612.847	16.86
613.265	16.78
613.683	16.69
614.101	16.6
614.518	16.53
614.936	16.44
615.353	16.35
615.771	16.28
616.188	16.22
616.606	16.16
617.023	16.09
617.44	16.04
617.857	15.97
618.274	15.9
618.691	15.83
619.108	15.76
619.525	15.71
619.942	15.68
620.359	15.64
620.776	15.58
621.192	15.53
621.609	15.5
622.026	15.46
622.442	15.44
622.859	15.42
623.275	15.4
623.691	15.39
624.108	15.37
624.524	15.34
624.94	15.31
625.356	15.3
625.772	15.29
626.188	15.26
626.604	15.24
627.02	15.22
627.436	15.21
627.852	15.19
628.268	15.18
628.683	15.16
629.099	15.15
629.514	15.14
629.93	15.11
630.345	15.09
630.761	15.05
631.176	15.02
631.591	14.97
632.007	14.94
632.422	14.88
632.837	14.82
633.252	14.75
633.667	14.66
634.082	14.58
634.497	14.5
634.911	14.41
635.326	14.33
635.741	14.23
636.155	14.14
636.57	14.03
636.984	13.92
637.399	13.8
637.813	13.69
638.228	13.57
638.642	13.43
639.056	13.3
639.47	13.17
639.884	13.03
640.298	12.9
640.712	12.76
641.126	12.62
641.54	12.48
641.954	12.35
642.368	12.21
642.781	12.08
643.195	11.95
643.609	11.82
644.022	11.69
644.436	11.58
644.849	11.45
645.262	11.34
645.676	11.23
646.089	11.12
646.502	11.02
646.915	10.94
647.328	10.85
647.741	10.78
648.154	10.69
648.567	10.63
648.98	10.55
649.393	10.5
649.805	10.44
650.218	10.39
650.631	10.34
651.043	10.29
651.456	10.24
651.868	10.19
652.28	10.14
652.693	10.09
653.105	10.03
653.517	9.98
653.929	9.91
654.341	9.83
654.753	9.74
655.165	9.65
655.577	9.56
655.989	9.47
656.401	9.37
656.813	9.28
657.224	9.17
657.636	9.06
658.047	8.94
658.459	8.83
658.87	8.74
659.282	8.62
659.693	8.52
660.104	8.4
660.515	8.29
660.926	8.18
661.338	8.05
661.749	7.95
662.159	7.85
662.57	7.75
662.981	7.65
663.392	7.55
663.803	7.47
664.213	7.38
664.624	7.3
665.035	7.22
665.445	7.16
665.855	7.1
666.266	7.03
666.676	6.99
667.086	6.92
667.497	6.89
667.907	6.84
668.317	6.81
668.727	6.77
669.137	6.74
669.547	6.72
669.956	6.69
670.366	6.67
670.776	6.66
671.186	6.65
671.595	6.65
672.005	6.64
672.414	6.65
672.824	6.65
673.233	6.66
673.642	6.68
674.052	6.7
674.461	6.72
674.87	6.74
675.279	6.75
675.688	6.78
676.097	6.81
676.506	6.84
676.915	6.88
677.323	6.92
677.732	6.95
678.141	7.01
678.549	7.06
678.958	7.13
679.366	7.21
679.775	7.3
680.183	7.38
680.592	7.49
681	7.61
681.408	7.73
681.816	7.87
682.224	8.04
682.632	8.21
683.04	8.38
683.448	8.58
683.856	8.81
684.264	9.06
684.671	9.33
685.079	9.62
685.487	9.94
685.894	10.28
686.302	10.66
686.709	11.04
687.116	11.47
687.524	11.93
687.931	12.41
688.338	12.9
688.745	13.42
689.152	13.94
689.559	14.5
689.966	15.07
690.373	15.66
690.78	16.24
691.187	16.84
691.593	17.45
692	18.04
692.407	18.65
692.813	19.28
693.22	19.88
693.626	20.49
694.032	21.12
694.439	21.73
694.845	22.34
695.251	22.95
695.657	23.54
696.063	24.15
696.469	24.75
696.875	25.34
697.281	25.91
697.687	26.5
698.093	27.08
698.498	27.62
698.904	28.18
699.31	28.69
699.715	29.2
700.12	29.73
700.526	30.21
700.931	30.7
701.337	31.17
701.742	31.63
702.147	32.08
702.552	32.52
702.957	32.93
703.362	33.34
703.767	33.74
704.172	34.16
704.577	34.55
704.981	34.95
705.386	35.34
705.791	35.72
706.195	36.09
706.6	36.45
707.004	36.8
707.408	37.16
707.813	37.52
708.217	37.87
708.621	38.18
709.025	38.49
709.43	38.78
709.834	39.11
710.237	39.4
710.641	39.68
711.045	39.96
711.449	40.23
711.853	40.52
712.256	40.77
712.66	41.02
713.064	41.27
713.467	41.52
713.87	41.79
714.274	42.02
714.677	42.26
715.08	42.49
715.484	42.71
715.887	42.98
716.29	43.17
716.693	43.4
717.096	43.63
717.499	43.86
717.901	44.07
718.304	44.26
718.707	44.46
719.109	44.66
719.512	44.85
719.915	45.04
720.317	45.15
720.719	45.31
721.122	45.47
721.524	45.66
721.926	45.81
722.328	45.98
722.731	46.12
723.133	46.26
723.535	46.39
723.937	46.54
724.338	46.68
724.74	46.84
725.142	47.08
725.544	47.18
725.945	47.3
726.347	47.38
726.748	47.47
727.15	47.57
727.551	47.68
727.952	47.75
728.354	47.84
728.755	47.92
729.156	48.01
729.557	48.04
729.958	48.11
730.359	48.16
730.76	48.27
731.161	48.36
731.562	48.47
731.962	48.53
732.363	48.63
732.763	48.69
733.164	48.76
733.564	48.82
733.965	48.85
734.365	48.93
734.766	48.98
735.166	49.03
735.566	49.06
735.966	49.08
736.366	49.1
736.766	49.13
737.166	49.19
737.566	49.24
737.966	49.26
738.365	49.3
738.765	49.33
739.165	49.38
739.564	49.41
739.964	49.44
740.363	49.47
740.763	49.51
741.162	49.54
741.561	49.53
741.96	49.53
742.36	49.55
742.759	49.57
743.158	49.59
743.557	49.6
743.955	49.63
744.354	49.67
744.753	49.71
745.152	49.76
745.55	49.8
745.949	49.86
746.348	49.91
746.746	49.94
747.144	49.96
747.543	49.99
747.941	50.02
748.339	50.03
748.737	50.04
749.136	50.03
749.534	50.03
749.932	50.04
750.33	50.02
750.727	50.03
751.125	50.03
751.523	50.05
751.921	50.07
752.318	50.07
752.716	50.08
753.113	50.09
753.511	50.12
753.908	50.12
754.305	50.11
754.703	50.1
755.1	50.1
755.497	50.11
755.894	50.08
756.291	50.06
756.688	50.05
757.085	50.04
757.482	50
757.878	49.99
758.275	49.95
758.672	49.94
759.068	49.94
759.465	49.94
759.861	49.92
760.258	49.93
760.654	49.91
761.05	49.92
761.447	49.94
761.843	49.96
762.239	49.96
762.635	49.97
763.031	49.98
763.427	49.96
763.822	49.95
764.218	49.95
764.614	49.95
765.01	49.94
765.405	49.92
765.801	49.9
766.196	49.9
766.592	49.87
766.987	49.89
767.382	49.86
767.778	49.9
768.173	49.9
768.568	49.91
768.963	49.9
769.358	49.91
769.753	49.91
770.148	49.9
770.542	49.9
770.937	49.9
771.332	49.88
771.726	49.89
772.121	49.9
772.515	49.91
772.91	49.9
773.304	49.91
773.699	49.93
774.093	49.94
774.487	49.95
774.881	49.96
775.275	49.97
775.669	49.98
776.063	49.98
776.457	49.96
776.851	49.93
777.245	49.92
777.638	49.9
778.032	49.89
778.425	49.88
778.819	49.88
779.212	49.91
779.606	49.9
779.999	49.9
780.392	49.9
