Data from C_3_DEC_ON_6N_Splice17_14-24-25-997.txt Node
Date: Sat Mar 07 14:24:25 EST 2020
User: sa697716
Spectrometer: NQ5500242
Trigger mode: 0
Integration Time (sec): 1.450000E-1
Scans to average: 20
Nonlinearity correction enabled: false
Boxcar width: 5
Storing dark spectrum: false
XAxis mode: Wavelengths
Number of Pixels in Spectrum: 512
>>>>>Begin Spectral Data<<<<<
187.83	54.38
188.298	59.68
188.766	35.17
189.233	51
189.701	36.3
190.169	34.89
190.636	6.45
191.104	-63.25
191.571	-196.18
192.039	-198.43
192.506	-369.84
192.974	183.47
193.441	170
193.908	89.62
194.375	82.87
194.842	0.52
195.31	30.17
195.777	-135.24
196.244	47.44
196.711	65.99
197.177	70.41
197.644	70.68
198.111	70.87
198.578	71.6
199.045	71.87
199.511	71.85
199.978	71.98
200.445	72.01
200.911	71.99
201.378	72.26
201.844	72.09
202.31	71.76
202.777	71.74
203.243	71.62
203.709	71.02
204.176	70.29
204.642	70.07
205.108	69.55
205.574	68.82
206.04	68.27
206.506	67.36
206.972	66.96
207.438	66.05
207.903	65.25
208.369	63.79
208.835	62.5
209.301	60.9
209.766	59.1
210.232	57.4
210.697	55.78
211.163	54.2
211.628	52.84
212.094	51.2
212.559	50.08
213.024	48.82
213.49	47.74
213.955	46.62
214.42	45.77
214.885	44.41
215.35	42.79
215.815	40.4
216.28	37.56
216.745	34.43
217.21	31.21
217.675	28.19
218.14	25.49
218.604	23.19
219.069	21.22
219.534	19.55
219.998	18.25
220.463	17.16
220.927	16.26
221.392	15.57
221.856	14.92
222.32	14.4
222.785	13.94
223.249	13.54
223.713	13.17
224.177	12.89
224.642	12.62
225.106	12.3
225.57	12.04
226.034	11.78
226.497	11.53
226.961	11.34
227.425	11.14
227.889	10.95
228.353	10.76
228.816	10.59
229.28	10.4
229.744	10.22
230.207	10.07
230.671	9.92
231.134	9.76
231.597	9.62
232.061	9.47
232.524	9.35
232.987	9.21
233.45	9.1
233.914	8.98
234.377	8.87
234.84	8.75
235.303	8.65
235.766	8.56
236.229	8.47
236.691	8.4
237.154	8.31
237.617	8.22
238.08	8.15
238.542	8.06
239.005	7.99
239.468	7.92
239.93	7.86
240.393	7.79
240.855	7.7
241.317	7.64
241.78	7.55
242.242	7.47
242.704	7.41
243.166	7.34
243.629	7.27
244.091	7.2
244.553	7.13
245.015	7.06
245.477	6.99
245.939	6.94
246.4	6.88
246.862	6.82
247.324	6.77
247.786	6.72
248.247	6.66
248.709	6.6
249.17	6.54
249.632	6.49
250.093	6.43
250.555	6.38
251.016	6.33
251.477	6.28
251.939	6.24
252.4	6.19
252.861	6.15
253.322	6.11
253.783	6.08
254.244	6.06
254.705	6.03
255.166	5.99
255.627	5.95
256.088	5.93
256.549	5.9
257.009	5.86
257.47	5.83
257.931	5.79
258.391	5.75
258.852	5.7
259.312	5.66
259.773	5.62
260.233	5.59
260.694	5.56
261.154	5.52
261.614	5.48
262.074	5.45
262.534	5.41
262.994	5.39
263.455	5.37
263.915	5.34
264.374	5.31
264.834	5.29
265.294	5.27
265.754	5.25
266.214	5.22
266.673	5.19
267.133	5.18
267.593	5.16
268.052	5.14
268.512	5.13
268.971	5.11
269.431	5.1
269.89	5.08
270.349	5.07
270.809	5.05
271.268	5.04
271.727	5.03
272.186	5.02
272.645	5.02
273.104	5
273.563	4.98
274.022	4.97
274.481	4.97
274.94	4.96
275.399	4.95
275.857	4.95
276.316	4.95
276.775	4.94
277.233	4.93
277.692	4.93
278.15	4.92
278.609	4.92
279.067	4.92
279.525	4.91
279.984	4.9
280.442	4.88
280.9	4.88
281.358	4.86
281.816	4.86
282.274	4.85
282.732	4.85
283.19	4.84
283.648	4.83
284.106	4.82
284.564	4.82
285.021	4.83
285.479	4.83
285.937	4.83
286.394	4.83
286.852	4.82
287.309	4.81
287.767	4.8
288.224	4.78
288.682	4.77
289.139	4.76
289.596	4.74
290.053	4.72
290.511	4.7
290.968	4.68
291.425	4.67
291.882	4.65
292.339	4.63
292.796	4.62
293.252	4.61
293.709	4.6
294.166	4.6
294.623	4.59
295.079	4.58
295.536	4.57
295.992	4.56
296.449	4.56
296.905	4.55
297.362	4.55
297.818	4.53
298.274	4.54
298.731	4.53
299.187	4.51
299.643	4.51
300.099	4.51
300.555	4.5
301.011	4.49
301.467	4.48
301.923	4.48
302.379	4.47
302.835	4.47
303.291	4.46
303.746	4.46
304.202	4.46
304.658	4.46
305.113	4.45
305.569	4.46
306.024	4.46
306.479	4.46
306.935	4.46
307.39	4.46
307.845	4.47
308.301	4.47
308.756	4.47
309.211	4.47
309.666	4.48
310.121	4.49
310.576	4.49
311.031	4.49
311.486	4.5
311.94	4.52
312.395	4.52
312.85	4.53
313.305	4.54
313.759	4.55
314.214	4.55
314.668	4.55
315.123	4.54
315.577	4.53
316.032	4.53
316.486	4.51
316.94	4.5
317.394	4.48
317.849	4.47
318.303	4.45
318.757	4.44
319.211	4.43
319.665	4.41
320.119	4.4
320.572	4.39
321.026	4.39
321.48	4.38
321.934	4.37
322.387	4.37
322.841	4.37
323.295	4.37
323.748	4.36
324.202	4.36
324.655	4.35
325.108	4.36
325.562	4.36
326.015	4.35
326.468	4.35
326.921	4.35
327.374	4.35
327.827	4.34
328.28	4.33
328.733	4.34
329.186	4.35
329.639	4.35
330.092	4.35
330.545	4.36
330.997	4.36
331.45	4.37
331.903	4.38
332.355	4.39
332.808	4.39
333.26	4.4
333.713	4.4
334.165	4.4
334.617	4.41
335.069	4.41
335.522	4.41
335.974	4.41
336.426	4.41
336.878	4.41
337.33	4.42
337.782	4.42
338.234	4.42
338.686	4.42
339.137	4.43
339.589	4.42
340.041	4.42
340.493	4.4
340.944	4.39
341.396	4.37
341.847	4.36
342.299	4.33
342.75	4.31
343.201	4.29
343.653	4.28
344.104	4.25
344.555	4.24
345.006	4.22
345.457	4.22
345.908	4.21
346.359	4.22
346.81	4.2
347.261	4.2
347.712	4.2
348.163	4.19
348.613	4.19
349.064	4.19
349.515	4.2
349.965	4.19
350.416	4.19
350.866	4.19
351.317	4.18
351.767	4.18
352.217	4.18
352.668	4.18
353.118	4.19
353.568	4.19
354.018	4.19
354.468	4.19
354.918	4.2
355.368	4.21
355.818	4.21
356.268	4.22
356.718	4.23
357.168	4.22
357.617	4.22
358.067	4.23
358.517	4.25
358.966	4.25
359.416	4.25
359.865	4.25
360.315	4.26
360.764	4.27
361.213	4.27
361.663	4.26
362.112	4.26
362.561	4.28
363.01	4.27
363.459	4.26
363.908	4.25
364.357	4.25
364.806	4.25
365.255	4.25
365.703	4.26
366.152	4.27
366.601	4.27
367.05	4.28
367.498	4.28
367.947	4.29
368.395	4.29
368.844	4.31
369.292	4.31
369.74	4.32
370.189	4.33
370.637	4.32
371.085	4.32
371.533	4.32
371.981	4.32
372.429	4.33
372.877	4.34
373.325	4.34
373.773	4.34
374.221	4.34
374.669	4.34
375.116	4.34
375.564	4.35
376.012	4.36
376.459	4.37
376.907	4.38
377.354	4.38
377.801	4.39
378.249	4.39
378.696	4.4
379.143	4.41
379.591	4.42
380.038	4.44
380.485	4.45
380.932	4.46
381.379	4.47
381.826	4.49
382.273	4.5
382.72	4.51
383.166	4.52
383.613	4.53
384.06	4.53
384.506	4.54
384.953	4.55
385.4	4.56
385.846	4.58
386.292	4.6
386.739	4.6
387.185	4.62
387.631	4.65
388.078	4.65
388.524	4.66
388.97	4.67
389.416	4.69
389.862	4.71
390.308	4.74
390.754	4.76
391.2	4.77
391.645	4.8
392.091	4.82
392.537	4.84
392.983	4.87
393.428	4.9
393.874	4.93
394.319	4.94
394.765	4.95
395.21	4.95
395.655	4.96
396.101	4.98
396.546	5
396.991	5.01
397.436	5.01
397.881	5.03
398.326	5.05
398.771	5.07
399.216	5.09
399.661	5.11
400.106	5.14
400.551	5.16
400.995	5.14
401.44	5.14
401.885	5.15
402.329	5.16
402.774	5.15
403.218	5.17
403.663	5.19
404.107	5.21
404.551	5.22
404.995	5.22
405.44	5.23
405.884	5.26
406.328	5.28
406.772	5.28
407.216	5.3
407.66	5.32
408.104	5.31
408.547	5.31
408.991	5.31
409.435	5.32
409.879	5.32
410.322	5.33
410.766	5.35
411.209	5.36
411.653	5.38
412.096	5.41
412.54	5.41
412.983	5.43
413.426	5.47
413.869	5.49
414.312	5.51
414.756	5.54
415.199	5.55
415.642	5.56
416.085	5.58
416.527	5.57
416.97	5.56
417.413	5.57
417.856	5.56
418.298	5.54
418.741	5.52
419.184	5.52
419.626	5.51
420.069	5.52
420.511	5.52
420.953	5.51
421.396	5.54
421.838	5.54
422.28	5.55
422.722	5.58
423.164	5.6
423.606	5.63
424.048	5.64
424.49	5.65
424.932	5.64
425.374	5.63
425.816	5.63
426.258	5.61
426.699	5.59
427.141	5.57
427.582	5.57
428.024	5.57
428.465	5.58
428.907	5.57
429.348	5.57
429.789	5.56
430.231	5.58
430.672	5.6
431.113	5.63
431.554	5.66
431.995	5.7
432.436	5.69
432.877	5.69
433.318	5.71
433.759	5.73
434.2	5.75
434.64	5.78
435.081	5.79
435.522	5.81
435.962	5.83
436.403	5.85
436.843	5.88
437.284	5.89
437.724	5.91
438.164	5.9
438.604	5.91
439.045	5.93
439.485	5.93
439.925	5.93
440.365	5.92
440.805	5.93
441.245	5.93
441.685	5.93
442.125	5.95
442.564	5.96
443.004	5.97
443.444	5.99
443.883	6
444.323	6.01
444.762	6.03
445.202	6.05
445.641	6.07
446.081	6.1
446.52	6.09
446.959	6.12
447.398	6.14
447.837	6.15
448.276	6.15
448.716	6.15
449.154	6.18
449.593	6.18
450.032	6.18
450.471	6.17
450.91	6.15
451.349	6.14
451.787	6.12
452.226	6.11
452.664	6.11
453.103	6.11
453.541	6.09
453.98	6.07
454.418	6.05
454.856	6.03
455.295	6.01
455.733	5.99
456.171	5.98
456.609	5.96
457.047	5.94
457.485	5.92
457.923	5.9
458.361	5.88
458.798	5.87
459.236	5.86
459.674	5.86
460.111	5.86
460.549	5.85
460.987	5.85
461.424	5.85
461.862	5.85
462.299	5.86
462.736	5.84
463.173	5.85
463.611	5.85
464.048	5.85
464.485	5.85
464.922	5.85
465.359	5.86
465.796	5.87
466.233	5.88
466.67	5.9
467.106	5.91
467.543	5.92
467.98	5.93
468.416	5.92
468.853	5.94
469.29	5.93
469.726	5.95
470.162	5.94
470.599	5.94
471.035	5.91
471.471	5.89
471.907	5.88
472.344	5.89
472.78	5.89
473.216	5.88
473.652	5.88
474.088	5.87
474.523	5.86
474.959	5.86
475.395	5.85
475.831	5.85
476.266	5.85
476.702	5.84
477.138	5.83
477.573	5.82
478.008	5.81
478.444	5.79
478.879	5.78
479.314	5.77
479.75	5.77
480.185	5.75
480.62	5.74
481.055	5.73
481.49	5.71
481.925	5.71
482.36	5.7
482.795	5.69
483.229	5.69
483.664	5.68
484.099	5.67
484.534	5.67
484.968	5.67
485.403	5.67
485.837	5.68
486.271	5.69
486.706	5.68
487.14	5.69
487.574	5.69
488.009	5.7
488.443	5.7
488.877	5.71
489.311	5.73
489.745	5.74
490.179	5.76
490.613	5.77
491.046	5.78
491.48	5.81
491.914	5.83
492.348	5.87
492.781	5.9
493.215	5.93
493.648	5.97
494.082	6
494.515	6.04
494.948	6.09
495.382	6.13
495.815	6.19
496.248	6.24
496.681	6.3
497.114	6.35
497.547	6.41
497.98	6.47
498.413	6.52
498.846	6.58
499.279	6.64
499.711	6.71
500.144	6.79
500.577	6.86
501.009	6.93
501.442	7.02
501.874	7.11
502.306	7.2
502.739	7.3
503.171	7.41
503.603	7.52
504.036	7.64
504.468	7.75
504.9	7.86
505.332	7.99
505.764	8.11
506.196	8.25
506.627	8.4
507.059	8.54
507.491	8.69
507.923	8.84
508.354	9
508.786	9.17
509.217	9.35
509.649	9.54
510.08	9.72
510.512	9.92
510.943	10.11
511.374	10.31
511.805	10.51
512.237	10.72
512.668	10.94
513.099	11.17
513.53	11.4
513.961	11.62
514.391	11.85
514.822	12.09
515.253	12.31
515.684	12.55
516.114	12.79
516.545	13.02
516.975	13.28
517.406	13.52
517.836	13.75
518.267	14
518.697	14.25
519.127	14.49
519.558	14.72
519.988	14.97
520.418	15.21
520.848	15.43
521.278	15.67
521.708	15.99
522.138	16.22
522.567	16.44
522.997	16.65
523.427	16.86
523.857	17.06
524.286	17.26
524.716	17.45
525.145	17.64
525.575	17.83
526.004	18.01
526.433	18.08
526.863	18.24
527.292	18.41
527.721	18.58
528.15	18.72
528.579	18.86
529.008	19.01
529.437	19.15
529.866	19.28
530.295	19.4
530.724	19.53
531.152	19.65
531.581	19.76
532.01	19.86
532.438	19.96
532.867	20.05
533.295	20.13
533.723	20.21
534.152	20.26
534.58	20.33
535.008	20.39
535.436	20.45
535.865	20.5
536.293	20.55
536.721	20.59
537.149	20.62
537.576	20.65
538.004	20.71
538.432	20.75
538.86	20.78
539.287	20.81
539.715	20.87
540.143	20.89
540.57	20.92
540.998	20.95
541.425	20.98
541.852	21.01
542.28	21.05
542.707	21.07
543.134	21.1
543.561	21.13
543.988	21.17
544.415	21.17
544.842	21.2
545.269	21.23
545.696	21.26
546.123	21.29
546.549	21.33
546.976	21.37
547.403	21.39
547.829	21.42
548.256	21.45
548.682	21.47
549.108	21.5
549.535	21.52
549.961	21.54
550.387	21.56
550.813	21.57
551.24	21.56
551.666	21.57
552.092	21.58
552.518	21.58
552.943	21.56
553.369	21.55
553.795	21.53
554.221	21.52
554.646	21.5
555.072	21.47
555.498	21.43
555.923	21.41
556.349	21.35
556.774	21.3
557.199	21.26
557.625	21.21
558.05	21.15
558.475	21.1
558.9	21.04
559.325	20.98
559.75	20.91
560.175	20.84
560.6	20.76
561.025	20.68
561.449	20.58
561.874	20.47
562.299	20.36
562.723	20.25
563.148	20.13
563.572	19.99
563.997	19.87
564.421	19.73
564.846	19.6
565.27	19.47
565.694	19.35
566.118	19.21
566.542	19.06
566.966	18.93
567.39	18.78
567.814	18.64
568.238	18.5
568.662	18.35
569.086	18.22
569.509	18.07
569.933	17.93
570.357	17.78
570.78	17.64
571.204	17.51
571.627	17.39
572.05	17.27
572.474	17.16
572.897	17.06
573.32	16.95
573.743	16.85
574.166	16.75
574.589	16.64
575.012	16.54
575.435	16.44
575.858	16.35
576.281	16.26
576.704	16.16
577.126	16.07
577.549	15.98
577.972	15.9
578.394	15.81
578.817	15.73
579.239	15.66
579.661	15.6
580.084	15.54
580.506	15.48
580.928	15.41
581.35	15.33
581.772	15.27
582.194	15.22
582.616	15.16
583.038	15.11
583.46	15.05
583.882	14.99
584.303	14.91
584.725	14.85
585.147	14.79
585.568	14.74
585.99	14.7
586.411	14.65
586.833	14.58
587.254	14.52
587.675	14.46
588.096	14.41
588.518	14.37
588.939	14.35
589.36	14.3
589.781	14.26
590.202	14.22
590.623	14.18
591.043	14.14
591.464	14.1
591.885	14.06
592.305	14.04
592.726	14.01
593.147	13.97
593.567	13.94
593.987	13.9
594.408	13.88
594.828	13.84
595.248	13.81
595.669	13.78
596.089	13.76
596.509	13.73
596.929	13.69
597.349	13.67
597.769	13.64
598.189	13.6
598.608	13.57
599.028	13.52
599.448	13.49
599.867	13.44
600.287	13.4
600.706	13.36
601.126	13.32
601.545	13.29
601.965	13.25
602.384	13.2
602.803	13.15
603.222	13.11
603.641	13.07
604.061	13.03
604.48	12.97
604.898	12.92
605.317	12.87
605.736	12.82
606.155	12.75
606.574	12.69
606.992	12.62
607.411	12.57
607.829	12.48
608.248	12.41
608.666	12.34
609.085	12.29
609.503	12.24
609.921	12.17
610.339	12.11
610.758	12.07
611.176	12.01
611.594	11.95
612.012	11.89
612.43	11.86
612.847	11.81
613.265	11.76
613.683	11.7
614.101	11.64
614.518	11.58
614.936	11.52
615.353	11.46
615.771	11.4
616.188	11.36
616.606	11.31
617.023	11.26
617.44	11.23
617.857	11.18
618.274	11.14
618.691	11.1
619.108	11.08
619.525	11.06
619.942	11.03
620.359	11
620.776	10.97
621.192	10.95
621.609	10.93
622.026	10.9
622.442	10.88
622.859	10.86
623.275	10.84
623.691	10.81
624.108	10.79
624.524	10.79
624.94	10.79
625.356	10.78
625.772	10.77
626.188	10.76
626.604	10.76
627.02	10.74
627.436	10.74
627.852	10.73
628.268	10.73
628.683	10.72
629.099	10.71
629.514	10.69
629.93	10.68
630.345	10.66
630.761	10.63
631.176	10.59
631.591	10.56
632.007	10.52
632.422	10.48
632.837	10.42
633.252	10.36
633.667	10.3
634.082	10.24
634.497	10.17
634.911	10.09
635.326	10.02
635.741	9.94
636.155	9.85
636.57	9.77
636.984	9.68
637.399	9.58
637.813	9.5
638.228	9.39
638.642	9.27
639.056	9.17
639.47	9.07
639.884	8.97
640.298	8.87
640.712	8.76
641.126	8.67
641.54	8.57
641.954	8.47
642.368	8.37
642.781	8.29
643.195	8.2
643.609	8.12
644.022	8.03
644.436	7.95
644.849	7.88
645.262	7.8
645.676	7.73
646.089	7.66
646.502	7.6
646.915	7.56
647.328	7.5
647.741	7.46
648.154	7.41
648.567	7.38
648.98	7.33
649.393	7.3
649.805	7.29
650.218	7.26
650.631	7.24
651.043	7.21
651.456	7.19
651.868	7.17
652.28	7.16
652.693	7.14
653.105	7.12
653.517	7.1
653.929	7.08
654.341	7.04
654.753	7.01
655.165	6.99
655.577	6.95
655.989	6.91
656.401	6.87
656.813	6.83
657.224	6.78
657.636	6.74
658.047	6.7
658.459	6.65
658.87	6.61
659.282	6.55
659.693	6.5
660.104	6.44
660.515	6.39
660.926	6.35
661.338	6.3
661.749	6.27
662.159	6.22
662.57	6.19
662.981	6.15
663.392	6.12
663.803	6.09
664.213	6.05
664.624	6.03
665.035	6.01
665.445	5.98
665.855	5.95
666.266	5.94
666.676	5.93
667.086	5.89
667.497	5.87
667.907	5.86
668.317	5.86
668.727	5.85
669.137	5.85
669.547	5.85
669.956	5.85
670.366	5.86
670.776	5.85
671.186	5.85
671.595	5.87
672.005	5.88
672.414	5.89
672.824	5.9
673.233	5.91
673.642	5.93
674.052	5.94
674.461	5.96
674.87	5.98
675.279	6
675.688	6.03
676.097	6.05
676.506	6.09
676.915	6.12
677.323	6.16
677.732	6.19
678.141	6.22
678.549	6.26
678.958	6.31
679.366	6.37
679.775	6.42
680.183	6.47
680.592	6.56
681	6.62
681.408	6.7
681.816	6.78
682.224	6.87
682.632	6.97
683.04	7.09
683.448	7.2
683.856	7.33
684.264	7.46
684.671	7.62
685.079	7.78
685.487	7.97
685.894	8.2
686.302	8.43
686.709	8.69
687.116	8.96
687.524	9.27
687.931	9.59
688.338	9.93
688.745	10.3
689.152	10.67
689.559	11.09
689.966	11.52
690.373	11.95
690.78	12.4
691.187	12.87
691.593	13.35
692	13.85
692.407	14.36
692.813	14.89
693.22	15.42
693.626	15.96
694.032	16.49
694.439	17.02
694.845	17.57
695.251	18.13
695.657	18.67
696.063	19.22
696.469	19.76
696.875	20.3
697.281	20.84
697.687	21.37
698.093	21.92
698.498	22.45
698.904	22.98
699.31	23.5
699.715	24
700.12	24.5
700.526	25.01
700.931	25.51
701.337	25.99
701.742	26.44
702.147	26.91
702.552	27.37
702.957	27.8
703.362	28.23
703.767	28.65
704.172	29.08
704.577	29.48
704.981	29.88
705.386	30.28
705.791	30.67
706.195	31.07
706.6	31.45
707.004	31.81
707.408	32.19
707.813	32.57
708.217	32.92
708.621	33.28
709.025	33.6
709.43	33.92
709.834	34.27
710.237	34.58
710.641	34.9
711.045	35.19
711.449	35.5
711.853	35.82
712.256	36.1
712.66	36.4
713.064	36.66
713.467	36.97
713.87	37.26
714.274	37.49
714.677	37.77
715.08	38.02
715.484	38.31
715.887	38.57
716.29	38.8
716.693	39.05
717.096	39.29
717.499	39.55
717.901	39.77
718.304	40
718.707	40.25
719.109	40.47
719.512	40.7
719.915	40.91
720.317	41.1
720.719	41.29
721.122	41.48
721.524	41.68
721.926	41.84
722.328	42.05
722.731	42.22
723.133	42.41
723.535	42.57
723.937	42.72
724.338	42.87
724.74	43.04
725.142	43.24
725.544	43.39
725.945	43.53
726.347	43.67
726.748	43.79
727.15	43.9
727.551	44.03
727.952	44.12
728.354	44.25
728.755	44.34
729.156	44.44
729.557	44.51
729.958	44.6
730.359	44.71
730.76	44.83
731.161	44.91
731.562	45.04
731.962	45.08
732.363	45.17
732.763	45.25
733.164	45.35
733.564	45.42
733.965	45.49
734.365	45.56
734.766	45.61
735.166	45.66
735.566	45.72
735.966	45.78
736.366	45.86
736.766	45.91
737.166	45.95
737.566	46.01
737.966	46.05
738.365	46.1
738.765	46.15
739.165	46.19
739.564	46.26
739.964	46.28
740.363	46.28
740.763	46.33
741.162	46.4
741.561	46.44
741.96	46.46
742.36	46.49
742.759	46.53
743.158	46.55
743.557	46.57
743.955	46.59
744.354	46.63
744.753	46.69
745.152	46.72
745.55	46.74
745.949	46.8
746.348	46.85
746.746	46.89
747.144	46.93
747.543	46.97
747.941	47.01
748.339	47.01
748.737	47.04
749.136	47.05
749.534	47.07
749.932	47.08
750.33	47.06
750.727	47.07
751.125	47.06
751.523	47.05
751.921	47.05
752.318	47.05
752.716	47.05
753.113	47.05
753.511	47.03
753.908	47.03
754.305	47.03
754.703	47.01
755.1	47.01
755.497	47.01
755.894	46.99
756.291	47
756.688	46.98
757.085	46.98
757.482	46.98
757.878	46.99
758.275	46.96
758.672	46.96
759.068	46.98
759.465	46.96
759.861	46.97
760.258	46.98
760.654	46.97
761.05	46.98
761.447	46.99
761.843	46.97
762.239	46.96
762.635	46.95
763.031	46.93
763.427	46.89
763.822	46.91
764.218	46.9
764.614	46.89
765.01	46.88
765.405	46.87
765.801	46.86
766.196	46.86
766.592	46.87
766.987	46.91
767.382	46.92
767.778	46.95
768.173	46.94
768.568	46.94
768.963	46.96
769.358	46.99
769.753	47
770.148	47.03
770.542	47.03
770.937	47.03
771.332	47.01
771.726	47.03
772.121	47.01
772.515	47.02
772.91	47.02
773.304	47.02
773.699	47.01
774.093	46.98
774.487	46.95
774.881	46.98
775.275	47.01
775.669	47
776.063	46.98
776.457	46.99
776.851	46.98
777.245	46.99
777.638	46.99
778.032	46.99
778.425	47.04
778.819	47.04
779.212	47.06
779.606	47.05
779.999	47.05
780.392	47.07
780.786	47.11
781.179	47.12
781.572	47.15
781.965	47.16
782.358	47.2
782.751	47.18
