Data from C_3_HIR_WI_4N_Splice17_14-02-07-055.txt Node
Date: Sat Mar 07 14:02:07 EST 2020
User: sa697716
Spectrometer: NQ5500242
Trigger mode: 0
Integration Time (sec): 1.450000E-1
Scans to average: 20
Nonlinearity correction enabled: false
Boxcar width: 5
Storing dark spectrum: false
XAxis mode: Wavelengths
Number of Pixels in Spectrum: 512
>>>>>Begin Spectral Data<<<<<
187.83	134.47
188.298	149.15
188.766	151.89
189.233	126.54
189.701	130.24
190.169	151.3
190.636	168
191.104	104.14
191.571	42.68
192.039	12.48
192.506	89.46
192.974	90.01
193.441	127.26
193.908	120.02
194.375	94.52
194.842	69.22
195.31	116.33
195.777	137.69
196.244	37.14
196.711	47.22
197.177	47.66
197.644	48.06
198.111	47.59
198.578	48.39
199.045	48.57
199.511	48.03
199.978	48.12
200.445	48.16
200.911	48.55
201.378	48.66
201.844	48.62
202.31	48.49
202.777	48.59
203.243	48.45
203.709	47.71
204.176	47.35
204.642	47.4
205.108	46.94
205.574	46.84
206.04	45.94
206.506	45.22
206.972	44.98
207.438	44.51
207.903	43.83
208.369	42.9
208.835	42.18
209.301	41.27
209.766	39.82
210.232	38.74
210.697	37.37
211.163	36.42
211.628	35.64
212.094	34.42
212.559	33.46
213.024	32.33
213.49	31.64
213.955	30.64
214.42	29.55
214.885	28.6
215.35	27.48
215.815	25.89
216.28	23.94
216.745	21.72
217.21	19.57
217.675	17.56
218.14	15.86
218.604	14.37
219.069	13.1
219.534	12.06
219.998	11.17
220.463	10.39
220.927	9.73
221.392	9.21
221.856	8.78
222.32	8.41
222.785	8.08
223.249	7.8
223.713	7.51
224.177	7.3
224.642	7.09
225.106	6.88
225.57	6.69
226.034	6.53
226.497	6.41
226.961	6.26
227.425	6.13
227.889	6.03
228.353	5.92
228.816	5.81
229.28	5.7
229.744	5.61
230.207	5.53
230.671	5.44
231.134	5.35
231.597	5.27
232.061	5.19
232.524	5.11
232.987	5.02
233.45	4.96
233.914	4.89
234.377	4.84
234.84	4.77
235.303	4.72
235.766	4.68
236.229	4.63
236.691	4.58
237.154	4.53
237.617	4.49
238.08	4.45
238.542	4.4
239.005	4.37
239.468	4.33
239.93	4.3
240.393	4.26
240.855	4.21
241.317	4.16
241.78	4.12
242.242	4.07
242.704	4.05
243.166	4
243.629	3.97
244.091	3.93
244.553	3.88
245.015	3.84
245.477	3.79
245.939	3.76
246.4	3.73
246.862	3.7
247.324	3.69
247.786	3.65
248.247	3.63
248.709	3.58
249.17	3.55
249.632	3.53
250.093	3.51
250.555	3.49
251.016	3.47
251.477	3.45
251.939	3.42
252.4	3.39
252.861	3.36
253.322	3.35
253.783	3.33
254.244	3.31
254.705	3.29
255.166	3.26
255.627	3.24
256.088	3.23
256.549	3.2
257.009	3.18
257.47	3.16
257.931	3.13
258.391	3.1
258.852	3.07
259.312	3.05
259.773	3.03
260.233	3.01
260.694	2.99
261.154	2.96
261.614	2.94
262.074	2.91
262.534	2.89
262.994	2.88
263.455	2.86
263.915	2.85
264.374	2.83
264.834	2.81
265.294	2.8
265.754	2.79
266.214	2.78
266.673	2.76
267.133	2.76
267.593	2.75
268.052	2.74
268.512	2.73
268.971	2.72
269.431	2.7
269.89	2.7
270.349	2.7
270.809	2.68
271.268	2.67
271.727	2.67
272.186	2.65
272.645	2.64
273.104	2.64
273.563	2.63
274.022	2.63
274.481	2.63
274.94	2.62
275.399	2.62
275.857	2.62
276.316	2.61
276.775	2.61
277.233	2.61
277.692	2.61
278.15	2.61
278.609	2.6
279.067	2.6
279.525	2.6
279.984	2.59
280.442	2.59
280.9	2.59
281.358	2.59
281.816	2.59
282.274	2.59
282.732	2.59
283.19	2.58
283.648	2.58
284.106	2.58
284.564	2.57
285.021	2.57
285.479	2.56
285.937	2.56
286.394	2.55
286.852	2.54
287.309	2.54
287.767	2.53
288.224	2.52
288.682	2.52
289.139	2.5
289.596	2.5
290.053	2.48
290.511	2.47
290.968	2.46
291.425	2.45
291.882	2.44
292.339	2.43
292.796	2.43
293.252	2.42
293.709	2.41
294.166	2.41
294.623	2.41
295.079	2.41
295.536	2.41
295.992	2.4
296.449	2.4
296.905	2.4
297.362	2.39
297.818	2.38
298.274	2.38
298.731	2.37
299.187	2.36
299.643	2.35
300.099	2.35
300.555	2.34
301.011	2.33
301.467	2.33
301.923	2.32
302.379	2.33
302.835	2.33
303.291	2.33
303.746	2.33
304.202	2.33
304.658	2.33
305.113	2.33
305.569	2.34
306.024	2.34
306.479	2.33
306.935	2.33
307.39	2.33
307.845	2.33
308.301	2.33
308.756	2.33
309.211	2.33
309.666	2.34
310.121	2.35
310.576	2.34
311.031	2.35
311.486	2.36
311.94	2.37
312.395	2.37
312.85	2.37
313.305	2.37
313.759	2.38
314.214	2.38
314.668	2.37
315.123	2.36
315.577	2.35
316.032	2.35
316.486	2.34
316.94	2.34
317.394	2.32
317.849	2.32
318.303	2.31
318.757	2.3
319.211	2.29
319.665	2.29
320.119	2.28
320.572	2.28
321.026	2.28
321.48	2.27
321.934	2.27
322.387	2.26
322.841	2.26
323.295	2.26
323.748	2.26
324.202	2.26
324.655	2.26
325.108	2.26
325.562	2.26
326.015	2.27
326.468	2.26
326.921	2.26
327.374	2.26
327.827	2.26
328.28	2.26
328.733	2.26
329.186	2.25
329.639	2.25
330.092	2.24
330.545	2.24
330.997	2.23
331.45	2.24
331.903	2.24
332.355	2.25
332.808	2.26
333.26	2.26
333.713	2.26
334.165	2.27
334.617	2.27
335.069	2.27
335.522	2.27
335.974	2.28
336.426	2.28
336.878	2.27
337.33	2.27
337.782	2.26
338.234	2.27
338.686	2.27
339.137	2.28
339.589	2.27
340.041	2.27
340.493	2.26
340.944	2.25
341.396	2.25
341.847	2.24
342.299	2.24
342.75	2.23
343.201	2.22
343.653	2.21
344.104	2.19
344.555	2.18
345.006	2.18
345.457	2.18
345.908	2.17
346.359	2.17
346.81	2.17
347.261	2.17
347.712	2.16
348.163	2.15
348.613	2.15
349.064	2.15
349.515	2.16
349.965	2.15
350.416	2.15
350.866	2.15
351.317	2.14
351.767	2.14
352.217	2.14
352.668	2.14
353.118	2.13
353.568	2.13
354.018	2.13
354.468	2.13
354.918	2.13
355.368	2.14
355.818	2.14
356.268	2.16
356.718	2.16
357.168	2.15
357.617	2.16
358.067	2.16
358.517	2.17
358.966	2.18
359.416	2.18
359.865	2.18
360.315	2.19
360.764	2.19
361.213	2.19
361.663	2.2
362.112	2.22
362.561	2.22
363.01	2.23
363.459	2.22
363.908	2.22
364.357	2.23
364.806	2.23
365.255	2.24
365.703	2.26
366.152	2.27
366.601	2.28
367.05	2.28
367.498	2.29
367.947	2.31
368.395	2.33
368.844	2.35
369.292	2.35
369.74	2.37
370.189	2.38
370.637	2.38
371.085	2.39
371.533	2.39
371.981	2.4
372.429	2.41
372.877	2.42
373.325	2.43
373.773	2.44
374.221	2.44
374.669	2.46
375.116	2.46
375.564	2.47
376.012	2.49
376.459	2.51
376.907	2.54
377.354	2.56
377.801	2.58
378.249	2.6
378.696	2.62
379.143	2.64
379.591	2.66
380.038	2.68
380.485	2.71
380.932	2.73
381.379	2.75
381.826	2.77
382.273	2.78
382.72	2.8
383.166	2.82
383.613	2.84
384.06	2.84
384.506	2.86
384.953	2.88
385.4	2.89
385.846	2.92
386.292	2.94
386.739	2.96
387.185	2.98
387.631	3
388.078	3.01
388.524	3.04
388.97	3.07
389.416	3.09
389.862	3.11
390.308	3.16
390.754	3.18
391.2	3.21
391.645	3.22
392.091	3.25
392.537	3.28
392.983	3.3
393.428	3.32
393.874	3.35
394.319	3.38
394.765	3.4
395.21	3.4
395.655	3.42
396.101	3.45
396.546	3.47
396.991	3.49
397.436	3.52
397.881	3.56
398.326	3.58
398.771	3.6
399.216	3.62
399.661	3.65
400.106	3.67
400.551	3.69
400.995	3.7
401.44	3.71
401.885	3.72
402.329	3.74
402.774	3.75
403.218	3.78
403.663	3.79
404.107	3.81
404.551	3.81
404.995	3.81
405.44	3.82
405.884	3.83
406.328	3.85
406.772	3.84
407.216	3.86
407.66	3.86
408.104	3.85
408.547	3.86
408.991	3.87
409.435	3.88
409.879	3.9
410.322	3.92
410.766	3.95
411.209	3.96
411.653	3.99
412.096	4
412.54	4.02
412.983	4.04
413.426	4.06
413.869	4.08
414.312	4.12
414.756	4.13
415.199	4.13
415.642	4.14
416.085	4.14
416.527	4.14
416.97	4.14
417.413	4.14
417.856	4.14
418.298	4.13
418.741	4.12
419.184	4.11
419.626	4.11
420.069	4.12
420.511	4.11
420.953	4.13
421.396	4.14
421.838	4.13
422.28	4.15
422.722	4.18
423.164	4.18
423.606	4.19
424.048	4.2
424.49	4.2
424.932	4.2
425.374	4.17
425.816	4.14
426.258	4.11
426.699	4.1
427.141	4.07
427.582	4.07
428.024	4.08
428.465	4.09
428.907	4.09
429.348	4.08
429.789	4.07
430.231	4.1
430.672	4.15
431.113	4.19
431.554	4.22
431.995	4.25
432.436	4.26
432.877	4.27
433.318	4.29
433.759	4.31
434.2	4.34
434.64	4.38
435.081	4.4
435.522	4.41
435.962	4.42
436.403	4.45
436.843	4.46
437.284	4.45
437.724	4.47
438.164	4.47
438.604	4.49
439.045	4.51
439.485	4.52
439.925	4.53
440.365	4.55
440.805	4.56
441.245	4.57
441.685	4.59
442.125	4.64
442.564	4.66
443.004	4.67
443.444	4.68
443.883	4.68
444.323	4.7
444.762	4.71
445.202	4.72
445.641	4.75
446.081	4.78
446.52	4.78
446.959	4.81
447.398	4.83
447.837	4.84
448.276	4.85
448.716	4.88
449.154	4.89
449.593	4.93
450.032	4.94
450.471	4.94
450.91	4.93
451.349	4.95
451.787	4.94
452.226	4.93
452.664	4.94
453.103	4.94
453.541	4.93
453.98	4.93
454.418	4.9
454.856	4.89
455.295	4.88
455.733	4.85
456.171	4.83
456.609	4.83
457.047	4.81
457.485	4.79
457.923	4.79
458.361	4.78
458.798	4.77
459.236	4.76
459.674	4.75
460.111	4.76
460.549	4.77
460.987	4.78
461.424	4.78
461.862	4.8
462.299	4.81
462.736	4.8
463.173	4.81
463.611	4.81
464.048	4.83
464.485	4.84
464.922	4.85
465.359	4.86
465.796	4.87
466.233	4.87
466.67	4.88
467.106	4.89
467.543	4.91
467.98	4.92
468.416	4.93
468.853	4.94
469.29	4.95
469.726	4.96
470.162	4.97
470.599	4.98
471.035	4.98
471.471	4.99
471.907	4.99
472.344	4.99
472.78	5
473.216	5.01
473.652	5
474.088	4.99
474.523	5
474.959	5
475.395	5
475.831	5
476.266	5
476.702	4.98
477.138	4.99
477.573	4.98
478.008	4.97
478.444	4.96
478.879	4.96
479.314	4.94
479.75	4.93
480.185	4.91
480.62	4.9
481.055	4.88
481.49	4.86
481.925	4.83
482.36	4.8
482.795	4.79
483.229	4.78
483.664	4.77
484.099	4.75
484.534	4.74
484.968	4.75
485.403	4.75
485.837	4.76
486.271	4.78
486.706	4.8
487.14	4.81
487.574	4.83
488.009	4.84
488.443	4.87
488.877	4.89
489.311	4.92
489.745	4.94
490.179	4.97
490.613	5.02
491.046	5.04
491.48	5.08
491.914	5.12
492.348	5.16
492.781	5.21
493.215	5.26
493.648	5.31
494.082	5.35
494.515	5.4
494.948	5.46
495.382	5.5
495.815	5.57
496.248	5.62
496.681	5.68
497.114	5.74
497.547	5.81
497.98	5.88
498.413	5.95
498.846	6.03
499.279	6.11
499.711	6.19
500.144	6.29
500.577	6.38
501.009	6.49
501.442	6.6
501.874	6.72
502.306	6.84
502.739	6.97
503.171	7.09
503.603	7.22
504.036	7.35
504.468	7.49
504.9	7.61
505.332	7.76
505.764	7.9
506.196	8.05
506.627	8.21
507.059	8.37
507.491	8.54
507.923	8.71
508.354	8.9
508.786	9.09
509.217	9.27
509.649	9.46
510.08	9.66
510.512	9.85
510.943	10.05
511.374	10.25
511.805	10.45
512.237	10.64
512.668	10.84
513.099	11.04
513.53	11.23
513.961	11.44
514.391	11.66
514.822	11.88
515.253	12.12
515.684	12.34
516.114	12.57
516.545	12.81
516.975	13.06
517.406	13.32
517.836	13.56
518.267	13.82
518.697	14.06
519.127	14.29
519.558	14.52
519.988	14.75
520.418	14.98
520.848	15.2
521.278	15.42
521.708	15.76
522.138	15.96
522.567	16.15
522.997	16.33
523.427	16.51
523.857	16.7
524.286	16.89
524.716	17.08
525.145	17.25
525.575	17.42
526.004	17.59
526.433	17.62
526.863	17.79
527.292	17.95
527.721	18.09
528.15	18.22
528.579	18.36
529.008	18.47
529.437	18.57
529.866	18.67
530.295	18.79
530.724	18.89
531.152	18.98
531.581	19.07
532.01	19.17
532.438	19.25
532.867	19.34
533.295	19.4
533.723	19.48
534.152	19.53
534.58	19.6
535.008	19.62
535.436	19.66
535.865	19.69
536.293	19.71
536.721	19.73
537.149	19.75
537.576	19.8
538.004	19.83
538.432	19.86
538.86	19.89
539.287	19.91
539.715	19.95
540.143	19.99
540.57	20.04
540.998	20.08
541.425	20.12
541.852	20.16
542.28	20.19
542.707	20.21
543.134	20.24
543.561	20.27
543.988	20.31
544.415	20.34
544.842	20.36
545.269	20.37
545.696	20.42
546.123	20.45
546.549	20.48
546.976	20.51
547.403	20.53
547.829	20.56
548.256	20.58
548.682	20.6
549.108	20.63
549.535	20.67
549.961	20.69
550.387	20.69
550.813	20.69
551.24	20.7
551.666	20.71
552.092	20.7
552.518	20.69
552.943	20.68
553.369	20.67
553.795	20.64
554.221	20.61
554.646	20.57
555.072	20.55
555.498	20.5
555.923	20.46
556.349	20.4
556.774	20.37
557.199	20.32
557.625	20.25
558.05	20.19
558.475	20.12
558.9	20.07
559.325	20.01
559.75	19.95
560.175	19.88
560.6	19.81
561.025	19.73
561.449	19.63
561.874	19.53
562.299	19.45
562.723	19.35
563.148	19.24
563.572	19.12
563.997	19.01
564.421	18.88
564.846	18.76
565.27	18.63
565.694	18.52
566.118	18.38
566.542	18.28
566.966	18.15
567.39	18.03
567.814	17.89
568.238	17.77
568.662	17.64
569.086	17.51
569.509	17.39
569.933	17.27
570.357	17.15
570.78	17.05
571.204	16.93
571.627	16.8
572.05	16.69
572.474	16.6
572.897	16.48
573.32	16.39
573.743	16.3
574.166	16.19
574.589	16.09
575.012	15.99
575.435	15.89
575.858	15.81
576.281	15.73
576.704	15.66
577.126	15.58
577.549	15.51
577.972	15.43
578.394	15.35
578.817	15.29
579.239	15.24
579.661	15.17
580.084	15.12
580.506	15.07
580.928	15.01
581.35	14.94
581.772	14.89
582.194	14.84
582.616	14.78
583.038	14.72
583.46	14.66
583.882	14.59
584.303	14.53
584.725	14.46
585.147	14.4
585.568	14.34
585.99	14.29
586.411	14.22
586.833	14.17
587.254	14.12
587.675	14.06
588.096	14.01
588.518	13.96
588.939	13.93
589.36	13.88
589.781	13.85
590.202	13.82
590.623	13.78
591.043	13.74
591.464	13.72
591.885	13.66
592.305	13.64
592.726	13.62
593.147	13.6
593.567	13.57
593.987	13.53
594.408	13.49
594.828	13.46
595.248	13.43
595.669	13.41
596.089	13.38
596.509	13.36
596.929	13.33
597.349	13.29
597.769	13.25
598.189	13.22
598.608	13.21
599.028	13.19
599.448	13.16
599.867	13.13
600.287	13.09
600.706	13.05
601.126	13.01
601.545	12.98
601.965	12.94
602.384	12.9
602.803	12.86
603.222	12.82
603.641	12.77
604.061	12.72
604.48	12.66
604.898	12.61
605.317	12.55
605.736	12.49
606.155	12.42
606.574	12.37
606.992	12.3
607.411	12.23
607.829	12.13
608.248	12.05
608.666	11.98
609.085	11.91
609.503	11.85
609.921	11.78
610.339	11.72
610.758	11.66
611.176	11.59
611.594	11.52
612.012	11.45
612.43	11.4
612.847	11.33
613.265	11.27
613.683	11.22
614.101	11.16
614.518	11.1
614.936	11.04
615.353	10.97
615.771	10.92
616.188	10.87
616.606	10.83
617.023	10.79
617.44	10.76
617.857	10.71
618.274	10.66
618.691	10.61
619.108	10.56
619.525	10.51
619.942	10.47
620.359	10.43
620.776	10.39
621.192	10.36
621.609	10.33
622.026	10.3
622.442	10.28
622.859	10.25
623.275	10.24
623.691	10.23
624.108	10.21
624.524	10.2
624.94	10.19
625.356	10.18
625.772	10.15
626.188	10.14
626.604	10.12
627.02	10.11
627.436	10.1
627.852	10.09
628.268	10.07
628.683	10.06
629.099	10.06
629.514	10.04
629.93	10.03
630.345	10.02
630.761	9.98
631.176	9.96
631.591	9.94
632.007	9.9
632.422	9.87
632.837	9.83
633.252	9.77
633.667	9.72
634.082	9.66
634.497	9.6
634.911	9.54
635.326	9.49
635.741	9.42
636.155	9.36
636.57	9.29
636.984	9.22
637.399	9.14
637.813	9.07
638.228	8.98
638.642	8.9
639.056	8.81
639.47	8.72
639.884	8.63
640.298	8.53
640.712	8.44
641.126	8.34
641.54	8.24
641.954	8.15
642.368	8.06
642.781	7.96
643.195	7.87
643.609	7.79
644.022	7.71
644.436	7.63
644.849	7.55
645.262	7.47
645.676	7.4
646.089	7.33
646.502	7.27
646.915	7.21
647.328	7.16
647.741	7.11
648.154	7.06
648.567	7.01
648.98	6.96
649.393	6.93
649.805	6.9
650.218	6.86
650.631	6.83
651.043	6.78
651.456	6.75
651.868	6.7
652.28	6.66
652.693	6.61
653.105	6.57
653.517	6.53
653.929	6.49
654.341	6.43
654.753	6.39
655.165	6.33
655.577	6.29
655.989	6.23
656.401	6.17
656.813	6.12
657.224	6.06
657.636	6
658.047	5.93
658.459	5.86
658.87	5.79
659.282	5.71
659.693	5.65
660.104	5.57
660.515	5.5
660.926	5.43
661.338	5.36
661.749	5.3
662.159	5.23
662.57	5.18
662.981	5.12
663.392	5.06
663.803	5.01
664.213	4.94
664.624	4.89
665.035	4.84
665.445	4.81
665.855	4.77
666.266	4.73
666.676	4.7
667.086	4.66
667.497	4.64
667.907	4.62
668.317	4.6
668.727	4.58
669.137	4.56
669.547	4.54
669.956	4.53
670.366	4.52
670.776	4.51
671.186	4.5
671.595	4.49
672.005	4.49
672.414	4.48
672.824	4.48
673.233	4.5
673.642	4.52
674.052	4.52
674.461	4.53
674.87	4.54
675.279	4.55
675.688	4.57
676.097	4.6
676.506	4.61
676.915	4.64
677.323	4.67
677.732	4.7
678.141	4.72
678.549	4.76
678.958	4.8
679.366	4.85
679.775	4.9
680.183	4.95
680.592	5.02
681	5.09
681.408	5.17
681.816	5.26
682.224	5.35
682.632	5.45
683.04	5.55
683.448	5.67
683.856	5.79
684.264	5.94
684.671	6.1
685.079	6.26
685.487	6.46
685.894	6.67
686.302	6.9
686.709	7.14
687.116	7.41
687.524	7.71
687.931	8.02
688.338	8.34
688.745	8.68
689.152	9.04
689.559	9.42
689.966	9.8
690.373	10.19
690.78	10.58
691.187	10.99
691.593	11.42
692	11.85
692.407	12.27
692.813	12.7
693.22	13.14
693.626	13.56
694.032	13.99
694.439	14.43
694.845	14.88
695.251	15.31
695.657	15.73
696.063	16.15
696.469	16.56
696.875	16.99
697.281	17.39
697.687	17.79
698.093	18.2
698.498	18.58
698.904	18.97
699.31	19.34
699.715	19.73
700.12	20.09
700.526	20.47
700.931	20.82
701.337	21.17
701.742	21.52
702.147	21.85
702.552	22.19
702.957	22.5
703.362	22.83
703.767	23.12
704.172	23.42
704.577	23.73
704.981	24.02
705.386	24.3
705.791	24.58
706.195	24.87
706.6	25.14
707.004	25.4
707.408	25.69
707.813	25.96
708.217	26.21
708.621	26.47
709.025	26.71
709.43	26.93
709.834	27.18
710.237	27.42
710.641	27.65
711.045	27.88
711.449	28.11
711.853	28.33
712.256	28.52
712.66	28.73
713.064	28.92
713.467	29.11
713.87	29.3
714.274	29.48
714.677	29.63
715.08	29.77
715.484	29.94
715.887	30.12
716.29	30.27
716.693	30.44
717.096	30.63
717.499	30.83
717.901	31.03
718.304	31.21
718.707	31.38
719.109	31.55
719.512	31.74
719.915	31.91
720.317	32.06
720.719	32.18
721.122	32.32
721.524	32.43
721.926	32.54
722.328	32.65
722.731	32.76
723.133	32.9
723.535	33.03
723.937	33.12
724.338	33.23
724.74	33.34
725.142	33.54
725.544	33.62
725.945	33.75
726.347	33.82
726.748	33.9
727.15	33.99
727.551	34.08
727.952	34.15
728.354	34.26
728.755	34.34
729.156	34.39
729.557	34.38
729.958	34.47
730.359	34.52
730.76	34.62
731.161	34.68
731.562	34.76
731.962	34.77
732.363	34.86
732.763	34.91
733.164	34.98
733.564	35.05
733.965	35.12
734.365	35.17
734.766	35.19
735.166	35.24
735.566	35.28
735.966	35.31
736.366	35.38
736.766	35.4
737.166	35.44
737.566	35.47
737.966	35.5
738.365	35.52
738.765	35.55
739.165	35.61
739.564	35.65
739.964	35.67
740.363	35.69
740.763	35.71
741.162	35.72
741.561	35.72
741.96	35.73
742.36	35.74
742.759	35.76
743.158	35.78
743.557	35.78
743.955	35.8
744.354	35.82
744.753	35.84
745.152	35.87
745.55	35.89
745.949	35.9
746.348	35.94
746.746	35.96
747.144	35.96
747.543	35.97
747.941	35.98
748.339	35.99
748.737	36.02
749.136	36.03
749.534	36.03
749.932	36.03
750.33	36.06
750.727	36.06
751.125	36.04
751.523	36.06
751.921	36.07
752.318	36.07
752.716	36.06
753.113	36.06
753.511	36.07
753.908	36.08
754.305	36.08
754.703	36.03
755.1	35.99
755.497	35.91
755.894	35.81
756.291	35.69
756.688	35.55
757.085	35.45
757.482	35.34
757.878	35.23
758.275	35.12
758.672	35.03
759.068	34.97
759.465	34.91
759.861	34.89
760.258	34.9
760.654	34.94
761.05	35.01
761.447	35.06
761.843	35.1
762.239	35.15
762.635	35.21
763.031	35.27
763.427	35.31
763.822	35.39
764.218	35.46
764.614	35.55
765.01	35.59
765.405	35.63
765.801	35.66
766.196	35.71
766.592	35.74
766.987	35.76
767.382	35.78
767.778	35.8
768.173	35.82
768.568	35.83
768.963	35.82
769.358	35.85
769.753	35.86
770.148	35.86
770.542	35.86
770.937	35.88
771.332	35.9
771.726	35.9
772.121	35.89
772.515	35.85
772.91	35.84
773.304	35.85
773.699	35.82
774.093	35.82
774.487	35.81
774.881	35.83
775.275	35.79
775.669	35.74
776.063	35.75
776.457	35.75
776.851	35.75
777.245	35.74
777.638	35.73
778.032	35.75
778.425	35.78
778.819	35.78
779.212	35.77
779.606	35.79
779.999	35.81
780.392	35.81
780.786	35.81
781.179	35.84
781.572	35.85
781.965	35.86
782.358	35.84
782.751	35.81
783.143	35.81
783.536	35.8
