Data from C_3_DEC_NC_4N_Splice17_13-58-30-835.txt Node
Date: Sat Mar 07 13:58:30 EST 2020
User: sa697716
Spectrometer: NQ5500242
Trigger mode: 0
Integration Time (sec): 1.450000E-1
Scans to average: 20
Nonlinearity correction enabled: false
Boxcar width: 5
Storing dark spectrum: false
XAxis mode: Wavelengths
Number of Pixels in Spectrum: 512
>>>>>Begin Spectral Data<<<<<
187.83	138.52
188.298	171.31
188.766	166.21
189.233	136.07
189.701	127.68
190.169	146.83
190.636	162.27
191.104	213.04
191.571	204.3
192.039	207.72
192.506	180.25
192.974	138.02
193.441	412.86
193.908	209.82
194.375	105.19
194.842	75.92
195.31	118.91
195.777	261.94
196.244	44.18
196.711	43.2
197.177	43.64
197.644	42.6
198.111	41.36
198.578	41.54
199.045	42.54
199.511	42.96
199.978	42.37
200.445	42.3
200.911	42.47
201.378	42.49
201.844	42.57
202.31	42.34
202.777	42.47
203.243	42.72
203.709	42.58
204.176	42.14
204.642	41.81
205.108	41.94
205.574	41.86
206.04	41.43
206.506	41.2
206.972	40.62
207.438	40.19
207.903	39.69
208.369	38.86
208.835	37.91
209.301	37.17
209.766	36.21
210.232	35.07
210.697	33.84
211.163	33.03
211.628	32.35
212.094	31.56
212.559	30.93
213.024	30.16
213.49	29.46
213.955	28.75
214.42	27.95
214.885	27.12
215.35	26.15
215.815	25.04
216.28	23.35
216.745	21.6
217.21	19.87
217.675	18.16
218.14	16.66
218.604	15.4
219.069	14.31
219.534	13.42
219.998	12.69
220.463	12.11
220.927	11.56
221.392	11.17
221.856	10.81
222.32	10.51
222.785	10.27
223.249	10.04
223.713	9.83
224.177	9.69
224.642	9.53
225.106	9.34
225.57	9.16
226.034	9.02
226.497	8.86
226.961	8.72
227.425	8.59
227.889	8.47
228.353	8.35
228.816	8.23
229.28	8.1
229.744	7.98
230.207	7.89
230.671	7.78
231.134	7.66
231.597	7.58
232.061	7.48
232.524	7.38
232.987	7.28
233.45	7.22
233.914	7.14
234.377	7.06
234.84	6.99
235.303	6.92
235.766	6.86
236.229	6.8
236.691	6.73
237.154	6.67
237.617	6.61
238.08	6.55
238.542	6.47
239.005	6.42
239.468	6.36
239.93	6.3
240.393	6.25
240.855	6.19
241.317	6.12
241.78	6.07
242.242	6.01
242.704	5.97
243.166	5.92
243.629	5.87
244.091	5.81
244.553	5.76
245.015	5.7
245.477	5.64
245.939	5.6
246.4	5.56
246.862	5.51
247.324	5.47
247.786	5.42
248.247	5.36
248.709	5.31
249.17	5.26
249.632	5.24
250.093	5.19
250.555	5.17
251.016	5.13
251.477	5.09
251.939	5.06
252.4	5.02
252.861	4.99
253.322	4.97
253.783	4.95
254.244	4.93
254.705	4.88
255.166	4.86
255.627	4.83
256.088	4.81
256.549	4.79
257.009	4.76
257.47	4.73
257.931	4.7
258.391	4.66
258.852	4.63
259.312	4.59
259.773	4.57
260.233	4.54
260.694	4.51
261.154	4.48
261.614	4.44
262.074	4.41
262.534	4.39
262.994	4.37
263.455	4.35
263.915	4.33
264.374	4.3
264.834	4.28
265.294	4.26
265.754	4.24
266.214	4.23
266.673	4.22
267.133	4.21
267.593	4.2
268.052	4.19
268.512	4.18
268.971	4.17
269.431	4.16
269.89	4.15
270.349	4.14
270.809	4.13
271.268	4.12
271.727	4.11
272.186	4.09
272.645	4.07
273.104	4.06
273.563	4.05
274.022	4.04
274.481	4.02
274.94	4.02
275.399	4
275.857	3.99
276.316	3.98
276.775	3.98
277.233	3.97
277.692	3.96
278.15	3.96
278.609	3.95
279.067	3.94
279.525	3.94
279.984	3.92
280.442	3.91
280.9	3.91
281.358	3.9
281.816	3.89
282.274	3.89
282.732	3.88
283.19	3.87
283.648	3.85
284.106	3.85
284.564	3.84
285.021	3.84
285.479	3.83
285.937	3.82
286.394	3.81
286.852	3.8
287.309	3.79
287.767	3.77
288.224	3.76
288.682	3.75
289.139	3.74
289.596	3.73
290.053	3.71
290.511	3.69
290.968	3.67
291.425	3.65
291.882	3.64
292.339	3.63
292.796	3.62
293.252	3.6
293.709	3.59
294.166	3.58
294.623	3.57
295.079	3.56
295.536	3.56
295.992	3.55
296.449	3.55
296.905	3.54
297.362	3.53
297.818	3.52
298.274	3.52
298.731	3.51
299.187	3.49
299.643	3.48
300.099	3.48
300.555	3.47
301.011	3.46
301.467	3.45
301.923	3.45
302.379	3.44
302.835	3.44
303.291	3.43
303.746	3.43
304.202	3.43
304.658	3.42
305.113	3.42
305.569	3.42
306.024	3.42
306.479	3.4
306.935	3.39
307.39	3.39
307.845	3.39
308.301	3.39
308.756	3.39
309.211	3.39
309.666	3.4
310.121	3.39
310.576	3.39
311.031	3.39
311.486	3.4
311.94	3.41
312.395	3.4
312.85	3.4
313.305	3.39
313.759	3.39
314.214	3.38
314.668	3.37
315.123	3.37
315.577	3.36
316.032	3.35
316.486	3.34
316.94	3.33
317.394	3.32
317.849	3.31
318.303	3.3
318.757	3.3
319.211	3.29
319.665	3.28
320.119	3.27
320.572	3.26
321.026	3.25
321.48	3.25
321.934	3.23
322.387	3.22
322.841	3.21
323.295	3.21
323.748	3.21
324.202	3.21
324.655	3.2
325.108	3.2
325.562	3.21
326.015	3.2
326.468	3.21
326.921	3.21
327.374	3.21
327.827	3.21
328.28	3.2
328.733	3.2
329.186	3.19
329.639	3.19
330.092	3.18
330.545	3.18
330.997	3.18
331.45	3.18
331.903	3.19
332.355	3.2
332.808	3.19
333.26	3.19
333.713	3.19
334.165	3.18
334.617	3.19
335.069	3.18
335.522	3.18
335.974	3.18
336.426	3.16
336.878	3.15
337.33	3.15
337.782	3.15
338.234	3.16
338.686	3.15
339.137	3.17
339.589	3.16
340.041	3.16
340.493	3.15
340.944	3.14
341.396	3.14
341.847	3.14
342.299	3.11
342.75	3.1
343.201	3.07
343.653	3.07
344.104	3.05
344.555	3.04
345.006	3.03
345.457	3.02
345.908	3.01
346.359	3.01
346.81	3
347.261	3
347.712	3
348.163	2.99
348.613	2.99
349.064	3
349.515	2.99
349.965	2.98
350.416	2.97
350.866	2.97
351.317	2.96
351.767	2.96
352.217	2.96
352.668	2.96
353.118	2.96
353.568	2.95
354.018	2.94
354.468	2.95
354.918	2.96
355.368	2.96
355.818	2.96
356.268	2.97
356.718	2.97
357.168	2.97
357.617	2.97
358.067	2.97
358.517	2.99
358.966	2.99
359.416	2.99
359.865	2.99
360.315	3
360.764	2.99
361.213	2.99
361.663	2.98
362.112	2.99
362.561	3
363.01	3
363.459	2.98
363.908	2.98
364.357	2.98
364.806	2.98
365.255	2.98
365.703	2.99
366.152	3
366.601	3.01
367.05	3.01
367.498	3
367.947	3.02
368.395	3.03
368.844	3.04
369.292	3.04
369.74	3.05
370.189	3.05
370.637	3.05
371.085	3.05
371.533	3.05
371.981	3.06
372.429	3.07
372.877	3.07
373.325	3.07
373.773	3.08
374.221	3.08
374.669	3.08
375.116	3.09
375.564	3.1
376.012	3.12
376.459	3.12
376.907	3.13
377.354	3.14
377.801	3.16
378.249	3.17
378.696	3.18
379.143	3.2
379.591	3.22
380.038	3.23
380.485	3.25
380.932	3.28
381.379	3.31
381.826	3.32
382.273	3.34
382.72	3.34
383.166	3.36
383.613	3.38
384.06	3.39
384.506	3.4
384.953	3.42
385.4	3.43
385.846	3.45
386.292	3.46
386.739	3.47
387.185	3.49
387.631	3.51
388.078	3.53
388.524	3.54
388.97	3.57
389.416	3.6
389.862	3.63
390.308	3.65
390.754	3.67
391.2	3.7
391.645	3.72
392.091	3.76
392.537	3.79
392.983	3.81
393.428	3.83
393.874	3.84
394.319	3.86
394.765	3.87
395.21	3.88
395.655	3.9
396.101	3.92
396.546	3.93
396.991	3.95
397.436	3.96
397.881	3.99
398.326	4.01
398.771	4.04
399.216	4.06
399.661	4.07
400.106	4.09
400.551	4.09
400.995	4.1
401.44	4.1
401.885	4.1
402.329	4.12
402.774	4.12
403.218	4.13
403.663	4.13
404.107	4.14
404.551	4.15
404.995	4.15
405.44	4.15
405.884	4.15
406.328	4.18
406.772	4.18
407.216	4.17
407.66	4.17
408.104	4.17
408.547	4.17
408.991	4.16
409.435	4.16
409.879	4.16
410.322	4.18
410.766	4.19
411.209	4.2
411.653	4.22
412.096	4.23
412.54	4.24
412.983	4.24
413.426	4.27
413.869	4.29
414.312	4.31
414.756	4.33
415.199	4.33
415.642	4.33
416.085	4.33
416.527	4.31
416.97	4.29
417.413	4.28
417.856	4.29
418.298	4.27
418.741	4.26
419.184	4.25
419.626	4.24
420.069	4.25
420.511	4.24
420.953	4.24
421.396	4.25
421.838	4.26
422.28	4.26
422.722	4.27
423.164	4.27
423.606	4.26
424.048	4.27
424.49	4.28
424.932	4.28
425.374	4.27
425.816	4.25
426.258	4.25
426.699	4.24
427.141	4.24
427.582	4.24
428.024	4.24
428.465	4.24
428.907	4.23
429.348	4.21
429.789	4.21
430.231	4.21
430.672	4.24
431.113	4.25
431.554	4.26
431.995	4.26
432.436	4.27
432.877	4.27
433.318	4.28
433.759	4.29
434.2	4.32
434.64	4.33
435.081	4.35
435.522	4.36
435.962	4.38
436.403	4.39
436.843	4.41
437.284	4.4
437.724	4.42
438.164	4.41
438.604	4.42
439.045	4.43
439.485	4.44
439.925	4.43
440.365	4.42
440.805	4.42
441.245	4.42
441.685	4.44
442.125	4.46
442.564	4.47
443.004	4.49
443.444	4.51
443.883	4.52
444.323	4.52
444.762	4.54
445.202	4.56
445.641	4.58
446.081	4.61
446.52	4.62
446.959	4.65
447.398	4.68
447.837	4.69
448.276	4.69
448.716	4.71
449.154	4.74
449.593	4.76
450.032	4.76
450.471	4.76
450.91	4.75
451.349	4.76
451.787	4.74
452.226	4.73
452.664	4.73
453.103	4.73
453.541	4.74
453.98	4.74
454.418	4.72
454.856	4.72
455.295	4.7
455.733	4.68
456.171	4.67
456.609	4.67
457.047	4.66
457.485	4.65
457.923	4.65
458.361	4.62
458.798	4.61
459.236	4.6
459.674	4.59
460.111	4.6
460.549	4.62
460.987	4.62
461.424	4.63
461.862	4.64
462.299	4.64
462.736	4.64
463.173	4.64
463.611	4.65
464.048	4.66
464.485	4.67
464.922	4.66
465.359	4.66
465.796	4.67
466.233	4.67
466.67	4.67
467.106	4.68
467.543	4.67
467.98	4.67
468.416	4.66
468.853	4.66
469.29	4.66
469.726	4.67
470.162	4.67
470.599	4.66
471.035	4.66
471.471	4.64
471.907	4.63
472.344	4.63
472.78	4.64
473.216	4.64
473.652	4.65
474.088	4.64
474.523	4.63
474.959	4.61
475.395	4.61
475.831	4.6
476.266	4.61
476.702	4.6
477.138	4.6
477.573	4.6
478.008	4.6
478.444	4.58
478.879	4.59
479.314	4.6
479.75	4.6
480.185	4.59
480.62	4.58
481.055	4.57
481.49	4.58
481.925	4.57
482.36	4.57
482.795	4.57
483.229	4.57
483.664	4.57
484.099	4.57
484.534	4.58
484.968	4.59
485.403	4.59
485.837	4.61
486.271	4.63
486.706	4.65
487.14	4.66
487.574	4.68
488.009	4.7
488.443	4.72
488.877	4.75
489.311	4.78
489.745	4.81
490.179	4.85
490.613	4.88
491.046	4.91
491.48	4.95
491.914	5
492.348	5.05
492.781	5.11
493.215	5.16
493.648	5.21
494.082	5.27
494.515	5.32
494.948	5.38
495.382	5.44
495.815	5.51
496.248	5.59
496.681	5.66
497.114	5.73
497.547	5.81
497.98	5.89
498.413	5.98
498.846	6.07
499.279	6.16
499.711	6.26
500.144	6.37
500.577	6.48
501.009	6.59
501.442	6.7
501.874	6.83
502.306	6.95
502.739	7.09
503.171	7.24
503.603	7.38
504.036	7.53
504.468	7.68
504.9	7.84
505.332	7.99
505.764	8.15
506.196	8.33
506.627	8.5
507.059	8.69
507.491	8.86
507.923	9.04
508.354	9.26
508.786	9.46
509.217	9.68
509.649	9.89
510.08	10.12
510.512	10.35
510.943	10.57
511.374	10.8
511.805	11.04
512.237	11.29
512.668	11.54
513.099	11.77
513.53	12.02
513.961	12.28
514.391	12.54
514.822	12.81
515.253	13.08
515.684	13.34
516.114	13.6
516.545	13.87
516.975	14.15
517.406	14.41
517.836	14.68
518.267	14.95
518.697	15.2
519.127	15.45
519.558	15.71
519.988	15.95
520.418	16.19
520.848	16.44
521.278	16.68
521.708	17.08
522.138	17.32
522.567	17.55
522.997	17.77
523.427	17.98
523.857	18.18
524.286	18.38
524.716	18.59
525.145	18.78
525.575	18.96
526.004	19.15
526.433	19.15
526.863	19.31
527.292	19.48
527.721	19.63
528.15	19.78
528.579	19.93
529.008	20.06
529.437	20.18
529.866	20.3
530.295	20.43
530.724	20.54
531.152	20.65
531.581	20.75
532.01	20.84
532.438	20.94
532.867	21.03
533.295	21.11
533.723	21.2
534.152	21.28
534.58	21.34
535.008	21.38
535.436	21.44
535.865	21.48
536.293	21.53
536.721	21.57
537.149	21.61
537.576	21.65
538.004	21.69
538.432	21.72
538.86	21.73
539.287	21.76
539.715	21.8
540.143	21.82
540.57	21.85
540.998	21.87
541.425	21.9
541.852	21.92
542.28	21.95
542.707	21.96
543.134	21.96
543.561	22
543.988	22.02
544.415	22.03
544.842	22.04
545.269	22.07
545.696	22.1
546.123	22.11
546.549	22.12
546.976	22.14
547.403	22.16
547.829	22.18
548.256	22.2
548.682	22.21
549.108	22.25
549.535	22.28
549.961	22.29
550.387	22.3
550.813	22.32
551.24	22.32
551.666	22.31
552.092	22.32
552.518	22.31
552.943	22.31
553.369	22.3
553.795	22.27
554.221	22.24
554.646	22.2
555.072	22.17
555.498	22.13
555.923	22.08
556.349	22.04
556.774	21.98
557.199	21.95
557.625	21.89
558.05	21.82
558.475	21.76
558.9	21.69
559.325	21.64
559.75	21.56
560.175	21.49
560.6	21.4
561.025	21.33
561.449	21.24
561.874	21.13
562.299	21.03
562.723	20.93
563.148	20.83
563.572	20.7
563.997	20.58
564.421	20.46
564.846	20.33
565.27	20.2
565.694	20.07
566.118	19.93
566.542	19.8
566.966	19.66
567.39	19.52
567.814	19.39
568.238	19.25
568.662	19.13
569.086	18.99
569.509	18.86
569.933	18.73
570.357	18.6
570.78	18.47
571.204	18.34
571.627	18.24
572.05	18.11
572.474	18.01
572.897	17.91
573.32	17.79
573.743	17.68
574.166	17.58
574.589	17.47
575.012	17.38
575.435	17.29
575.858	17.19
576.281	17.09
576.704	17
577.126	16.89
577.549	16.8
577.972	16.71
578.394	16.62
578.817	16.54
579.239	16.46
579.661	16.38
580.084	16.3
580.506	16.23
580.928	16.15
581.35	16.07
581.772	16
582.194	15.93
582.616	15.86
583.038	15.79
583.46	15.71
583.882	15.63
584.303	15.57
584.725	15.5
585.147	15.45
585.568	15.38
585.99	15.32
586.411	15.26
586.833	15.19
587.254	15.15
587.675	15.11
588.096	15.07
588.518	15.01
588.939	14.96
589.36	14.92
589.781	14.86
590.202	14.83
590.623	14.8
591.043	14.76
591.464	14.73
591.885	14.68
592.305	14.63
592.726	14.61
593.147	14.58
593.567	14.55
593.987	14.51
594.408	14.48
594.828	14.43
595.248	14.39
595.669	14.37
596.089	14.33
596.509	14.29
596.929	14.27
597.349	14.22
597.769	14.18
598.189	14.13
598.608	14.1
599.028	14.07
599.448	14.04
599.867	14
600.287	13.96
600.706	13.92
601.126	13.88
601.545	13.84
601.965	13.81
602.384	13.77
602.803	13.74
603.222	13.68
603.641	13.63
604.061	13.59
604.48	13.53
604.898	13.48
605.317	13.43
605.736	13.37
606.155	13.32
606.574	13.25
606.992	13.18
607.411	13.12
607.829	13.04
608.248	12.98
608.666	12.91
609.085	12.85
609.503	12.79
609.921	12.72
610.339	12.65
610.758	12.57
611.176	12.5
611.594	12.44
612.012	12.37
612.43	12.32
612.847	12.24
613.265	12.18
613.683	12.13
614.101	12.07
614.518	12
614.936	11.93
615.353	11.87
615.771	11.82
616.188	11.75
616.606	11.7
617.023	11.64
617.44	11.6
617.857	11.54
618.274	11.48
618.691	11.43
619.108	11.39
619.525	11.35
619.942	11.33
620.359	11.29
620.776	11.26
621.192	11.23
621.609	11.2
622.026	11.16
622.442	11.15
622.859	11.13
623.275	11.11
623.691	11.1
624.108	11.07
624.524	11.05
624.94	11.03
625.356	11.01
625.772	11
626.188	10.99
626.604	10.98
627.02	10.95
627.436	10.94
627.852	10.92
628.268	10.9
628.683	10.89
629.099	10.87
629.514	10.86
629.93	10.83
630.345	10.81
630.761	10.77
631.176	10.74
631.591	10.7
632.007	10.66
632.422	10.61
632.837	10.56
633.252	10.49
633.667	10.43
634.082	10.36
634.497	10.29
634.911	10.2
635.326	10.13
635.741	10.04
636.155	9.94
636.57	9.83
636.984	9.74
637.399	9.64
637.813	9.53
638.228	9.41
638.642	9.29
639.056	9.16
639.47	9.05
639.884	8.93
640.298	8.81
640.712	8.69
641.126	8.58
641.54	8.46
641.954	8.33
642.368	8.23
642.781	8.13
643.195	8.02
643.609	7.94
644.022	7.83
644.436	7.73
644.849	7.64
645.262	7.54
645.676	7.45
646.089	7.37
646.502	7.3
646.915	7.23
647.328	7.17
647.741	7.1
648.154	7.04
648.567	6.99
648.98	6.95
649.393	6.91
649.805	6.88
650.218	6.85
650.631	6.83
651.043	6.8
651.456	6.76
651.868	6.72
652.28	6.7
652.693	6.67
653.105	6.65
653.517	6.6
653.929	6.56
654.341	6.52
654.753	6.47
655.165	6.4
655.577	6.35
655.989	6.29
656.401	6.24
656.813	6.18
657.224	6.12
657.636	6.03
658.047	5.98
658.459	5.91
658.87	5.84
659.282	5.75
659.693	5.69
660.104	5.61
660.515	5.54
660.926	5.47
661.338	5.39
661.749	5.32
662.159	5.26
662.57	5.19
662.981	5.13
663.392	5.07
663.803	5.02
664.213	4.96
664.624	4.91
665.035	4.86
665.445	4.82
665.855	4.78
666.266	4.76
666.676	4.73
667.086	4.7
667.497	4.67
667.907	4.65
668.317	4.63
668.727	4.62
669.137	4.62
669.547	4.61
669.956	4.6
670.366	4.59
670.776	4.59
671.186	4.59
671.595	4.59
672.005	4.6
672.414	4.6
672.824	4.61
673.233	4.62
673.642	4.63
674.052	4.65
674.461	4.67
674.87	4.69
675.279	4.71
675.688	4.74
676.097	4.78
676.506	4.81
676.915	4.85
677.323	4.89
677.732	4.92
678.141	4.97
678.549	5
678.958	5.06
679.366	5.12
679.775	5.17
680.183	5.24
680.592	5.3
681	5.39
681.408	5.48
681.816	5.58
682.224	5.7
682.632	5.82
683.04	5.96
683.448	6.1
683.856	6.25
684.264	6.42
684.671	6.61
685.079	6.82
685.487	7.04
685.894	7.29
686.302	7.54
686.709	7.83
687.116	8.14
687.524	8.47
687.931	8.83
688.338	9.21
688.745	9.59
689.152	10
689.559	10.43
689.966	10.87
690.373	11.35
690.78	11.84
691.187	12.32
691.593	12.82
692	13.33
692.407	13.84
692.813	14.37
693.22	14.9
693.626	15.42
694.032	15.96
694.439	16.48
694.845	16.99
695.251	17.51
695.657	18.03
696.063	18.55
696.469	19.08
696.875	19.59
697.281	20.1
697.687	20.6
698.093	21.11
698.498	21.58
698.904	22.07
699.31	22.55
699.715	23.01
700.12	23.48
700.526	23.92
700.931	24.35
701.337	24.78
701.742	25.2
702.147	25.6
702.552	26
702.957	26.39
703.362	26.77
703.767	27.11
704.172	27.47
704.577	27.81
704.981	28.17
705.386	28.52
705.791	28.87
706.195	29.2
706.6	29.55
707.004	29.87
707.408	30.19
707.813	30.53
708.217	30.87
708.621	31.19
709.025	31.48
709.43	31.74
709.834	32.03
710.237	32.29
710.641	32.55
711.045	32.8
711.449	33.06
711.853	33.32
712.256	33.55
712.66	33.78
713.064	34.01
713.467	34.25
713.87	34.5
714.274	34.69
714.677	34.93
715.08	35.14
715.484	35.38
715.887	35.61
716.29	35.8
716.693	36
717.096	36.21
717.499	36.41
717.901	36.6
718.304	36.8
718.707	37.01
719.109	37.19
719.512	37.37
719.915	37.53
720.317	37.66
720.719	37.79
721.122	37.95
721.524	38.07
721.926	38.22
722.328	38.38
722.731	38.5
723.133	38.65
723.535	38.76
723.937	38.89
724.338	39.01
724.74	39.15
725.142	39.37
725.544	39.47
725.945	39.62
726.347	39.69
726.748	39.77
727.15	39.84
727.551	39.93
727.952	40
728.354	40.1
728.755	40.17
729.156	40.23
729.557	40.2
729.958	40.3
730.359	40.37
730.76	40.45
731.161	40.52
731.562	40.62
731.962	40.66
732.363	40.74
732.763	40.78
733.164	40.83
733.564	40.9
733.965	40.97
734.365	41.02
734.766	41.06
735.166	41.12
735.566	41.16
735.966	41.2
736.366	41.25
736.766	41.3
737.166	41.35
737.566	41.41
737.966	41.45
738.365	41.49
738.765	41.54
739.165	41.57
739.564	41.59
739.964	41.61
740.363	41.62
740.763	41.65
741.162	41.66
741.561	41.65
741.96	41.64
742.36	41.66
742.759	41.66
743.158	41.64
743.557	41.65
743.955	41.64
744.354	41.68
744.753	41.72
745.152	41.75
745.55	41.77
745.949	41.81
746.348	41.86
746.746	41.84
747.144	41.88
747.543	41.91
747.941	41.93
748.339	41.95
748.737	41.96
749.136	41.98
749.534	41.98
749.932	41.98
750.33	41.97
750.727	41.99
751.125	42
751.523	42
751.921	42.01
752.318	42.04
752.716	42.03
753.113	42.06
753.511	42.05
753.908	42.06
754.305	42.09
754.703	42.08
755.1	42.05
755.497	42.06
755.894	42.01
756.291	42.01
756.688	41.96
757.085	41.97
757.482	41.91
757.878	41.93
758.275	41.9
758.672	41.86
759.068	41.88
759.465	41.85
759.861	41.84
760.258	41.88
760.654	41.89
761.05	41.9
761.447	41.91
761.843	41.88
762.239	41.87
762.635	41.88
763.031	41.89
763.427	41.87
763.822	41.91
764.218	41.94
764.614	41.94
765.01	41.92
765.405	41.91
765.801	41.92
766.196	41.97
766.592	41.97
766.987	41.96
767.382	41.98
767.778	41.99
768.173	41.99
768.568	41.95
768.963	41.96
769.358	41.98
769.753	41.99
770.148	41.97
770.542	41.96
770.937	41.97
771.332	41.98
771.726	41.97
772.121	41.97
772.515	41.96
772.91	41.97
773.304	41.99
773.699	41.97
774.093	41.99
774.487	42
774.881	42.02
775.275	42.03
775.669	42.02
776.063	42.01
776.457	42.03
776.851	42.03
777.245	42.02
777.638	42
778.032	42.02
778.425	42.05
778.819	42.05
779.212	42.07
779.606	42.06
779.999	42.08
780.392	42.1
780.786	42.09
781.179	42.11
781.572	42.15
781.965	42.16
782.358	42.16
782.751	42.13
783.143	42.13
783.536	42.12
783.929	42.13
