Data from C_3_DIV_IL_4N_Splice17_14-15-02-016.txt Node
Date: Sat Mar 07 14:15:02 EST 2020
User: sa697716
Spectrometer: NQ5500242
Trigger mode: 0
Integration Time (sec): 1.450000E-1
Scans to average: 20
Nonlinearity correction enabled: false
Boxcar width: 5
Storing dark spectrum: false
XAxis mode: Wavelengths
Number of Pixels in Spectrum: 512
>>>>>Begin Spectral Data<<<<<
187.83	145.53
188.298	158.76
188.766	118.54
189.233	103.12
189.701	103
190.169	138.78
190.636	154.95
191.104	136.99
191.571	114.31
192.039	-10.24
192.506	-50.12
192.974	288.89
193.441	383.11
193.908	69.76
194.375	41.87
194.842	-6.21
195.31	58.72
195.777	78.09
196.244	48.02
196.711	60.45
197.177	63.93
197.644	64.02
198.111	62.85
198.578	63.25
199.045	63.87
199.511	64.08
199.978	64.29
200.445	64.59
200.911	64.3
201.378	64.2
201.844	64.38
202.31	63.66
202.777	63.76
203.243	63.77
203.709	63.65
204.176	63.35
204.642	63.1
205.108	62.84
205.574	62.47
206.04	61.84
206.506	61.66
206.972	61.07
207.438	60.44
207.903	59.73
208.369	58.59
208.835	57.39
209.301	56.18
209.766	54.54
210.232	53.16
210.697	51.46
211.163	50.53
211.628	49.28
212.094	47.94
212.559	46.88
213.024	45.57
213.49	44.67
213.955	43.68
214.42	42.9
214.885	41.88
215.35	40.47
215.815	38.66
216.28	36.35
216.745	33.82
217.21	31.34
217.675	28.98
218.14	26.94
218.604	25.11
219.069	23.59
219.534	22.21
219.998	21.13
220.463	20.19
220.927	19.39
221.392	18.75
221.856	18.25
222.32	17.82
222.785	17.41
223.249	17.05
223.713	16.72
224.177	16.4
224.642	16.12
225.106	15.81
225.57	15.54
226.034	15.32
226.497	15.06
226.961	14.81
227.425	14.56
227.889	14.34
228.353	14.11
228.816	13.9
229.28	13.7
229.744	13.52
230.207	13.34
230.671	13.15
231.134	12.97
231.597	12.83
232.061	12.67
232.524	12.52
232.987	12.39
233.45	12.28
233.914	12.13
234.377	12
234.84	11.86
235.303	11.75
235.766	11.65
236.229	11.54
236.691	11.43
237.154	11.34
237.617	11.24
238.08	11.13
238.542	11.02
239.005	10.94
239.468	10.84
239.93	10.76
240.393	10.67
240.855	10.57
241.317	10.49
241.78	10.4
242.242	10.31
242.704	10.23
243.166	10.15
243.629	10.07
244.091	9.97
244.553	9.88
245.015	9.8
245.477	9.73
245.939	9.65
246.4	9.56
246.862	9.48
247.324	9.4
247.786	9.32
248.247	9.24
248.709	9.17
249.17	9.1
249.632	9.05
250.093	8.99
250.555	8.92
251.016	8.87
251.477	8.81
251.939	8.76
252.4	8.72
252.861	8.67
253.322	8.62
253.783	8.57
254.244	8.53
254.705	8.46
255.166	8.42
255.627	8.38
256.088	8.32
256.549	8.29
257.009	8.23
257.47	8.18
257.931	8.12
258.391	8.07
258.852	8.02
259.312	7.98
259.773	7.93
260.233	7.89
260.694	7.83
261.154	7.79
261.614	7.75
262.074	7.71
262.534	7.67
262.994	7.64
263.455	7.61
263.915	7.57
264.374	7.54
264.834	7.51
265.294	7.48
265.754	7.46
266.214	7.43
266.673	7.4
267.133	7.39
267.593	7.37
268.052	7.35
268.512	7.33
268.971	7.32
269.431	7.31
269.89	7.29
270.349	7.28
270.809	7.26
271.268	7.24
271.727	7.22
272.186	7.2
272.645	7.19
273.104	7.17
273.563	7.15
274.022	7.13
274.481	7.1
274.94	7.09
275.399	7.07
275.857	7.05
276.316	7.04
276.775	7.02
277.233	7
277.692	6.99
278.15	6.97
278.609	6.95
279.067	6.93
279.525	6.92
279.984	6.89
280.442	6.88
280.9	6.86
281.358	6.85
281.816	6.84
282.274	6.82
282.732	6.8
283.19	6.79
283.648	6.76
284.106	6.74
284.564	6.73
285.021	6.73
285.479	6.71
285.937	6.7
286.394	6.69
286.852	6.68
287.309	6.67
287.767	6.66
288.224	6.65
288.682	6.65
289.139	6.63
289.596	6.61
290.053	6.58
290.511	6.55
290.968	6.53
291.425	6.51
291.882	6.48
292.339	6.46
292.796	6.43
293.252	6.41
293.709	6.38
294.166	6.36
294.623	6.34
295.079	6.32
295.536	6.3
295.992	6.28
296.449	6.26
296.905	6.24
297.362	6.22
297.818	6.2
298.274	6.19
298.731	6.18
299.187	6.16
299.643	6.15
300.099	6.13
300.555	6.12
301.011	6.11
301.467	6.09
301.923	6.08
302.379	6.07
302.835	6.06
303.291	6.04
303.746	6.03
304.202	6.02
304.658	6.01
305.113	6
305.569	5.99
306.024	5.98
306.479	5.96
306.935	5.96
307.39	5.95
307.845	5.94
308.301	5.93
308.756	5.92
309.211	5.91
309.666	5.91
310.121	5.91
310.576	5.91
311.031	5.91
311.486	5.9
311.94	5.9
312.395	5.9
312.85	5.9
313.305	5.9
313.759	5.89
314.214	5.89
314.668	5.88
315.123	5.87
315.577	5.86
316.032	5.85
316.486	5.84
316.94	5.83
317.394	5.81
317.849	5.79
318.303	5.77
318.757	5.74
319.211	5.73
319.665	5.72
320.119	5.7
320.572	5.68
321.026	5.67
321.48	5.65
321.934	5.63
322.387	5.62
322.841	5.61
323.295	5.6
323.748	5.6
324.202	5.58
324.655	5.57
325.108	5.55
325.562	5.55
326.015	5.53
326.468	5.52
326.921	5.51
327.374	5.49
327.827	5.48
328.28	5.47
328.733	5.46
329.186	5.45
329.639	5.45
330.092	5.45
330.545	5.44
330.997	5.45
331.45	5.46
331.903	5.46
332.355	5.47
332.808	5.47
333.26	5.47
333.713	5.46
334.165	5.46
334.617	5.47
335.069	5.46
335.522	5.46
335.974	5.46
336.426	5.44
336.878	5.43
337.33	5.42
337.782	5.42
338.234	5.41
338.686	5.41
339.137	5.42
339.589	5.41
340.041	5.4
340.493	5.39
340.944	5.38
341.396	5.37
341.847	5.36
342.299	5.34
342.75	5.32
343.201	5.31
343.653	5.3
344.104	5.27
344.555	5.26
345.006	5.24
345.457	5.22
345.908	5.21
346.359	5.21
346.81	5.19
347.261	5.19
347.712	5.18
348.163	5.17
348.613	5.16
349.064	5.15
349.515	5.14
349.965	5.14
350.416	5.12
350.866	5.11
351.317	5.09
351.767	5.09
352.217	5.08
352.668	5.08
353.118	5.07
353.568	5.06
354.018	5.06
354.468	5.07
354.918	5.07
355.368	5.09
355.818	5.09
356.268	5.09
356.718	5.08
357.168	5.08
357.617	5.08
358.067	5.08
358.517	5.1
358.966	5.1
359.416	5.1
359.865	5.09
360.315	5.09
360.764	5.09
361.213	5.1
361.663	5.1
362.112	5.11
362.561	5.12
363.01	5.12
363.459	5.1
363.908	5.09
364.357	5.09
364.806	5.09
365.255	5.1
365.703	5.11
366.152	5.11
366.601	5.12
367.05	5.12
367.498	5.11
367.947	5.12
368.395	5.14
368.844	5.15
369.292	5.16
369.74	5.17
370.189	5.18
370.637	5.18
371.085	5.18
371.533	5.19
371.981	5.2
372.429	5.22
372.877	5.23
373.325	5.24
373.773	5.25
374.221	5.26
374.669	5.27
375.116	5.27
375.564	5.28
376.012	5.3
376.459	5.32
376.907	5.35
377.354	5.37
377.801	5.39
378.249	5.42
378.696	5.44
379.143	5.45
379.591	5.46
380.038	5.49
380.485	5.52
380.932	5.55
381.379	5.57
381.826	5.58
382.273	5.61
382.72	5.63
383.166	5.65
383.613	5.68
384.06	5.71
384.506	5.74
384.953	5.77
385.4	5.79
385.846	5.82
386.292	5.85
386.739	5.87
387.185	5.9
387.631	5.93
388.078	5.95
388.524	5.98
388.97	6.01
389.416	6.04
389.862	6.07
390.308	6.12
390.754	6.15
391.2	6.19
391.645	6.22
392.091	6.26
392.537	6.3
392.983	6.34
393.428	6.38
393.874	6.41
394.319	6.45
394.765	6.48
395.21	6.5
395.655	6.54
396.101	6.58
396.546	6.61
396.991	6.65
397.436	6.67
397.881	6.71
398.326	6.75
398.771	6.79
399.216	6.83
399.661	6.88
400.106	6.91
400.551	6.93
400.995	6.94
401.44	6.97
401.885	6.98
402.329	7
402.774	7.02
403.218	7.05
403.663	7.08
404.107	7.1
404.551	7.12
404.995	7.14
405.44	7.16
405.884	7.18
406.328	7.21
406.772	7.22
407.216	7.24
407.66	7.26
408.104	7.26
408.547	7.27
408.991	7.29
409.435	7.31
409.879	7.33
410.322	7.34
410.766	7.36
411.209	7.4
411.653	7.42
412.096	7.45
412.54	7.47
412.983	7.5
413.426	7.52
413.869	7.54
414.312	7.57
414.756	7.59
415.199	7.62
415.642	7.64
416.085	7.65
416.527	7.65
416.97	7.64
417.413	7.63
417.856	7.63
418.298	7.61
418.741	7.61
419.184	7.61
419.626	7.6
420.069	7.62
420.511	7.61
420.953	7.6
421.396	7.62
421.838	7.63
422.28	7.65
422.722	7.68
423.164	7.7
423.606	7.71
424.048	7.72
424.49	7.74
424.932	7.75
425.374	7.73
425.816	7.71
426.258	7.7
426.699	7.68
427.141	7.66
427.582	7.64
428.024	7.65
428.465	7.64
428.907	7.63
429.348	7.62
429.789	7.6
430.231	7.6
430.672	7.62
431.113	7.64
431.554	7.65
431.995	7.66
432.436	7.66
432.877	7.65
433.318	7.66
433.759	7.66
434.2	7.67
434.64	7.68
435.081	7.68
435.522	7.69
435.962	7.7
436.403	7.72
436.843	7.75
437.284	7.75
437.724	7.76
438.164	7.76
438.604	7.77
439.045	7.78
439.485	7.78
439.925	7.79
440.365	7.78
440.805	7.79
441.245	7.79
441.685	7.8
442.125	7.82
442.564	7.82
443.004	7.83
443.444	7.83
443.883	7.84
444.323	7.85
444.762	7.88
445.202	7.91
445.641	7.92
446.081	7.94
446.52	7.95
446.959	7.97
447.398	8
447.837	8.01
448.276	8.03
448.716	8.05
449.154	8.09
449.593	8.1
450.032	8.1
450.471	8.1
450.91	8.1
451.349	8.09
451.787	8.09
452.226	8.08
452.664	8.07
453.103	8.06
453.541	8.04
453.98	8.02
454.418	7.99
454.856	7.97
455.295	7.96
455.733	7.92
456.171	7.91
456.609	7.9
457.047	7.86
457.485	7.83
457.923	7.82
458.361	7.79
458.798	7.79
459.236	7.79
459.674	7.78
460.111	7.77
460.549	7.78
460.987	7.78
461.424	7.77
461.862	7.78
462.299	7.8
462.736	7.78
463.173	7.78
463.611	7.75
464.048	7.75
464.485	7.75
464.922	7.74
465.359	7.74
465.796	7.74
466.233	7.73
466.67	7.73
467.106	7.75
467.543	7.76
467.98	7.77
468.416	7.78
468.853	7.79
469.29	7.79
469.726	7.8
470.162	7.81
470.599	7.83
471.035	7.83
471.471	7.84
471.907	7.82
472.344	7.82
472.78	7.82
473.216	7.82
473.652	7.82
474.088	7.81
474.523	7.81
474.959	7.81
475.395	7.78
475.831	7.78
476.266	7.78
476.702	7.77
477.138	7.79
477.573	7.79
478.008	7.79
478.444	7.78
478.879	7.79
479.314	7.78
479.75	7.77
480.185	7.77
480.62	7.77
481.055	7.75
481.49	7.73
481.925	7.72
482.36	7.7
482.795	7.68
483.229	7.68
483.664	7.67
484.099	7.66
484.534	7.65
484.968	7.65
485.403	7.65
485.837	7.65
486.271	7.66
486.706	7.66
487.14	7.66
487.574	7.66
488.009	7.67
488.443	7.67
488.877	7.68
489.311	7.7
489.745	7.71
490.179	7.74
490.613	7.76
491.046	7.79
491.48	7.82
491.914	7.86
492.348	7.89
492.781	7.93
493.215	7.97
493.648	8.02
494.082	8.04
494.515	8.08
494.948	8.12
495.382	8.16
495.815	8.21
496.248	8.25
496.681	8.3
497.114	8.36
497.547	8.41
497.98	8.47
498.413	8.52
498.846	8.6
499.279	8.67
499.711	8.74
500.144	8.82
500.577	8.89
501.009	8.96
501.442	9.05
501.874	9.14
502.306	9.23
502.739	9.33
503.171	9.44
503.603	9.54
504.036	9.65
504.468	9.76
504.9	9.87
505.332	9.99
505.764	10.13
506.196	10.26
506.627	10.4
507.059	10.55
507.491	10.7
507.923	10.85
508.354	11.01
508.786	11.17
509.217	11.34
509.649	11.51
510.08	11.69
510.512	11.86
510.943	12.03
511.374	12.21
511.805	12.4
512.237	12.58
512.668	12.78
513.099	12.97
513.53	13.17
513.961	13.36
514.391	13.58
514.822	13.79
515.253	14.01
515.684	14.24
516.114	14.47
516.545	14.67
516.975	14.9
517.406	15.11
517.836	15.34
518.267	15.58
518.697	15.8
519.127	16.01
519.558	16.23
519.988	16.44
520.418	16.65
520.848	16.85
521.278	17.06
521.708	17.28
522.138	17.48
522.567	17.67
522.997	17.87
523.427	18.05
523.857	18.23
524.286	18.4
524.716	18.59
525.145	18.76
525.575	18.93
526.004	19.1
526.433	19.24
526.863	19.38
527.292	19.53
527.721	19.66
528.15	19.8
528.579	19.93
529.008	20.06
529.437	20.17
529.866	20.28
530.295	20.4
530.724	20.51
531.152	20.6
531.581	20.7
532.01	20.79
532.438	20.87
532.867	20.96
533.295	21.03
533.723	21.1
534.152	21.17
534.58	21.23
535.008	21.25
535.436	21.29
535.865	21.34
536.293	21.39
536.721	21.43
537.149	21.47
537.576	21.49
538.004	21.53
538.432	21.57
538.86	21.6
539.287	21.62
539.715	21.67
540.143	21.71
540.57	21.73
540.998	21.74
541.425	21.76
541.852	21.78
542.28	21.81
542.707	21.83
543.134	21.85
543.561	21.88
543.988	21.92
544.415	21.93
544.842	21.94
545.269	21.98
545.696	22.01
546.123	22.03
546.549	22.06
546.976	22.09
547.403	22.11
547.829	22.13
548.256	22.14
548.682	22.15
549.108	22.18
549.535	22.21
549.961	22.23
550.387	22.23
550.813	22.24
551.24	22.24
551.666	22.23
552.092	22.24
552.518	22.23
552.943	22.22
553.369	22.21
553.795	22.2
554.221	22.18
554.646	22.15
555.072	22.11
555.498	22.09
555.923	22.06
556.349	22.02
556.774	21.98
557.199	21.94
557.625	21.92
558.05	21.88
558.475	21.82
558.9	21.76
559.325	21.7
559.75	21.66
560.175	21.59
560.6	21.51
561.025	21.45
561.449	21.37
561.874	21.28
562.299	21.18
562.723	21.09
563.148	20.99
563.572	20.89
563.997	20.79
564.421	20.67
564.846	20.57
565.27	20.46
565.694	20.34
566.118	20.21
566.542	20.1
566.966	19.98
567.39	19.85
567.814	19.73
568.238	19.59
568.662	19.46
569.086	19.34
569.509	19.22
569.933	19.1
570.357	18.98
570.78	18.87
571.204	18.75
571.627	18.63
572.05	18.52
572.474	18.43
572.897	18.33
573.32	18.24
573.743	18.14
574.166	18.05
574.589	17.95
575.012	17.87
575.435	17.79
575.858	17.69
576.281	17.61
576.704	17.52
577.126	17.45
577.549	17.37
577.972	17.3
578.394	17.22
578.817	17.15
579.239	17.08
579.661	17.01
580.084	16.95
580.506	16.91
580.928	16.85
581.35	16.8
581.772	16.74
582.194	16.69
582.616	16.64
583.038	16.59
583.46	16.53
583.882	16.5
584.303	16.43
584.725	16.38
585.147	16.32
585.568	16.29
585.99	16.23
586.411	16.19
586.833	16.12
587.254	16.08
587.675	16.03
588.096	16
588.518	15.95
588.939	15.91
589.36	15.87
589.781	15.85
590.202	15.81
590.623	15.79
591.043	15.75
591.464	15.74
591.885	15.72
592.305	15.7
592.726	15.68
593.147	15.65
593.567	15.62
593.987	15.58
594.408	15.56
594.828	15.53
595.248	15.5
595.669	15.47
596.089	15.44
596.509	15.42
596.929	15.39
597.349	15.36
597.769	15.34
598.189	15.32
598.608	15.32
599.028	15.29
599.448	15.27
599.867	15.23
600.287	15.21
600.706	15.18
601.126	15.14
601.545	15.11
601.965	15.07
602.384	15.03
602.803	14.98
603.222	14.93
603.641	14.87
604.061	14.81
604.48	14.76
604.898	14.7
605.317	14.64
605.736	14.59
606.155	14.54
606.574	14.48
606.992	14.41
607.411	14.36
607.829	14.29
608.248	14.24
608.666	14.18
609.085	14.13
609.503	14.07
609.921	14.01
610.339	13.95
610.758	13.89
611.176	13.82
611.594	13.77
612.012	13.71
612.43	13.67
612.847	13.61
613.265	13.55
613.683	13.49
614.101	13.44
614.518	13.39
614.936	13.32
615.353	13.27
615.771	13.22
616.188	13.17
616.606	13.12
617.023	13.08
617.44	13.04
617.857	13.01
618.274	12.96
618.691	12.91
619.108	12.87
619.525	12.86
619.942	12.83
620.359	12.79
620.776	12.76
621.192	12.74
621.609	12.71
622.026	12.68
622.442	12.66
622.859	12.65
623.275	12.62
623.691	12.61
624.108	12.57
624.524	12.56
624.94	12.55
625.356	12.55
625.772	12.53
626.188	12.52
626.604	12.5
627.02	12.48
627.436	12.46
627.852	12.46
628.268	12.45
628.683	12.44
629.099	12.43
629.514	12.41
629.93	12.39
630.345	12.38
630.761	12.35
631.176	12.33
631.591	12.3
632.007	12.28
632.422	12.25
632.837	12.22
633.252	12.17
633.667	12.13
634.082	12.09
634.497	12.05
634.911	12
635.326	11.95
635.741	11.9
636.155	11.84
636.57	11.77
636.984	11.7
637.399	11.63
637.813	11.57
638.228	11.49
638.642	11.4
639.056	11.32
639.47	11.25
639.884	11.17
640.298	11.09
640.712	11.02
641.126	10.95
641.54	10.86
641.954	10.78
642.368	10.7
642.781	10.63
643.195	10.57
643.609	10.49
644.022	10.41
644.436	10.34
644.849	10.26
645.262	10.19
645.676	10.12
646.089	10.07
646.502	10.01
646.915	9.96
647.328	9.91
647.741	9.86
648.154	9.83
648.567	9.79
648.98	9.76
649.393	9.73
649.805	9.7
650.218	9.67
650.631	9.65
651.043	9.63
651.456	9.6
651.868	9.57
652.28	9.53
652.693	9.5
653.105	9.46
653.517	9.42
653.929	9.39
654.341	9.35
654.753	9.3
655.165	9.25
655.577	9.19
655.989	9.14
656.401	9.09
656.813	9.04
657.224	8.97
657.636	8.91
658.047	8.86
658.459	8.8
658.87	8.74
659.282	8.69
659.693	8.63
660.104	8.56
660.515	8.5
660.926	8.44
661.338	8.38
661.749	8.32
662.159	8.26
662.57	8.2
662.981	8.16
663.392	8.09
663.803	8.05
664.213	8.01
664.624	7.97
665.035	7.94
665.445	7.91
665.855	7.88
666.266	7.85
666.676	7.84
667.086	7.81
667.497	7.78
667.907	7.78
668.317	7.76
668.727	7.73
669.137	7.72
669.547	7.71
669.956	7.69
670.366	7.69
670.776	7.68
671.186	7.69
671.595	7.69
672.005	7.69
672.414	7.69
672.824	7.69
673.233	7.7
673.642	7.71
674.052	7.72
674.461	7.73
674.87	7.74
675.279	7.76
675.688	7.77
676.097	7.79
676.506	7.82
676.915	7.84
677.323	7.86
677.732	7.89
678.141	7.92
678.549	7.95
678.958	7.99
679.366	8.04
679.775	8.08
680.183	8.13
680.592	8.2
681	8.27
681.408	8.33
681.816	8.42
682.224	8.5
682.632	8.6
683.04	8.7
683.448	8.81
683.856	8.92
684.264	9.06
684.671	9.2
685.079	9.35
685.487	9.52
685.894	9.72
686.302	9.92
686.709	10.15
687.116	10.38
687.524	10.63
687.931	10.91
688.338	11.21
688.745	11.52
689.152	11.84
689.559	12.17
689.966	12.52
690.373	12.87
690.78	13.25
691.187	13.63
691.593	14.03
692	14.44
692.407	14.83
692.813	15.24
693.22	15.66
693.626	16.09
694.032	16.53
694.439	16.96
694.845	17.4
695.251	17.85
695.657	18.27
696.063	18.72
696.469	19.15
696.875	19.58
697.281	20.02
697.687	20.46
698.093	20.88
698.498	21.29
698.904	21.71
699.31	22.12
699.715	22.51
700.12	22.91
700.526	23.31
700.931	23.69
701.337	24.08
701.742	24.45
702.147	24.8
702.552	25.16
702.957	25.51
703.362	25.88
703.767	26.21
704.172	26.58
704.577	26.92
704.981	27.25
705.386	27.59
705.791	27.9
706.195	28.24
706.6	28.57
707.004	28.87
707.408	29.19
707.813	29.49
708.217	29.8
708.621	30.08
709.025	30.35
709.43	30.61
709.834	30.9
710.237	31.18
710.641	31.44
711.045	31.7
711.449	31.98
711.853	32.23
712.256	32.48
712.66	32.71
713.064	32.97
713.467	33.22
713.87	33.45
714.274	33.66
714.677	33.88
715.08	34.08
715.484	34.31
715.887	34.54
716.29	34.74
716.693	34.95
717.096	35.18
717.499	35.36
717.901	35.59
718.304	35.8
718.707	36.01
719.109	36.22
719.512	36.43
719.915	36.61
720.317	36.78
720.719	36.94
721.122	37.11
721.524	37.25
721.926	37.44
722.328	37.59
722.731	37.73
723.133	37.91
723.535	38.05
723.937	38.2
724.338	38.33
724.74	38.46
725.142	38.63
725.544	38.74
725.945	38.89
726.347	38.98
726.748	39.09
727.15	39.2
727.551	39.28
727.952	39.37
728.354	39.47
728.755	39.56
729.156	39.67
729.557	39.71
729.958	39.82
730.359	39.9
730.76	39.99
731.161	40.07
731.562	40.17
731.962	40.23
732.363	40.32
732.763	40.38
733.164	40.45
733.564	40.52
733.965	40.59
734.365	40.64
734.766	40.68
735.166	40.74
735.566	40.79
735.966	40.83
736.366	40.87
736.766	40.9
737.166	40.94
737.566	40.98
737.966	41.02
738.365	41.06
738.765	41.09
739.165	41.11
739.564	41.13
739.964	41.16
740.363	41.16
740.763	41.2
741.162	41.23
741.561	41.23
741.96	41.24
742.36	41.25
742.759	41.26
743.158	41.27
743.557	41.29
743.955	41.34
744.354	41.37
744.753	41.41
745.152	41.46
745.55	41.51
745.949	41.56
746.348	41.59
746.746	41.62
747.144	41.68
747.543	41.7
747.941	41.74
748.339	41.74
748.737	41.74
749.136	41.74
749.534	41.72
749.932	41.71
750.33	41.7
750.727	41.72
751.125	41.73
751.523	41.71
751.921	41.7
752.318	41.71
752.716	41.72
753.113	41.73
753.511	41.74
753.908	41.74
754.305	41.73
754.703	41.71
755.1	41.68
755.497	41.66
755.894	41.62
756.291	41.6
756.688	41.54
757.085	41.52
757.482	41.49
757.878	41.46
758.275	41.43
758.672	41.43
759.068	41.45
759.465	41.44
759.861	41.45
760.258	41.46
760.654	41.44
761.05	41.46
761.447	41.48
761.843	41.46
762.239	41.45
762.635	41.46
763.031	41.45
763.427	41.45
763.822	41.46
764.218	41.47
764.614	41.49
765.01	41.5
765.405	41.53
765.801	41.53
766.196	41.53
766.592	41.54
766.987	41.56
767.382	41.56
767.778	41.56
768.173	41.57
768.568	41.57
768.963	41.55
769.358	41.56
769.753	41.56
770.148	41.55
770.542	41.58
770.937	41.6
771.332	41.56
771.726	41.58
772.121	41.57
772.515	41.57
772.91	41.57
773.304	41.57
773.699	41.57
774.093	41.56
774.487	41.57
774.881	41.57
775.275	41.56
775.669	41.58
776.063	41.57
776.457	41.57
776.851	41.58
777.245	41.56
777.638	41.56
778.032	41.56
778.425	41.59
778.819	41.57
779.212	41.59
779.606	41.6
779.999	41.62
780.392	41.63
