Data from C_3_DEC_CT_2N_Splice17_13-55-17-463.txt Node
Date: Sat Mar 07 13:55:17 EST 2020
User: sa697716
Spectrometer: NQ5500242
Trigger mode: 0
Integration Time (sec): 1.450000E-1
Scans to average: 20
Nonlinearity correction enabled: false
Boxcar width: 5
Storing dark spectrum: false
XAxis mode: Wavelengths
Number of Pixels in Spectrum: 512
>>>>>Begin Spectral Data<<<<<
187.83	196.07
188.298	225.78
188.766	193.97
189.233	160.87
189.701	165.4
190.169	199.91
190.636	185.55
191.104	163.42
191.571	-260.9
192.039	-145.93
192.506	-1080.54
192.974	112.86
193.441	189.29
193.908	51.04
194.375	16.71
194.842	-50.66
195.31	-58.27
195.777	-274.96
196.244	30.53
196.711	46.34
197.177	52.54
197.644	52.38
198.111	52.54
198.578	53.69
199.045	53.9
199.511	53.96
199.978	54.21
200.445	54.68
200.911	54.55
201.378	54.67
201.844	54.69
202.31	53.85
202.777	54.3
203.243	54.35
203.709	53.69
204.176	53.3
204.642	53.08
205.108	52.76
205.574	52.41
206.04	51.83
206.506	50.88
206.972	50.51
207.438	50.13
207.903	48.93
208.369	47.88
208.835	47.01
209.301	45.74
209.766	44.35
210.232	43.07
210.697	41.58
211.163	40.57
211.628	39.88
212.094	38.81
212.559	38.26
213.024	37.32
213.49	36.66
213.955	35.81
214.42	35.14
214.885	34.16
215.35	33.01
215.815	31.59
216.28	29.47
216.745	27.01
217.21	24.54
217.675	22.13
218.14	20.13
218.604	18.35
219.069	16.95
219.534	15.76
219.998	14.77
220.463	13.92
220.927	13.16
221.392	12.58
221.856	12.1
222.32	11.69
222.785	11.35
223.249	11.05
223.713	10.77
224.177	10.51
224.642	10.27
225.106	10
225.57	9.78
226.034	9.57
226.497	9.38
226.961	9.2
227.425	9.04
227.889	8.86
228.353	8.69
228.816	8.53
229.28	8.37
229.744	8.2
230.207	8.06
230.671	7.92
231.134	7.79
231.597	7.69
232.061	7.57
232.524	7.45
232.987	7.33
233.45	7.25
233.914	7.15
234.377	7.04
234.84	6.96
235.303	6.89
235.766	6.81
236.229	6.73
236.691	6.64
237.154	6.57
237.617	6.5
238.08	6.44
238.542	6.35
239.005	6.29
239.468	6.23
239.93	6.17
240.393	6.1
240.855	6.04
241.317	5.99
241.78	5.91
242.242	5.84
242.704	5.78
243.166	5.72
243.629	5.66
244.091	5.59
244.553	5.53
245.015	5.47
245.477	5.41
245.939	5.35
246.4	5.29
246.862	5.24
247.324	5.19
247.786	5.13
248.247	5.08
248.709	5.01
249.17	4.96
249.632	4.92
250.093	4.87
250.555	4.82
251.016	4.77
251.477	4.72
251.939	4.68
252.4	4.62
252.861	4.58
253.322	4.54
253.783	4.52
254.244	4.49
254.705	4.44
255.166	4.41
255.627	4.38
256.088	4.35
256.549	4.33
257.009	4.29
257.47	4.25
257.931	4.21
258.391	4.17
258.852	4.13
259.312	4.08
259.773	4.04
260.233	4.01
260.694	3.97
261.154	3.93
261.614	3.89
262.074	3.86
262.534	3.83
262.994	3.81
263.455	3.78
263.915	3.75
264.374	3.73
264.834	3.71
265.294	3.68
265.754	3.66
266.214	3.64
266.673	3.61
267.133	3.6
267.593	3.58
268.052	3.56
268.512	3.55
268.971	3.53
269.431	3.52
269.89	3.51
270.349	3.5
270.809	3.48
271.268	3.47
271.727	3.46
272.186	3.45
272.645	3.44
273.104	3.43
273.563	3.42
274.022	3.41
274.481	3.4
274.94	3.4
275.399	3.38
275.857	3.37
276.316	3.36
276.775	3.36
277.233	3.35
277.692	3.35
278.15	3.34
278.609	3.34
279.067	3.34
279.525	3.33
279.984	3.32
280.442	3.32
280.9	3.32
281.358	3.32
281.816	3.31
282.274	3.3
282.732	3.3
283.19	3.29
283.648	3.29
284.106	3.28
284.564	3.28
285.021	3.28
285.479	3.28
285.937	3.28
286.394	3.28
286.852	3.27
287.309	3.27
287.767	3.26
288.224	3.25
288.682	3.23
289.139	3.21
289.596	3.19
290.053	3.17
290.511	3.14
290.968	3.12
291.425	3.1
291.882	3.09
292.339	3.07
292.796	3.05
293.252	3.04
293.709	3.03
294.166	3.03
294.623	3.02
295.079	3.01
295.536	3.01
295.992	3.01
296.449	3.01
296.905	3
297.362	2.99
297.818	2.99
298.274	2.99
298.731	2.98
299.187	2.96
299.643	2.95
300.099	2.96
300.555	2.95
301.011	2.94
301.467	2.93
301.923	2.93
302.379	2.93
302.835	2.93
303.291	2.93
303.746	2.93
304.202	2.93
304.658	2.94
305.113	2.93
305.569	2.93
306.024	2.94
306.479	2.93
306.935	2.93
307.39	2.94
307.845	2.94
308.301	2.94
308.756	2.94
309.211	2.94
309.666	2.95
310.121	2.95
310.576	2.95
311.031	2.96
311.486	2.96
311.94	2.97
312.395	2.97
312.85	2.97
313.305	2.97
313.759	2.97
314.214	2.97
314.668	2.96
315.123	2.95
315.577	2.94
316.032	2.94
316.486	2.93
316.94	2.92
317.394	2.91
317.849	2.9
318.303	2.89
318.757	2.88
319.211	2.87
319.665	2.86
320.119	2.85
320.572	2.84
321.026	2.83
321.48	2.82
321.934	2.81
322.387	2.79
322.841	2.79
323.295	2.79
323.748	2.78
324.202	2.79
324.655	2.79
325.108	2.79
325.562	2.8
326.015	2.8
326.468	2.8
326.921	2.8
327.374	2.81
327.827	2.81
328.28	2.8
328.733	2.81
329.186	2.8
329.639	2.81
330.092	2.81
330.545	2.81
330.997	2.81
331.45	2.82
331.903	2.83
332.355	2.84
332.808	2.84
333.26	2.84
333.713	2.83
334.165	2.84
334.617	2.84
335.069	2.84
335.522	2.84
335.974	2.85
336.426	2.84
336.878	2.84
337.33	2.83
337.782	2.83
338.234	2.83
338.686	2.83
339.137	2.83
339.589	2.82
340.041	2.82
340.493	2.81
340.944	2.8
341.396	2.79
341.847	2.78
342.299	2.76
342.75	2.76
343.201	2.75
343.653	2.74
344.104	2.72
344.555	2.71
345.006	2.69
345.457	2.68
345.908	2.68
346.359	2.68
346.81	2.67
347.261	2.67
347.712	2.66
348.163	2.65
348.613	2.65
349.064	2.66
349.515	2.66
349.965	2.66
350.416	2.66
350.866	2.66
351.317	2.65
351.767	2.65
352.217	2.65
352.668	2.65
353.118	2.65
353.568	2.65
354.018	2.66
354.468	2.66
354.918	2.66
355.368	2.67
355.818	2.68
356.268	2.67
356.718	2.68
357.168	2.68
357.617	2.68
358.067	2.68
358.517	2.68
358.966	2.68
359.416	2.68
359.865	2.67
360.315	2.68
360.764	2.68
361.213	2.68
361.663	2.67
362.112	2.68
362.561	2.68
363.01	2.68
363.459	2.67
363.908	2.67
364.357	2.67
364.806	2.66
365.255	2.67
365.703	2.67
366.152	2.68
366.601	2.69
367.05	2.69
367.498	2.68
367.947	2.68
368.395	2.69
368.844	2.69
369.292	2.69
369.74	2.7
370.189	2.68
370.637	2.68
371.085	2.66
371.533	2.67
371.981	2.66
372.429	2.67
372.877	2.67
373.325	2.67
373.773	2.66
374.221	2.66
374.669	2.65
375.116	2.64
375.564	2.63
376.012	2.63
376.459	2.63
376.907	2.63
377.354	2.63
377.801	2.63
378.249	2.62
378.696	2.62
379.143	2.62
379.591	2.62
380.038	2.63
380.485	2.63
380.932	2.63
381.379	2.63
381.826	2.63
382.273	2.63
382.72	2.61
383.166	2.61
383.613	2.61
384.06	2.6
384.506	2.6
384.953	2.6
385.4	2.6
385.846	2.61
386.292	2.61
386.739	2.6
387.185	2.6
387.631	2.61
388.078	2.61
388.524	2.62
388.97	2.63
389.416	2.64
389.862	2.65
390.308	2.66
390.754	2.67
391.2	2.68
391.645	2.7
392.091	2.72
392.537	2.74
392.983	2.75
393.428	2.77
393.874	2.78
394.319	2.79
394.765	2.79
395.21	2.78
395.655	2.8
396.101	2.81
396.546	2.82
396.991	2.84
397.436	2.85
397.881	2.88
398.326	2.9
398.771	2.92
399.216	2.93
399.661	2.95
400.106	2.98
400.551	2.99
400.995	2.99
401.44	3
401.885	3
402.329	3.02
402.774	3.03
403.218	3.06
403.663	3.07
404.107	3.08
404.551	3.1
404.995	3.11
405.44	3.12
405.884	3.14
406.328	3.16
406.772	3.18
407.216	3.2
407.66	3.21
408.104	3.2
408.547	3.21
408.991	3.23
409.435	3.24
409.879	3.27
410.322	3.29
410.766	3.32
411.209	3.35
411.653	3.38
412.096	3.41
412.54	3.43
412.983	3.45
413.426	3.49
413.869	3.51
414.312	3.55
414.756	3.57
415.199	3.59
415.642	3.59
416.085	3.6
416.527	3.59
416.97	3.59
417.413	3.59
417.856	3.59
418.298	3.58
418.741	3.59
419.184	3.59
419.626	3.58
420.069	3.58
420.511	3.6
420.953	3.6
421.396	3.62
421.838	3.63
422.28	3.65
422.722	3.68
423.164	3.7
423.606	3.7
424.048	3.71
424.49	3.73
424.932	3.74
425.374	3.72
425.816	3.71
426.258	3.7
426.699	3.7
427.141	3.69
427.582	3.69
428.024	3.69
428.465	3.71
428.907	3.71
429.348	3.7
429.789	3.7
430.231	3.73
430.672	3.76
431.113	3.78
431.554	3.79
431.995	3.8
432.436	3.81
432.877	3.82
433.318	3.83
433.759	3.86
434.2	3.89
434.64	3.92
435.081	3.93
435.522	3.94
435.962	3.95
436.403	3.99
436.843	4.02
437.284	4.01
437.724	4.02
438.164	4.02
438.604	4.04
439.045	4.04
439.485	4.04
439.925	4.04
440.365	4.07
440.805	4.08
441.245	4.07
441.685	4.09
442.125	4.11
442.564	4.11
443.004	4.11
443.444	4.11
443.883	4.13
444.323	4.12
444.762	4.12
445.202	4.12
445.641	4.13
446.081	4.14
446.52	4.12
446.959	4.13
447.398	4.14
447.837	4.14
448.276	4.14
448.716	4.14
449.154	4.16
449.593	4.17
450.032	4.16
450.471	4.14
450.91	4.12
451.349	4.13
451.787	4.11
452.226	4.1
452.664	4.09
453.103	4.08
453.541	4.07
453.98	4.06
454.418	4.02
454.856	4.02
455.295	4.01
455.733	4
456.171	3.97
456.609	3.96
457.047	3.95
457.485	3.94
457.923	3.94
458.361	3.91
458.798	3.92
459.236	3.92
459.674	3.92
460.111	3.92
460.549	3.92
460.987	3.92
461.424	3.93
461.862	3.93
462.299	3.94
462.736	3.94
463.173	3.95
463.611	3.96
464.048	3.97
464.485	3.97
464.922	3.98
465.359	3.98
465.796	4.02
466.233	4.03
466.67	4.04
467.106	4.05
467.543	4.04
467.98	4.04
468.416	4.02
468.853	4.01
469.29	4.01
469.726	4.01
470.162	4
470.599	3.98
471.035	3.95
471.471	3.94
471.907	3.93
472.344	3.93
472.78	3.93
473.216	3.91
473.652	3.9
474.088	3.88
474.523	3.87
474.959	3.87
475.395	3.85
475.831	3.84
476.266	3.84
476.702	3.83
477.138	3.82
477.573	3.8
478.008	3.8
478.444	3.8
478.879	3.81
479.314	3.78
479.75	3.77
480.185	3.75
480.62	3.73
481.055	3.71
481.49	3.7
481.925	3.68
482.36	3.68
482.795	3.67
483.229	3.66
483.664	3.65
484.099	3.64
484.534	3.64
484.968	3.64
485.403	3.63
485.837	3.63
486.271	3.65
486.706	3.64
487.14	3.63
487.574	3.63
488.009	3.63
488.443	3.62
488.877	3.63
489.311	3.64
489.745	3.64
490.179	3.66
490.613	3.68
491.046	3.67
491.48	3.69
491.914	3.7
492.348	3.71
492.781	3.73
493.215	3.75
493.648	3.77
494.082	3.78
494.515	3.8
494.948	3.82
495.382	3.83
495.815	3.86
496.248	3.89
496.681	3.91
497.114	3.94
497.547	3.98
497.98	4.01
498.413	4.04
498.846	4.08
499.279	4.11
499.711	4.15
500.144	4.2
500.577	4.25
501.009	4.29
501.442	4.34
501.874	4.4
502.306	4.44
502.739	4.51
503.171	4.58
503.603	4.63
504.036	4.71
504.468	4.78
504.9	4.84
505.332	4.92
505.764	5.02
506.196	5.11
506.627	5.2
507.059	5.31
507.491	5.4
507.923	5.52
508.354	5.65
508.786	5.78
509.217	5.92
509.649	6.06
510.08	6.21
510.512	6.36
510.943	6.5
511.374	6.66
511.805	6.83
512.237	6.99
512.668	7.17
513.099	7.35
513.53	7.52
513.961	7.71
514.391	7.91
514.822	8.12
515.253	8.33
515.684	8.54
516.114	8.76
516.545	8.99
516.975	9.23
517.406	9.46
517.836	9.69
518.267	9.94
518.697	10.18
519.127	10.41
519.558	10.65
519.988	10.88
520.418	11.13
520.848	11.36
521.278	11.59
521.708	12
522.138	12.23
522.567	12.46
522.997	12.67
523.427	12.9
523.857	13.12
524.286	13.34
524.716	13.56
525.145	13.76
525.575	13.98
526.004	14.18
526.433	14.2
526.863	14.39
527.292	14.57
527.721	14.76
528.15	14.93
528.579	15.1
529.008	15.26
529.437	15.4
529.866	15.55
530.295	15.69
530.724	15.82
531.152	15.95
531.581	16.09
532.01	16.21
532.438	16.32
532.867	16.42
533.295	16.52
533.723	16.61
534.152	16.69
534.58	16.78
535.008	16.85
535.436	16.92
535.865	16.98
536.293	17.03
536.721	17.08
537.149	17.14
537.576	17.2
538.004	17.25
538.432	17.31
538.86	17.35
539.287	17.38
539.715	17.44
540.143	17.47
540.57	17.51
540.998	17.55
541.425	17.6
541.852	17.62
542.28	17.67
542.707	17.7
543.134	17.73
543.561	17.78
543.988	17.82
544.415	17.84
544.842	17.87
545.269	17.92
545.696	17.95
546.123	17.96
546.549	17.99
546.976	18.02
547.403	18.05
547.829	18.07
548.256	18.1
548.682	18.11
549.108	18.16
549.535	18.18
549.961	18.19
550.387	18.21
550.813	18.23
551.24	18.25
551.666	18.24
552.092	18.23
552.518	18.23
552.943	18.21
553.369	18.19
553.795	18.13
554.221	18.09
554.646	18.04
555.072	17.99
555.498	17.92
555.923	17.84
556.349	17.78
556.774	17.69
557.199	17.61
557.625	17.53
558.05	17.45
558.475	17.37
558.9	17.28
559.325	17.19
559.75	17.1
560.175	17
560.6	16.89
561.025	16.77
561.449	16.65
561.874	16.52
562.299	16.4
562.723	16.25
563.148	16.1
563.572	15.95
563.997	15.8
564.421	15.64
564.846	15.49
565.27	15.34
565.694	15.2
566.118	15.04
566.542	14.88
566.966	14.71
567.39	14.54
567.814	14.38
568.238	14.22
568.662	14.06
569.086	13.9
569.509	13.74
569.933	13.59
570.357	13.42
570.78	13.27
571.204	13.13
571.627	12.99
572.05	12.86
572.474	12.73
572.897	12.61
573.32	12.49
573.743	12.37
574.166	12.25
574.589	12.12
575.012	12.01
575.435	11.9
575.858	11.79
576.281	11.69
576.704	11.59
577.126	11.49
577.549	11.39
577.972	11.29
578.394	11.19
578.817	11.11
579.239	11.04
579.661	10.97
580.084	10.89
580.506	10.83
580.928	10.77
581.35	10.7
581.772	10.62
582.194	10.57
582.616	10.51
583.038	10.45
583.46	10.38
583.882	10.31
584.303	10.25
584.725	10.19
585.147	10.13
585.568	10.07
585.99	10.02
586.411	9.98
586.833	9.92
587.254	9.88
587.675	9.83
588.096	9.78
588.518	9.75
588.939	9.72
589.36	9.67
589.781	9.63
590.202	9.58
590.623	9.54
591.043	9.5
591.464	9.48
591.885	9.44
592.305	9.41
592.726	9.39
593.147	9.35
593.567	9.32
593.987	9.3
594.408	9.26
594.828	9.23
595.248	9.21
595.669	9.19
596.089	9.15
596.509	9.13
596.929	9.11
597.349	9.06
597.769	9.03
598.189	8.99
598.608	8.96
599.028	8.93
599.448	8.88
599.867	8.84
600.287	8.8
600.706	8.76
601.126	8.73
601.545	8.69
601.965	8.67
602.384	8.63
602.803	8.58
603.222	8.53
603.641	8.49
604.061	8.46
604.48	8.41
604.898	8.36
605.317	8.32
605.736	8.27
606.155	8.21
606.574	8.15
606.992	8.09
607.411	8.03
607.829	7.94
608.248	7.88
608.666	7.82
609.085	7.77
609.503	7.71
609.921	7.65
610.339	7.58
610.758	7.53
611.176	7.46
611.594	7.41
612.012	7.34
612.43	7.32
612.847	7.26
613.265	7.21
613.683	7.15
614.101	7.1
614.518	7.03
614.936	6.99
615.353	6.93
615.771	6.89
616.188	6.85
616.606	6.82
617.023	6.77
617.44	6.74
617.857	6.7
618.274	6.66
618.691	6.63
619.108	6.6
619.525	6.57
619.942	6.55
620.359	6.52
620.776	6.5
621.192	6.46
621.609	6.44
622.026	6.43
622.442	6.41
622.859	6.39
623.275	6.38
623.691	6.37
624.108	6.36
624.524	6.35
624.94	6.34
625.356	6.33
625.772	6.33
626.188	6.32
626.604	6.31
627.02	6.3
627.436	6.3
627.852	6.29
628.268	6.28
628.683	6.28
629.099	6.28
629.514	6.27
629.93	6.26
630.345	6.26
630.761	6.25
631.176	6.23
631.591	6.22
632.007	6.2
632.422	6.17
632.837	6.14
633.252	6.11
633.667	6.07
634.082	6.02
634.497	5.99
634.911	5.95
635.326	5.91
635.741	5.87
636.155	5.82
636.57	5.77
636.984	5.73
637.399	5.68
637.813	5.62
638.228	5.56
638.642	5.5
639.056	5.43
639.47	5.37
639.884	5.32
640.298	5.25
640.712	5.2
641.126	5.14
641.54	5.09
641.954	5.02
642.368	4.97
642.781	4.93
643.195	4.88
643.609	4.84
644.022	4.79
644.436	4.74
644.849	4.69
645.262	4.63
645.676	4.59
646.089	4.56
646.502	4.53
646.915	4.5
647.328	4.46
647.741	4.42
648.154	4.39
648.567	4.37
648.98	4.34
649.393	4.32
649.805	4.31
650.218	4.28
650.631	4.26
651.043	4.24
651.456	4.23
651.868	4.21
652.28	4.19
652.693	4.18
653.105	4.16
653.517	4.14
653.929	4.13
654.341	4.11
654.753	4.09
655.165	4.07
655.577	4.05
655.989	4.01
656.401	3.99
656.813	3.98
657.224	3.94
657.636	3.91
658.047	3.89
658.459	3.86
658.87	3.83
659.282	3.8
659.693	3.78
660.104	3.75
660.515	3.72
660.926	3.69
661.338	3.66
661.749	3.64
662.159	3.62
662.57	3.61
662.981	3.59
663.392	3.57
663.803	3.56
664.213	3.54
664.624	3.54
665.035	3.53
665.445	3.53
665.855	3.52
666.266	3.51
666.676	3.52
667.086	3.51
667.497	3.51
667.907	3.52
668.317	3.51
668.727	3.52
669.137	3.52
669.547	3.53
669.956	3.53
670.366	3.53
670.776	3.54
671.186	3.53
671.595	3.54
672.005	3.55
672.414	3.56
672.824	3.57
673.233	3.58
673.642	3.6
674.052	3.61
674.461	3.63
674.87	3.65
675.279	3.68
675.688	3.7
676.097	3.73
676.506	3.75
676.915	3.77
677.323	3.8
677.732	3.82
678.141	3.85
678.549	3.87
678.958	3.9
679.366	3.93
679.775	3.95
680.183	3.98
680.592	4.02
681	4.06
681.408	4.09
681.816	4.14
682.224	4.17
682.632	4.22
683.04	4.27
683.448	4.32
683.856	4.37
684.264	4.43
684.671	4.5
685.079	4.57
685.487	4.65
685.894	4.75
686.302	4.85
686.709	4.98
687.116	5.11
687.524	5.28
687.931	5.45
688.338	5.65
688.745	5.86
689.152	6.08
689.559	6.34
689.966	6.61
690.373	6.92
690.78	7.24
691.187	7.58
691.593	7.95
692	8.33
692.407	8.74
692.813	9.17
693.22	9.62
693.626	10.11
694.032	10.61
694.439	11.13
694.845	11.66
695.251	12.21
695.657	12.77
696.063	13.34
696.469	13.93
696.875	14.52
697.281	15.12
697.687	15.75
698.093	16.37
698.498	16.98
698.904	17.61
699.31	18.24
699.715	18.88
700.12	19.54
700.526	20.2
700.931	20.85
701.337	21.5
701.742	22.15
702.147	22.78
702.552	23.4
702.957	24.04
703.362	24.68
703.767	25.29
704.172	25.92
704.577	26.53
704.981	27.15
705.386	27.75
705.791	28.38
706.195	28.99
706.6	29.62
707.004	30.25
707.408	30.85
707.813	31.44
708.217	32.06
708.621	32.66
709.025	33.24
709.43	33.81
709.834	34.39
710.237	34.96
710.641	35.52
711.045	36.07
711.449	36.63
711.853	37.22
712.256	37.75
712.66	38.3
713.064	38.83
713.467	39.4
713.87	39.94
714.274	40.48
714.677	41.01
715.08	41.53
715.484	42.05
715.887	42.58
716.29	43.04
716.693	43.56
717.096	44.06
717.499	44.55
717.901	45
718.304	45.46
718.707	45.92
719.109	46.36
719.512	46.82
719.915	47.27
720.317	47.64
720.719	48.05
721.122	48.47
721.524	48.85
721.926	49.27
722.328	49.66
722.731	50.05
723.133	50.42
723.535	50.78
723.937	51.14
724.338	51.48
724.74	51.86
725.142	52.33
725.544	52.64
725.945	52.98
726.347	53.26
726.748	53.55
727.15	53.83
727.551	54.13
727.952	54.4
728.354	54.66
728.755	54.92
729.156	55.15
729.557	55.27
729.958	55.48
730.359	55.69
730.76	55.93
731.161	56.17
731.562	56.39
731.962	56.55
732.363	56.76
732.763	56.95
733.164	57.12
733.564	57.3
733.965	57.45
734.365	57.64
734.766	57.81
735.166	57.94
735.566	58.09
735.966	58.24
736.366	58.41
736.766	58.52
737.166	58.66
737.566	58.81
737.966	58.92
738.365	59.06
738.765	59.19
739.165	59.27
739.564	59.4
739.964	59.48
740.363	59.53
740.763	59.62
741.162	59.72
741.561	59.79
741.96	59.83
742.36	59.91
742.759	59.98
743.158	60.04
743.557	60.1
743.955	60.15
744.354	60.21
744.753	60.31
745.152	60.42
745.55	60.49
745.949	60.57
746.348	60.67
746.746	60.73
747.144	60.8
747.543	60.86
747.941	60.94
748.339	60.98
748.737	61.03
749.136	61.04
749.534	61.04
749.932	61.04
750.33	61.03
750.727	61.04
751.125	61.06
751.523	61.08
751.921	61.08
752.318	61.09
752.716	61.14
753.113	61.16
753.511	61.23
753.908	61.27
754.305	61.34
754.703	61.38
755.1	61.4
755.497	61.42
755.894	61.42
756.291	61.44
756.688	61.47
757.085	61.46
757.482	61.46
757.878	61.46
758.275	61.45
758.672	61.42
759.068	61.45
759.465	61.45
759.861	61.46
760.258	61.5
760.654	61.52
761.05	61.52
761.447	61.57
761.843	61.6
762.239	61.62
762.635	61.62
763.031	61.65
763.427	61.64
763.822	61.65
764.218	61.67
764.614	61.65
765.01	61.65
765.405	61.63
765.801	61.57
766.196	61.58
766.592	61.55
766.987	61.56
767.382	61.55
767.778	61.56
768.173	61.58
768.568	61.55
768.963	61.58
769.358	61.62
769.753	61.63
770.148	61.65
770.542	61.68
770.937	61.7
771.332	61.69
771.726	61.71
772.121	61.72
772.515	61.7
772.91	61.71
773.304	61.71
773.699	61.69
774.093	61.66
774.487	61.65
774.881	61.63
775.275	61.64
775.669	61.66
776.063	61.65
776.457	61.66
776.851	61.65
777.245	61.63
777.638	61.62
778.032	61.66
778.425	61.71
778.819	61.72
779.212	61.72
779.606	61.73
779.999	61.69
780.392	61.68
780.786	61.68
781.179	61.69
781.572	61.72
781.965	61.74
782.358	61.73
782.751	61.73
783.143	61.73
783.536	61.7
783.929	61.67
784.322	61.73
784.714	61.74
785.107	61.75
785.499	61.75
785.891	61.77
786.284	61.79
