Data from C_3_DIV_WI_4N_Splice17_13-51-11-957.txt Node
Date: Sat Mar 07 13:51:11 EST 2020
User: sa697716
Spectrometer: NQ5500242
Trigger mode: 0
Integration Time (sec): 1.450000E-1
Scans to average: 20
Nonlinearity correction enabled: false
Boxcar width: 5
Storing dark spectrum: false
XAxis mode: Wavelengths
Number of Pixels in Spectrum: 512
>>>>>Begin Spectral Data<<<<<
187.83	223.39
188.298	254.54
188.766	223.77
189.233	173.07
189.701	171.48
190.169	206.8
190.636	224.09
191.104	276.75
191.571	35.52
192.039	9.36
192.506	-302.61
192.974	24.19
193.441	56.88
193.908	28.44
194.375	22.24
194.842	-41.03
195.31	80.24
195.777	227.35
196.244	52.11
196.711	41.39
197.177	44.2
197.644	42.73
198.111	42.89
198.578	43.13
199.045	43.46
199.511	42.95
199.978	42.81
200.445	42.61
200.911	42.59
201.378	42.63
201.844	42.66
202.31	42.19
202.777	42.29
203.243	42.16
203.709	42.11
204.176	41.43
204.642	41.44
205.108	41.39
205.574	40.84
206.04	40.24
206.506	39.71
206.972	39.74
207.438	39.59
207.903	39.01
208.369	38.15
208.835	37.25
209.301	36.77
209.766	35.6
210.232	34.68
210.697	33.71
211.163	33.05
211.628	32.45
212.094	31.55
212.559	30.73
213.024	29.99
213.49	29.35
213.955	28.78
214.42	28.17
214.885	27.39
215.35	26.57
215.815	25.63
216.28	23.99
216.745	22.05
217.21	20.36
217.675	18.72
218.14	17.29
218.604	16.07
219.069	15.01
219.534	14.13
219.998	13.38
220.463	12.8
220.927	12.19
221.392	11.76
221.856	11.44
222.32	11.1
222.785	10.86
223.249	10.62
223.713	10.39
224.177	10.19
224.642	9.99
225.106	9.8
225.57	9.57
226.034	9.43
226.497	9.29
226.961	9.14
227.425	9.01
227.889	8.86
228.353	8.72
228.816	8.61
229.28	8.47
229.744	8.35
230.207	8.25
230.671	8.14
231.134	8.03
231.597	7.94
232.061	7.83
232.524	7.73
232.987	7.63
233.45	7.56
233.914	7.46
234.377	7.39
234.84	7.3
235.303	7.23
235.766	7.17
236.229	7.1
236.691	7.01
237.154	6.95
237.617	6.89
238.08	6.84
238.542	6.76
239.005	6.72
239.468	6.65
239.93	6.59
240.393	6.54
240.855	6.46
241.317	6.4
241.78	6.35
242.242	6.28
242.704	6.23
243.166	6.17
243.629	6.11
244.091	6.05
244.553	5.99
245.015	5.94
245.477	5.87
245.939	5.82
246.4	5.79
246.862	5.74
247.324	5.69
247.786	5.63
248.247	5.58
248.709	5.53
249.17	5.47
249.632	5.44
250.093	5.41
250.555	5.37
251.016	5.34
251.477	5.29
251.939	5.26
252.4	5.22
252.861	5.18
253.322	5.15
253.783	5.12
254.244	5.1
254.705	5.06
255.166	5.02
255.627	4.99
256.088	4.96
256.549	4.93
257.009	4.89
257.47	4.86
257.931	4.82
258.391	4.79
258.852	4.75
259.312	4.72
259.773	4.68
260.233	4.66
260.694	4.63
261.154	4.6
261.614	4.57
262.074	4.53
262.534	4.5
262.994	4.48
263.455	4.46
263.915	4.43
264.374	4.41
264.834	4.39
265.294	4.37
265.754	4.35
266.214	4.33
266.673	4.31
267.133	4.31
267.593	4.3
268.052	4.28
268.512	4.27
268.971	4.27
269.431	4.25
269.89	4.23
270.349	4.22
270.809	4.21
271.268	4.2
271.727	4.18
272.186	4.17
272.645	4.16
273.104	4.14
273.563	4.12
274.022	4.11
274.481	4.1
274.94	4.09
275.399	4.08
275.857	4.07
276.316	4.06
276.775	4.05
277.233	4.04
277.692	4.04
278.15	4.02
278.609	4.02
279.067	4.01
279.525	4.01
279.984	4
280.442	3.99
280.9	3.98
281.358	3.97
281.816	3.97
282.274	3.96
282.732	3.94
283.19	3.94
283.648	3.92
284.106	3.91
284.564	3.9
285.021	3.9
285.479	3.89
285.937	3.86
286.394	3.86
286.852	3.84
287.309	3.84
287.767	3.82
288.224	3.81
288.682	3.79
289.139	3.78
289.596	3.76
290.053	3.73
290.511	3.72
290.968	3.7
291.425	3.69
291.882	3.67
292.339	3.65
292.796	3.64
293.252	3.62
293.709	3.61
294.166	3.61
294.623	3.6
295.079	3.59
295.536	3.58
295.992	3.58
296.449	3.57
296.905	3.56
297.362	3.55
297.818	3.53
298.274	3.53
298.731	3.52
299.187	3.51
299.643	3.5
300.099	3.49
300.555	3.48
301.011	3.47
301.467	3.46
301.923	3.46
302.379	3.45
302.835	3.45
303.291	3.45
303.746	3.44
304.202	3.44
304.658	3.43
305.113	3.43
305.569	3.42
306.024	3.42
306.479	3.41
306.935	3.41
307.39	3.4
307.845	3.4
308.301	3.4
308.756	3.4
309.211	3.39
309.666	3.4
310.121	3.4
310.576	3.41
311.031	3.41
311.486	3.41
311.94	3.41
312.395	3.41
312.85	3.41
313.305	3.41
313.759	3.4
314.214	3.4
314.668	3.38
315.123	3.38
315.577	3.36
316.032	3.36
316.486	3.35
316.94	3.34
317.394	3.34
317.849	3.32
318.303	3.3
318.757	3.29
319.211	3.28
319.665	3.27
320.119	3.25
320.572	3.25
321.026	3.23
321.48	3.22
321.934	3.21
322.387	3.2
322.841	3.2
323.295	3.2
323.748	3.19
324.202	3.19
324.655	3.19
325.108	3.19
325.562	3.19
326.015	3.19
326.468	3.19
326.921	3.18
327.374	3.18
327.827	3.18
328.28	3.17
328.733	3.17
329.186	3.17
329.639	3.17
330.092	3.16
330.545	3.16
330.997	3.16
331.45	3.16
331.903	3.17
332.355	3.18
332.808	3.17
333.26	3.17
333.713	3.17
334.165	3.16
334.617	3.16
335.069	3.15
335.522	3.16
335.974	3.17
336.426	3.17
336.878	3.15
337.33	3.15
337.782	3.15
338.234	3.16
338.686	3.17
339.137	3.17
339.589	3.16
340.041	3.16
340.493	3.14
340.944	3.12
341.396	3.11
341.847	3.1
342.299	3.08
342.75	3.07
343.201	3.05
343.653	3.04
344.104	3.02
344.555	3.01
345.006	3
345.457	3
345.908	2.99
346.359	2.99
346.81	2.99
347.261	2.98
347.712	2.97
348.163	2.97
348.613	2.97
349.064	2.98
349.515	2.97
349.965	2.98
350.416	2.97
350.866	2.97
351.317	2.96
351.767	2.96
352.217	2.96
352.668	2.96
353.118	2.97
353.568	2.96
354.018	2.96
354.468	2.96
354.918	2.97
355.368	2.97
355.818	2.97
356.268	2.97
356.718	2.97
357.168	2.97
357.617	2.96
358.067	2.96
358.517	2.97
358.966	2.98
359.416	2.98
359.865	2.97
360.315	2.98
360.764	2.98
361.213	2.98
361.663	2.98
362.112	2.99
362.561	2.99
363.01	3
363.459	2.99
363.908	2.98
364.357	2.98
364.806	2.98
365.255	2.99
365.703	3
366.152	3.02
366.601	3.03
367.05	3.04
367.498	3.04
367.947	3.04
368.395	3.05
368.844	3.07
369.292	3.07
369.74	3.08
370.189	3.09
370.637	3.09
371.085	3.09
371.533	3.09
371.981	3.1
372.429	3.12
372.877	3.13
373.325	3.14
373.773	3.15
374.221	3.16
374.669	3.17
375.116	3.18
375.564	3.2
376.012	3.21
376.459	3.23
376.907	3.25
377.354	3.27
377.801	3.3
378.249	3.32
378.696	3.34
379.143	3.35
379.591	3.38
380.038	3.4
380.485	3.42
380.932	3.45
381.379	3.47
381.826	3.49
382.273	3.51
382.72	3.51
383.166	3.53
383.613	3.55
384.06	3.57
384.506	3.6
384.953	3.62
385.4	3.64
385.846	3.67
386.292	3.68
386.739	3.7
387.185	3.72
387.631	3.75
388.078	3.77
388.524	3.79
388.97	3.81
389.416	3.85
389.862	3.88
390.308	3.91
390.754	3.94
391.2	3.97
391.645	3.99
392.091	4.04
392.537	4.07
392.983	4.1
393.428	4.14
393.874	4.16
394.319	4.18
394.765	4.2
395.21	4.22
395.655	4.24
396.101	4.26
396.546	4.28
396.991	4.3
397.436	4.32
397.881	4.35
398.326	4.37
398.771	4.39
399.216	4.4
399.661	4.42
400.106	4.44
400.551	4.46
400.995	4.46
401.44	4.47
401.885	4.49
402.329	4.5
402.774	4.5
403.218	4.53
403.663	4.54
404.107	4.57
404.551	4.58
404.995	4.58
405.44	4.58
405.884	4.6
406.328	4.62
406.772	4.61
407.216	4.62
407.66	4.63
408.104	4.63
408.547	4.63
408.991	4.64
409.435	4.65
409.879	4.67
410.322	4.69
410.766	4.7
411.209	4.71
411.653	4.73
412.096	4.75
412.54	4.75
412.983	4.76
413.426	4.81
413.869	4.81
414.312	4.83
414.756	4.83
415.199	4.82
415.642	4.83
416.085	4.84
416.527	4.84
416.97	4.83
417.413	4.83
417.856	4.85
418.298	4.83
418.741	4.83
419.184	4.83
419.626	4.83
420.069	4.84
420.511	4.83
420.953	4.84
421.396	4.85
421.838	4.86
422.28	4.87
422.722	4.87
423.164	4.87
423.606	4.87
424.048	4.87
424.49	4.88
424.932	4.87
425.374	4.87
425.816	4.84
426.258	4.83
426.699	4.81
427.141	4.8
427.582	4.8
428.024	4.8
428.465	4.81
428.907	4.79
429.348	4.79
429.789	4.79
430.231	4.81
430.672	4.84
431.113	4.87
431.554	4.88
431.995	4.9
432.436	4.91
432.877	4.92
433.318	4.94
433.759	4.97
434.2	4.99
434.64	5
435.081	5.01
435.522	5.03
435.962	5.02
436.403	5.05
436.843	5.06
437.284	5.06
437.724	5.06
438.164	5.06
438.604	5.06
439.045	5.07
439.485	5.08
439.925	5.09
440.365	5.08
440.805	5.1
441.245	5.13
441.685	5.14
442.125	5.16
442.564	5.18
443.004	5.18
443.444	5.18
443.883	5.2
444.323	5.2
444.762	5.19
445.202	5.21
445.641	5.23
446.081	5.23
446.52	5.23
446.959	5.26
447.398	5.27
447.837	5.3
448.276	5.33
448.716	5.36
449.154	5.39
449.593	5.42
450.032	5.43
450.471	5.42
450.91	5.41
451.349	5.42
451.787	5.41
452.226	5.42
452.664	5.42
453.103	5.41
453.541	5.4
453.98	5.41
454.418	5.38
454.856	5.39
455.295	5.39
455.733	5.39
456.171	5.39
456.609	5.39
457.047	5.38
457.485	5.37
457.923	5.37
458.361	5.36
458.798	5.35
459.236	5.35
459.674	5.35
460.111	5.34
460.549	5.34
460.987	5.34
461.424	5.34
461.862	5.34
462.299	5.35
462.736	5.35
463.173	5.35
463.611	5.37
464.048	5.38
464.485	5.38
464.922	5.38
465.359	5.38
465.796	5.41
466.233	5.43
466.67	5.43
467.106	5.43
467.543	5.44
467.98	5.43
468.416	5.41
468.853	5.4
469.29	5.39
469.726	5.4
470.162	5.39
470.599	5.36
471.035	5.35
471.471	5.34
471.907	5.33
472.344	5.33
472.78	5.34
473.216	5.33
473.652	5.34
474.088	5.33
474.523	5.33
474.959	5.33
475.395	5.31
475.831	5.31
476.266	5.31
476.702	5.31
477.138	5.31
477.573	5.31
478.008	5.31
478.444	5.29
478.879	5.3
479.314	5.28
479.75	5.28
480.185	5.27
480.62	5.26
481.055	5.25
481.49	5.25
481.925	5.24
482.36	5.23
482.795	5.23
483.229	5.23
483.664	5.23
484.099	5.23
484.534	5.24
484.968	5.25
485.403	5.25
485.837	5.25
486.271	5.26
486.706	5.27
487.14	5.27
487.574	5.28
488.009	5.3
488.443	5.32
488.877	5.33
489.311	5.34
489.745	5.37
490.179	5.41
490.613	5.45
491.046	5.47
491.48	5.51
491.914	5.55
492.348	5.59
492.781	5.63
493.215	5.67
493.648	5.71
494.082	5.75
494.515	5.8
494.948	5.84
495.382	5.88
495.815	5.93
496.248	5.99
496.681	6.05
497.114	6.11
497.547	6.17
497.98	6.24
498.413	6.31
498.846	6.39
499.279	6.46
499.711	6.54
500.144	6.63
500.577	6.73
501.009	6.82
501.442	6.91
501.874	7.01
502.306	7.12
502.739	7.26
503.171	7.37
503.603	7.5
504.036	7.63
504.468	7.76
504.9	7.89
505.332	8.02
505.764	8.18
506.196	8.33
506.627	8.5
507.059	8.67
507.491	8.82
507.923	8.99
508.354	9.18
508.786	9.38
509.217	9.58
509.649	9.78
510.08	9.99
510.512	10.21
510.943	10.41
511.374	10.63
511.805	10.85
512.237	11.08
512.668	11.31
513.099	11.54
513.53	11.76
513.961	12
514.391	12.25
514.822	12.51
515.253	12.76
515.684	13
516.114	13.26
516.545	13.51
516.975	13.78
517.406	14.04
517.836	14.31
518.267	14.6
518.697	14.86
519.127	15.1
519.558	15.36
519.988	15.63
520.418	15.89
520.848	16.13
521.278	16.37
521.708	16.84
522.138	17.08
522.567	17.3
522.997	17.52
523.427	17.74
523.857	17.96
524.286	18.16
524.716	18.37
525.145	18.57
525.575	18.79
526.004	19
526.433	18.96
526.863	19.13
527.292	19.32
527.721	19.48
528.15	19.64
528.579	19.78
529.008	19.95
529.437	20.09
529.866	20.22
530.295	20.34
530.724	20.47
531.152	20.58
531.581	20.7
532.01	20.8
532.438	20.91
532.867	21.02
533.295	21.12
533.723	21.19
534.152	21.27
534.58	21.36
535.008	21.42
535.436	21.48
535.865	21.53
536.293	21.58
536.721	21.62
537.149	21.67
537.576	21.71
538.004	21.76
538.432	21.79
538.86	21.83
539.287	21.84
539.715	21.89
540.143	21.91
540.57	21.94
540.998	21.96
541.425	22
541.852	22.03
542.28	22.07
542.707	22.09
543.134	22.11
543.561	22.14
543.988	22.18
544.415	22.19
544.842	22.21
545.269	22.24
545.696	22.27
546.123	22.29
546.549	22.32
546.976	22.35
547.403	22.37
547.829	22.39
548.256	22.4
548.682	22.41
549.108	22.45
549.535	22.47
549.961	22.49
550.387	22.5
550.813	22.52
551.24	22.51
551.666	22.49
552.092	22.5
552.518	22.5
552.943	22.5
553.369	22.49
553.795	22.46
554.221	22.43
554.646	22.4
555.072	22.37
555.498	22.32
555.923	22.27
556.349	22.21
556.774	22.16
557.199	22.1
557.625	22.03
558.05	21.97
558.475	21.9
558.9	21.85
559.325	21.79
559.75	21.72
560.175	21.65
560.6	21.56
561.025	21.48
561.449	21.39
561.874	21.28
562.299	21.19
562.723	21.07
563.148	20.95
563.572	20.8
563.997	20.66
564.421	20.52
564.846	20.37
565.27	20.23
565.694	20.09
566.118	19.95
566.542	19.82
566.966	19.67
567.39	19.53
567.814	19.38
568.238	19.26
568.662	19.12
569.086	18.99
569.509	18.85
569.933	18.72
570.357	18.59
570.78	18.45
571.204	18.32
571.627	18.21
572.05	18.07
572.474	17.97
572.897	17.85
573.32	17.73
573.743	17.61
574.166	17.52
574.589	17.41
575.012	17.29
575.435	17.19
575.858	17.09
576.281	16.97
576.704	16.87
577.126	16.77
577.549	16.67
577.972	16.58
578.394	16.48
578.817	16.4
579.239	16.33
579.661	16.24
580.084	16.17
580.506	16.1
580.928	16.03
581.35	15.96
581.772	15.88
582.194	15.81
582.616	15.75
583.038	15.67
583.46	15.59
583.882	15.52
584.303	15.45
584.725	15.39
585.147	15.34
585.568	15.3
585.99	15.25
586.411	15.19
586.833	15.14
587.254	15.08
587.675	15.04
588.096	14.99
588.518	14.92
588.939	14.88
589.36	14.83
589.781	14.77
590.202	14.72
590.623	14.67
591.043	14.63
591.464	14.6
591.885	14.56
592.305	14.53
592.726	14.5
593.147	14.48
593.567	14.44
593.987	14.4
594.408	14.35
594.828	14.3
595.248	14.28
595.669	14.26
596.089	14.22
596.509	14.2
596.929	14.16
597.349	14.12
597.769	14.1
598.189	14.06
598.608	14.04
599.028	14.02
599.448	13.99
599.867	13.95
600.287	13.9
600.706	13.86
601.126	13.83
601.545	13.79
601.965	13.76
602.384	13.72
602.803	13.67
603.222	13.62
603.641	13.57
604.061	13.53
604.48	13.47
604.898	13.41
605.317	13.36
605.736	13.3
606.155	13.24
606.574	13.17
606.992	13.1
607.411	13.04
607.829	12.94
608.248	12.86
608.666	12.78
609.085	12.72
609.503	12.65
609.921	12.58
610.339	12.51
610.758	12.44
611.176	12.36
611.594	12.29
612.012	12.22
612.43	12.17
612.847	12.11
613.265	12.05
613.683	11.99
614.101	11.92
614.518	11.84
614.936	11.78
615.353	11.71
615.771	11.65
616.188	11.58
616.606	11.53
617.023	11.47
617.44	11.43
617.857	11.38
618.274	11.32
618.691	11.28
619.108	11.24
619.525	11.2
619.942	11.16
620.359	11.13
620.776	11.09
621.192	11.05
621.609	11.03
622.026	11
622.442	10.97
622.859	10.94
623.275	10.92
623.691	10.91
624.108	10.89
624.524	10.87
624.94	10.86
625.356	10.86
625.772	10.84
626.188	10.83
626.604	10.82
627.02	10.81
627.436	10.8
627.852	10.8
628.268	10.78
628.683	10.77
629.099	10.76
629.514	10.75
629.93	10.74
630.345	10.73
630.761	10.69
631.176	10.66
631.591	10.63
632.007	10.59
632.422	10.55
632.837	10.51
633.252	10.46
633.667	10.41
634.082	10.34
634.497	10.3
634.911	10.22
635.326	10.16
635.741	10.1
636.155	10.03
636.57	9.95
636.984	9.89
637.399	9.81
637.813	9.73
638.228	9.63
638.642	9.53
639.056	9.42
639.47	9.34
639.884	9.25
640.298	9.15
640.712	9.05
641.126	8.95
641.54	8.84
641.954	8.73
642.368	8.63
642.781	8.54
643.195	8.45
643.609	8.36
644.022	8.25
644.436	8.18
644.849	8.08
645.262	8
645.676	7.92
646.089	7.85
646.502	7.79
646.915	7.73
647.328	7.67
647.741	7.62
648.154	7.56
648.567	7.52
648.98	7.47
649.393	7.43
649.805	7.4
650.218	7.36
650.631	7.33
651.043	7.28
651.456	7.25
651.868	7.21
652.28	7.18
652.693	7.15
653.105	7.1
653.517	7.06
653.929	7.03
654.341	6.97
654.753	6.93
655.165	6.87
655.577	6.83
655.989	6.77
656.401	6.71
656.813	6.66
657.224	6.59
657.636	6.51
658.047	6.45
658.459	6.38
658.87	6.31
659.282	6.22
659.693	6.16
660.104	6.09
660.515	6.01
660.926	5.94
661.338	5.87
661.749	5.8
662.159	5.74
662.57	5.67
662.981	5.63
663.392	5.58
663.803	5.53
664.213	5.48
664.624	5.43
665.035	5.39
665.445	5.35
665.855	5.32
666.266	5.3
666.676	5.29
667.086	5.26
667.497	5.23
667.907	5.2
668.317	5.19
668.727	5.18
669.137	5.17
669.547	5.17
669.956	5.16
670.366	5.15
670.776	5.15
671.186	5.15
671.595	5.16
672.005	5.15
672.414	5.17
672.824	5.17
673.233	5.18
673.642	5.18
674.052	5.19
674.461	5.2
674.87	5.22
675.279	5.25
675.688	5.27
676.097	5.29
676.506	5.33
676.915	5.34
677.323	5.37
677.732	5.39
678.141	5.43
678.549	5.47
678.958	5.52
679.366	5.57
679.775	5.59
680.183	5.66
680.592	5.72
681	5.77
681.408	5.86
681.816	5.95
682.224	6.03
682.632	6.14
683.04	6.24
683.448	6.35
683.856	6.47
684.264	6.62
684.671	6.76
685.079	6.92
685.487	7.12
685.894	7.32
686.302	7.54
686.709	7.78
687.116	8.03
687.524	8.32
687.931	8.63
688.338	8.96
688.745	9.3
689.152	9.67
689.559	10.07
689.966	10.49
690.373	10.9
690.78	11.35
691.187	11.81
691.593	12.29
692	12.78
692.407	13.25
692.813	13.76
693.22	14.27
693.626	14.78
694.032	15.3
694.439	15.83
694.845	16.39
695.251	16.92
695.657	17.44
696.063	17.97
696.469	18.5
696.875	19.05
697.281	19.56
697.687	20.1
698.093	20.64
698.498	21.15
698.904	21.65
699.31	22.13
699.715	22.62
700.12	23.12
700.526	23.62
700.931	24.12
701.337	24.58
701.742	25.06
702.147	25.51
702.552	25.96
702.957	26.4
703.362	26.86
703.767	27.29
704.172	27.73
704.577	28.14
704.981	28.55
705.386	28.95
705.791	29.36
706.195	29.75
706.6	30.15
707.004	30.53
707.408	30.92
707.813	31.3
708.217	31.67
708.621	32.03
709.025	32.4
709.43	32.73
709.834	33.09
710.237	33.42
710.641	33.75
711.045	34.08
711.449	34.4
711.853	34.73
712.256	35.03
712.66	35.32
713.064	35.61
713.467	35.89
713.87	36.2
714.274	36.46
714.677	36.76
715.08	37.04
715.484	37.3
715.887	37.59
716.29	37.81
716.693	38.07
717.096	38.33
717.499	38.6
717.901	38.84
718.304	39.07
718.707	39.31
719.109	39.53
719.512	39.76
719.915	39.98
720.317	40.14
720.719	40.34
721.122	40.52
721.524	40.72
721.926	40.91
722.328	41.1
722.731	41.27
723.133	41.43
723.535	41.6
723.937	41.75
724.338	41.9
724.74	42.1
725.142	42.4
725.544	42.56
725.945	42.73
726.347	42.86
726.748	42.99
727.15	43.14
727.551	43.29
727.952	43.4
728.354	43.53
728.755	43.64
729.156	43.72
729.557	43.7
729.958	43.78
730.359	43.85
730.76	43.95
731.161	44.03
731.562	44.11
731.962	44.16
732.363	44.26
732.763	44.34
733.164	44.43
733.564	44.51
733.965	44.57
734.365	44.66
734.766	44.74
735.166	44.8
735.566	44.88
735.966	44.95
736.366	45.02
736.766	45.06
737.166	45.09
737.566	45.14
737.966	45.21
738.365	45.24
738.765	45.29
739.165	45.32
739.564	45.37
739.964	45.4
740.363	45.41
740.763	45.46
741.162	45.5
741.561	45.53
741.96	45.57
742.36	45.58
742.759	45.63
743.158	45.65
743.557	45.68
743.955	45.72
744.354	45.73
744.753	45.77
745.152	45.81
745.55	45.84
745.949	45.86
746.348	45.89
746.746	45.92
747.144	45.93
747.543	45.92
747.941	45.95
748.339	45.93
748.737	45.95
749.136	45.95
749.534	45.92
749.932	45.92
750.33	45.93
750.727	45.95
751.125	45.96
751.523	45.97
751.921	46.02
752.318	46.05
752.716	46.08
753.113	46.09
753.511	46.12
753.908	46.18
754.305	46.21
754.703	46.22
755.1	46.23
755.497	46.21
755.894	46.22
756.291	46.22
756.688	46.2
757.085	46.2
757.482	46.19
757.878	46.2
758.275	46.17
758.672	46.16
759.068	46.16
759.465	46.13
759.861	46.14
760.258	46.13
760.654	46.12
761.05	46.14
761.447	46.16
761.843	46.15
762.239	46.13
762.635	46.12
763.031	46.11
763.427	46.1
763.822	46.11
764.218	46.13
764.614	46.13
765.01	46.12
765.405	46.08
765.801	46.05
766.196	46.05
766.592	46.05
766.987	46.07
767.382	46.09
767.778	46.09
768.173	46.09
768.568	46.06
768.963	46.08
769.358	46.12
769.753	46.15
770.148	46.17
770.542	46.17
770.937	46.17
771.332	46.18
771.726	46.16
772.121	46.15
772.515	46.17
772.91	46.18
773.304	46.2
773.699	46.19
774.093	46.17
774.487	46.15
774.881	46.19
775.275	46.19
775.669	46.15
776.063	46.14
776.457	46.14
776.851	46.12
777.245	46.11
777.638	46.03
778.032	46.04
778.425	46.07
778.819	46.07
779.212	46.07
779.606	46.09
779.999	46.13
780.392	46.17
780.786	46.18
781.179	46.2
781.572	46.23
781.965	46.27
782.358	46.27
782.751	46.24
783.143	46.26
