Data from C_3_DIV_PA_2N_Splice17_14-13-21-309.txt Node
Date: Sat Mar 07 14:13:21 EST 2020
User: sa697716
Spectrometer: NQ5500242
Trigger mode: 0
Integration Time (sec): 1.450000E-1
Scans to average: 20
Nonlinearity correction enabled: false
Boxcar width: 5
Storing dark spectrum: false
XAxis mode: Wavelengths
Number of Pixels in Spectrum: 512
>>>>>Begin Spectral Data<<<<<
187.83	193.27
188.298	213.23
188.766	160.41
189.233	137.38
189.701	144.03
190.169	166.64
190.636	210.08
191.104	246.36
191.571	419.86
192.039	553.34
192.506	285.13
192.974	53.66
193.441	258.18
193.908	32.04
194.375	57.32
194.842	7.13
195.31	7.3
195.777	18.93
196.244	59.71
196.711	71.21
197.177	72.92
197.644	71.67
198.111	71.51
198.578	70.86
199.045	71.64
199.511	71.21
199.978	71.54
200.445	71.85
200.911	72.03
201.378	72.23
201.844	72.01
202.31	71.75
202.777	71.9
203.243	71.79
203.709	71.53
204.176	70.96
204.642	70.69
205.108	70.52
205.574	70.32
206.04	69.66
206.506	68.72
206.972	68.4
207.438	67.94
207.903	67.31
208.369	66.14
208.835	65.03
209.301	63.81
209.766	62.23
210.232	60.5
210.697	58.75
211.163	57.63
211.628	56.83
212.094	55.65
212.559	54.39
213.024	53.12
213.49	52.2
213.955	51.46
214.42	50.64
214.885	49.84
215.35	48.67
215.815	47.01
216.28	44.59
216.745	41.89
217.21	39.15
217.675	36.47
218.14	34.15
218.604	32.06
219.069	30.2
219.534	28.59
219.998	27.32
220.463	26.31
220.927	25.31
221.392	24.52
221.856	23.87
222.32	23.28
222.785	22.85
223.249	22.42
223.713	21.99
224.177	21.65
224.642	21.34
225.106	20.98
225.57	20.58
226.034	20.27
226.497	19.96
226.961	19.64
227.425	19.36
227.889	19.08
228.353	18.78
228.816	18.5
229.28	18.21
229.744	17.93
230.207	17.66
230.671	17.42
231.134	17.17
231.597	16.95
232.061	16.72
232.524	16.48
232.987	16.24
233.45	16.04
233.914	15.83
234.377	15.62
234.84	15.44
235.303	15.27
235.766	15.11
236.229	14.95
236.691	14.79
237.154	14.64
237.617	14.51
238.08	14.37
238.542	14.22
239.005	14.11
239.468	13.99
239.93	13.87
240.393	13.73
240.855	13.59
241.317	13.46
241.78	13.32
242.242	13.17
242.704	13.03
243.166	12.89
243.629	12.77
244.091	12.63
244.553	12.5
245.015	12.37
245.477	12.24
245.939	12.13
246.4	11.99
246.862	11.88
247.324	11.76
247.786	11.63
248.247	11.5
248.709	11.36
249.17	11.21
249.632	11.1
250.093	10.97
250.555	10.84
251.016	10.72
251.477	10.58
251.939	10.47
252.4	10.37
252.861	10.25
253.322	10.16
253.783	10.07
254.244	9.99
254.705	9.9
255.166	9.82
255.627	9.73
256.088	9.66
256.549	9.6
257.009	9.52
257.47	9.44
257.931	9.36
258.391	9.27
258.852	9.18
259.312	9.1
259.773	9.01
260.233	8.93
260.694	8.85
261.154	8.76
261.614	8.68
262.074	8.6
262.534	8.52
262.994	8.46
263.455	8.4
263.915	8.33
264.374	8.28
264.834	8.22
265.294	8.16
265.754	8.12
266.214	8.07
266.673	8.02
267.133	7.98
267.593	7.94
268.052	7.9
268.512	7.87
268.971	7.83
269.431	7.79
269.89	7.76
270.349	7.72
270.809	7.69
271.268	7.66
271.727	7.64
272.186	7.61
272.645	7.58
273.104	7.55
273.563	7.52
274.022	7.5
274.481	7.48
274.94	7.45
275.399	7.42
275.857	7.39
276.316	7.37
276.775	7.34
277.233	7.32
277.692	7.3
278.15	7.28
278.609	7.26
279.067	7.25
279.525	7.22
279.984	7.21
280.442	7.2
280.9	7.19
281.358	7.18
281.816	7.17
282.274	7.16
282.732	7.14
283.19	7.13
283.648	7.13
284.106	7.11
284.564	7.11
285.021	7.11
285.479	7.11
285.937	7.11
286.394	7.1
286.852	7.09
287.309	7.08
287.767	7.06
288.224	7.04
288.682	7
289.139	6.97
289.596	6.93
290.053	6.88
290.511	6.84
290.968	6.79
291.425	6.75
291.882	6.71
292.339	6.67
292.796	6.64
293.252	6.61
293.709	6.59
294.166	6.57
294.623	6.55
295.079	6.53
295.536	6.52
295.992	6.49
296.449	6.47
296.905	6.46
297.362	6.44
297.818	6.42
298.274	6.4
298.731	6.37
299.187	6.35
299.643	6.33
300.099	6.31
300.555	6.3
301.011	6.28
301.467	6.26
301.923	6.24
302.379	6.23
302.835	6.22
303.291	6.21
303.746	6.2
304.202	6.2
304.658	6.19
305.113	6.18
305.569	6.17
306.024	6.16
306.479	6.15
306.935	6.15
307.39	6.15
307.845	6.15
308.301	6.14
308.756	6.14
309.211	6.13
309.666	6.14
310.121	6.14
310.576	6.13
311.031	6.14
311.486	6.14
311.94	6.15
312.395	6.16
312.85	6.16
313.305	6.16
313.759	6.17
314.214	6.16
314.668	6.14
315.123	6.14
315.577	6.14
316.032	6.13
316.486	6.12
316.94	6.1
317.394	6.07
317.849	6.04
318.303	6.02
318.757	5.99
319.211	5.97
319.665	5.95
320.119	5.93
320.572	5.91
321.026	5.88
321.48	5.86
321.934	5.84
322.387	5.84
322.841	5.83
323.295	5.82
323.748	5.81
324.202	5.81
324.655	5.8
325.108	5.8
325.562	5.79
326.015	5.8
326.468	5.8
326.921	5.79
327.374	5.78
327.827	5.77
328.28	5.76
328.733	5.76
329.186	5.75
329.639	5.74
330.092	5.73
330.545	5.73
330.997	5.72
331.45	5.71
331.903	5.71
332.355	5.72
332.808	5.73
333.26	5.74
333.713	5.74
334.165	5.74
334.617	5.76
335.069	5.76
335.522	5.77
335.974	5.78
336.426	5.78
336.878	5.78
337.33	5.78
337.782	5.78
338.234	5.79
338.686	5.79
339.137	5.79
339.589	5.78
340.041	5.78
340.493	5.76
340.944	5.74
341.396	5.73
341.847	5.71
342.299	5.69
342.75	5.66
343.201	5.63
343.653	5.61
344.104	5.57
344.555	5.55
345.006	5.53
345.457	5.52
345.908	5.51
346.359	5.5
346.81	5.48
347.261	5.47
347.712	5.47
348.163	5.46
348.613	5.47
349.064	5.47
349.515	5.47
349.965	5.47
350.416	5.46
350.866	5.45
351.317	5.44
351.767	5.45
352.217	5.45
352.668	5.45
353.118	5.45
353.568	5.44
354.018	5.44
354.468	5.45
354.918	5.46
355.368	5.47
355.818	5.48
356.268	5.48
356.718	5.48
357.168	5.49
357.617	5.5
358.067	5.5
358.517	5.52
358.966	5.53
359.416	5.54
359.865	5.53
360.315	5.54
360.764	5.55
361.213	5.55
361.663	5.55
362.112	5.55
362.561	5.56
363.01	5.57
363.459	5.55
363.908	5.55
364.357	5.56
364.806	5.56
365.255	5.56
365.703	5.57
366.152	5.58
366.601	5.59
367.05	5.6
367.498	5.6
367.947	5.61
368.395	5.63
368.844	5.64
369.292	5.64
369.74	5.66
370.189	5.67
370.637	5.67
371.085	5.67
371.533	5.67
371.981	5.68
372.429	5.68
372.877	5.68
373.325	5.68
373.773	5.69
374.221	5.69
374.669	5.7
375.116	5.69
375.564	5.69
376.012	5.71
376.459	5.71
376.907	5.74
377.354	5.76
377.801	5.77
378.249	5.77
378.696	5.79
379.143	5.8
379.591	5.8
380.038	5.82
380.485	5.83
380.932	5.84
381.379	5.85
381.826	5.85
382.273	5.85
382.72	5.84
383.166	5.85
383.613	5.85
384.06	5.85
384.506	5.86
384.953	5.87
385.4	5.89
385.846	5.91
386.292	5.93
386.739	5.95
387.185	5.97
387.631	6.01
388.078	6.02
388.524	6.04
388.97	6.06
389.416	6.09
389.862	6.12
390.308	6.15
390.754	6.19
391.2	6.22
391.645	6.25
392.091	6.28
392.537	6.32
392.983	6.37
393.428	6.41
393.874	6.45
394.319	6.49
394.765	6.51
395.21	6.54
395.655	6.57
396.101	6.61
396.546	6.63
396.991	6.66
397.436	6.7
397.881	6.75
398.326	6.8
398.771	6.85
399.216	6.89
399.661	6.95
400.106	6.99
400.551	7.02
400.995	7.05
401.44	7.1
401.885	7.13
402.329	7.16
402.774	7.19
403.218	7.23
403.663	7.28
404.107	7.32
404.551	7.36
404.995	7.39
405.44	7.43
405.884	7.47
406.328	7.52
406.772	7.57
407.216	7.62
407.66	7.66
408.104	7.69
408.547	7.72
408.991	7.75
409.435	7.79
409.879	7.84
410.322	7.9
410.766	7.96
411.209	8.01
411.653	8.08
412.096	8.12
412.54	8.17
412.983	8.23
413.426	8.3
413.869	8.35
414.312	8.43
414.756	8.49
415.199	8.53
415.642	8.57
416.085	8.62
416.527	8.65
416.97	8.68
417.413	8.7
417.856	8.72
418.298	8.74
418.741	8.76
419.184	8.78
419.626	8.8
420.069	8.83
420.511	8.85
420.953	8.86
421.396	8.88
421.838	8.9
422.28	8.94
422.722	8.99
423.164	9.01
423.606	9.05
424.048	9.08
424.49	9.11
424.932	9.13
425.374	9.13
425.816	9.13
426.258	9.14
426.699	9.14
427.141	9.14
427.582	9.16
428.024	9.2
428.465	9.23
428.907	9.25
429.348	9.25
429.789	9.27
430.231	9.33
430.672	9.38
431.113	9.43
431.554	9.47
431.995	9.51
432.436	9.54
432.877	9.56
433.318	9.57
433.759	9.6
434.2	9.67
434.64	9.71
435.081	9.75
435.522	9.79
435.962	9.84
436.403	9.92
436.843	9.96
437.284	9.99
437.724	10
438.164	10.02
438.604	10.05
439.045	10.06
439.485	10.07
439.925	10.07
440.365	10.09
440.805	10.09
441.245	10.08
441.685	10.11
442.125	10.16
442.564	10.19
443.004	10.22
443.444	10.24
443.883	10.26
444.323	10.3
444.762	10.35
445.202	10.38
445.641	10.41
446.081	10.45
446.52	10.46
446.959	10.49
447.398	10.52
447.837	10.54
448.276	10.55
448.716	10.58
449.154	10.62
449.593	10.63
450.032	10.63
450.471	10.63
450.91	10.63
451.349	10.64
451.787	10.63
452.226	10.61
452.664	10.61
453.103	10.6
453.541	10.58
453.98	10.55
454.418	10.53
454.856	10.51
455.295	10.49
455.733	10.44
456.171	10.42
456.609	10.4
457.047	10.36
457.485	10.33
457.923	10.32
458.361	10.29
458.798	10.28
459.236	10.26
459.674	10.25
460.111	10.23
460.549	10.25
460.987	10.24
461.424	10.23
461.862	10.25
462.299	10.25
462.736	10.22
463.173	10.22
463.611	10.21
464.048	10.22
464.485	10.21
464.922	10.21
465.359	10.2
465.796	10.21
466.233	10.2
466.67	10.2
467.106	10.2
467.543	10.21
467.98	10.2
468.416	10.21
468.853	10.21
469.29	10.23
469.726	10.22
470.162	10.22
470.599	10.21
471.035	10.2
471.471	10.19
471.907	10.18
472.344	10.16
472.78	10.16
473.216	10.14
473.652	10.15
474.088	10.12
474.523	10.12
474.959	10.11
475.395	10.1
475.831	10.11
476.266	10.11
476.702	10.1
477.138	10.11
477.573	10.1
478.008	10.11
478.444	10.08
478.879	10.07
479.314	10.07
479.75	10.06
480.185	10.04
480.62	10.02
481.055	10.01
481.49	10
481.925	9.99
482.36	9.98
482.795	9.96
483.229	9.96
483.664	9.97
484.099	9.96
484.534	9.95
484.968	9.96
485.403	9.96
485.837	9.97
486.271	9.99
486.706	9.99
487.14	10
487.574	10.01
488.009	10.03
488.443	10.04
488.877	10.05
489.311	10.08
489.745	10.09
490.179	10.12
490.613	10.15
491.046	10.17
491.48	10.2
491.914	10.23
492.348	10.26
492.781	10.29
493.215	10.33
493.648	10.37
494.082	10.41
494.515	10.44
494.948	10.48
495.382	10.52
495.815	10.57
496.248	10.62
496.681	10.69
497.114	10.74
497.547	10.8
497.98	10.87
498.413	10.93
498.846	11.01
499.279	11.08
499.711	11.16
500.144	11.24
500.577	11.32
501.009	11.4
501.442	11.49
501.874	11.59
502.306	11.67
502.739	11.77
503.171	11.89
503.603	11.99
504.036	12.11
504.468	12.23
504.9	12.35
505.332	12.48
505.764	12.6
506.196	12.74
506.627	12.88
507.059	13.03
507.491	13.18
507.923	13.34
508.354	13.51
508.786	13.68
509.217	13.85
509.649	14.03
510.08	14.2
510.512	14.39
510.943	14.58
511.374	14.77
511.805	14.98
512.237	15.18
512.668	15.4
513.099	15.6
513.53	15.82
513.961	16.04
514.391	16.28
514.822	16.51
515.253	16.74
515.684	16.97
516.114	17.19
516.545	17.42
516.975	17.66
517.406	17.87
517.836	18.1
518.267	18.33
518.697	18.56
519.127	18.77
519.558	18.99
519.988	19.23
520.418	19.47
520.848	19.7
521.278	19.91
521.708	20.13
522.138	20.34
522.567	20.55
522.997	20.75
523.427	20.96
523.857	21.17
524.286	21.36
524.716	21.55
525.145	21.72
525.575	21.9
526.004	22.08
526.433	22.25
526.863	22.42
527.292	22.59
527.721	22.75
528.15	22.89
528.579	23.02
529.008	23.16
529.437	23.28
529.866	23.42
530.295	23.55
530.724	23.67
531.152	23.78
531.581	23.89
532.01	24.01
532.438	24.12
532.867	24.22
533.295	24.31
533.723	24.4
534.152	24.47
534.58	24.55
535.008	24.59
535.436	24.65
535.865	24.69
536.293	24.75
536.721	24.8
537.149	24.85
537.576	24.88
538.004	24.94
538.432	24.98
538.86	25.02
539.287	25.05
539.715	25.11
540.143	25.14
540.57	25.18
540.998	25.21
541.425	25.23
541.852	25.26
542.28	25.3
542.707	25.33
543.134	25.36
543.561	25.42
543.988	25.46
544.415	25.48
544.842	25.52
545.269	25.55
545.696	25.6
546.123	25.62
546.549	25.64
546.976	25.68
547.403	25.72
547.829	25.75
548.256	25.78
548.682	25.81
549.108	25.84
549.535	25.89
549.961	25.91
550.387	25.94
550.813	25.97
551.24	25.99
551.666	26.02
552.092	26.03
552.518	26.04
552.943	26.04
553.369	26.04
553.795	26.04
554.221	26.03
554.646	26.01
555.072	25.99
555.498	25.97
555.923	25.96
556.349	25.93
556.774	25.89
557.199	25.86
557.625	25.8
558.05	25.75
558.475	25.71
558.9	25.66
559.325	25.6
559.75	25.52
560.175	25.44
560.6	25.34
561.025	25.25
561.449	25.17
561.874	25.07
562.299	24.97
562.723	24.86
563.148	24.74
563.572	24.63
563.997	24.52
564.421	24.4
564.846	24.29
565.27	24.16
565.694	24.04
566.118	23.89
566.542	23.76
566.966	23.62
567.39	23.48
567.814	23.33
568.238	23.18
568.662	23.05
569.086	22.92
569.509	22.78
569.933	22.65
570.357	22.51
570.78	22.37
571.204	22.24
571.627	22.13
572.05	22
572.474	21.9
572.897	21.79
573.32	21.66
573.743	21.55
574.166	21.43
574.589	21.34
575.012	21.24
575.435	21.14
575.858	21.04
576.281	20.95
576.704	20.87
577.126	20.79
577.549	20.72
577.972	20.64
578.394	20.57
578.817	20.52
579.239	20.45
579.661	20.39
580.084	20.33
580.506	20.29
580.928	20.22
581.35	20.17
581.772	20.09
582.194	20.02
582.616	19.98
583.038	19.93
583.46	19.86
583.882	19.8
584.303	19.73
584.725	19.68
585.147	19.64
585.568	19.6
585.99	19.55
586.411	19.5
586.833	19.46
587.254	19.4
587.675	19.36
588.096	19.32
588.518	19.28
588.939	19.25
589.36	19.19
589.781	19.15
590.202	19.1
590.623	19.07
591.043	19.03
591.464	18.99
591.885	18.96
592.305	18.93
592.726	18.9
593.147	18.87
593.567	18.84
593.987	18.8
594.408	18.78
594.828	18.75
595.248	18.72
595.669	18.7
596.089	18.67
596.509	18.64
596.929	18.6
597.349	18.57
597.769	18.54
598.189	18.5
598.608	18.49
599.028	18.46
599.448	18.43
599.867	18.4
600.287	18.38
600.706	18.35
601.126	18.33
601.545	18.3
601.965	18.29
602.384	18.27
602.803	18.24
603.222	18.21
603.641	18.18
604.061	18.16
604.48	18.11
604.898	18.07
605.317	18.04
605.736	18
606.155	17.97
606.574	17.92
606.992	17.88
607.411	17.84
607.829	17.77
608.248	17.72
608.666	17.67
609.085	17.63
609.503	17.59
609.921	17.53
610.339	17.47
610.758	17.42
611.176	17.37
611.594	17.31
612.012	17.25
612.43	17.22
612.847	17.18
613.265	17.13
613.683	17.07
614.101	17.03
614.518	16.97
614.936	16.93
615.353	16.87
615.771	16.84
616.188	16.79
616.606	16.76
617.023	16.71
617.44	16.68
617.857	16.65
618.274	16.62
618.691	16.57
619.108	16.54
619.525	16.51
619.942	16.48
620.359	16.44
620.776	16.4
621.192	16.37
621.609	16.35
622.026	16.32
622.442	16.29
622.859	16.27
623.275	16.25
623.691	16.24
624.108	16.23
624.524	16.21
624.94	16.2
625.356	16.21
625.772	16.19
626.188	16.19
626.604	16.17
627.02	16.16
627.436	16.14
627.852	16.13
628.268	16.12
628.683	16.11
629.099	16.1
629.514	16.08
629.93	16.05
630.345	16.02
630.761	15.97
631.176	15.92
631.591	15.88
632.007	15.83
632.422	15.77
632.837	15.69
633.252	15.62
633.667	15.54
634.082	15.45
634.497	15.37
634.911	15.27
635.326	15.18
635.741	15.08
636.155	14.97
636.57	14.85
636.984	14.74
637.399	14.62
637.813	14.5
638.228	14.37
638.642	14.23
639.056	14.09
639.47	13.96
639.884	13.81
640.298	13.68
640.712	13.55
641.126	13.41
641.54	13.27
641.954	13.14
642.368	13.02
642.781	12.9
643.195	12.8
643.609	12.69
644.022	12.58
644.436	12.49
644.849	12.39
645.262	12.3
645.676	12.23
646.089	12.16
646.502	12.09
646.915	12.04
647.328	11.99
647.741	11.93
648.154	11.88
648.567	11.84
648.98	11.8
649.393	11.77
649.805	11.74
650.218	11.72
650.631	11.7
651.043	11.68
651.456	11.64
651.868	11.61
652.28	11.58
652.693	11.56
653.105	11.53
653.517	11.5
653.929	11.48
654.341	11.45
654.753	11.4
655.165	11.37
655.577	11.33
655.989	11.29
656.401	11.26
656.813	11.23
657.224	11.16
657.636	11.11
658.047	11.07
658.459	11.01
658.87	10.96
659.282	10.89
659.693	10.82
660.104	10.75
660.515	10.69
660.926	10.63
661.338	10.57
661.749	10.52
662.159	10.45
662.57	10.39
662.981	10.33
663.392	10.28
663.803	10.24
664.213	10.18
664.624	10.14
665.035	10.08
665.445	10.04
665.855	10
666.266	9.96
666.676	9.95
667.086	9.91
667.497	9.88
667.907	9.85
668.317	9.83
668.727	9.82
669.137	9.8
669.547	9.8
669.956	9.79
670.366	9.78
670.776	9.78
671.186	9.77
671.595	9.77
672.005	9.78
672.414	9.78
672.824	9.78
673.233	9.79
673.642	9.79
674.052	9.8
674.461	9.81
674.87	9.84
675.279	9.86
675.688	9.88
676.097	9.92
676.506	9.96
676.915	10
677.323	10.04
677.732	10.08
678.141	10.13
678.549	10.19
678.958	10.26
679.366	10.34
679.775	10.4
680.183	10.48
680.592	10.58
681	10.67
681.408	10.79
681.816	10.92
682.224	11.06
682.632	11.2
683.04	11.35
683.448	11.52
683.856	11.7
684.264	11.91
684.671	12.14
685.079	12.36
685.487	12.64
685.894	12.93
686.302	13.25
686.709	13.6
687.116	13.99
687.524	14.39
687.931	14.84
688.338	15.31
688.745	15.8
689.152	16.33
689.559	16.88
689.966	17.45
690.373	18.03
690.78	18.64
691.187	19.26
691.593	19.9
692	20.55
692.407	21.21
692.813	21.89
693.22	22.57
693.626	23.26
694.032	23.96
694.439	24.68
694.845	25.4
695.251	26.12
695.657	26.82
696.063	27.55
696.469	28.28
696.875	29
697.281	29.7
697.687	30.41
698.093	31.1
698.498	31.78
698.904	32.46
699.31	33.12
699.715	33.78
700.12	34.44
700.526	35.07
700.931	35.71
701.337	36.34
701.742	36.95
702.147	37.57
702.552	38.2
702.957	38.78
703.362	39.35
703.767	39.91
704.172	40.47
704.577	41.02
704.981	41.57
705.386	42.11
705.791	42.62
706.195	43.16
706.6	43.66
707.004	44.12
707.408	44.62
707.813	45.13
708.217	45.61
708.621	46.08
709.025	46.54
709.43	46.97
709.834	47.41
710.237	47.85
710.641	48.25
711.045	48.64
711.449	49.07
711.853	49.47
712.256	49.83
712.66	50.18
713.064	50.52
713.467	50.83
713.87	51.15
714.274	51.42
714.677	51.71
715.08	51.97
715.484	52.25
715.887	52.53
716.29	52.79
716.693	53.07
717.096	53.37
717.499	53.71
717.901	54.04
718.304	54.38
718.707	54.71
719.109	55.03
719.512	55.37
719.915	55.66
720.317	55.91
720.719	56.16
721.122	56.41
721.524	56.64
721.926	56.86
722.328	57.08
722.731	57.29
723.133	57.5
723.535	57.68
723.937	57.88
724.338	58.06
724.74	58.25
725.142	58.49
725.544	58.66
725.945	58.84
726.347	58.98
726.748	59.14
727.15	59.28
727.551	59.45
727.952	59.61
728.354	59.76
728.755	59.93
729.156	60.11
729.557	60.22
729.958	60.36
730.359	60.52
730.76	60.67
731.161	60.8
731.562	60.93
731.962	61.01
732.363	61.13
732.763	61.24
733.164	61.33
733.564	61.41
733.965	61.51
734.365	61.63
734.766	61.68
735.166	61.74
735.566	61.79
735.966	61.84
736.366	61.92
736.766	61.95
737.166	62
737.566	62.03
737.966	62.09
738.365	62.11
738.765	62.13
739.165	62.19
739.564	62.27
739.964	62.32
740.363	62.36
740.763	62.39
741.162	62.44
741.561	62.47
741.96	62.5
742.36	62.51
742.759	62.53
743.158	62.56
743.557	62.6
743.955	62.63
744.354	62.69
744.753	62.77
745.152	62.83
745.55	62.88
745.949	62.93
746.348	62.98
746.746	63.03
747.144	63.09
747.543	63.12
747.941	63.13
748.339	63.14
748.737	63.15
749.136	63.12
749.534	63.08
749.932	63.08
750.33	63.08
750.727	63.09
751.125	63.08
751.523	63.06
751.921	63.05
752.318	63.05
752.716	63.04
753.113	63.01
753.511	63
753.908	63.01
754.305	62.95
754.703	62.85
755.1	62.69
755.497	62.45
755.894	62.13
756.291	61.75
756.688	61.34
757.085	60.98
757.482	60.69
757.878	60.36
758.275	60.04
758.672	59.76
759.068	59.55
759.465	59.36
759.861	59.31
760.258	59.38
760.654	59.52
761.05	59.7
761.447	59.85
761.843	59.96
762.239	60.13
762.635	60.33
763.031	60.53
763.427	60.73
763.822	60.98
764.218	61.25
764.614	61.45
765.01	61.61
765.405	61.78
765.801	61.91
766.196	62.06
766.592	62.17
766.987	62.26
767.382	62.34
767.778	62.39
768.173	62.44
768.568	62.43
768.963	62.44
769.358	62.47
769.753	62.47
770.148	62.52
770.542	62.53
770.937	62.55
771.332	62.51
771.726	62.54
772.121	62.55
772.515	62.53
772.91	62.52
773.304	62.53
773.699	62.52
774.093	62.5
774.487	62.48
