Data from C_3_DIV_PA_2N_Splice17_14-13-02-227.txt Node
Date: Sat Mar 07 14:13:02 EST 2020
User: sa697716
Spectrometer: NQ5500242
Trigger mode: 0
Integration Time (sec): 1.450000E-1
Scans to average: 20
Nonlinearity correction enabled: false
Boxcar width: 5
Storing dark spectrum: false
XAxis mode: Wavelengths
Number of Pixels in Spectrum: 512
>>>>>Begin Spectral Data<<<<<
187.83	190.93
188.298	192.4
188.766	163.43
189.233	142.82
189.701	141.01
190.169	157.38
190.636	163.67
191.104	295.77
191.571	278.13
192.039	327.27
192.506	222.15
192.974	20.65
193.441	-11.02
193.908	-8.41
194.375	53.08
194.842	5.66
195.31	-12.19
195.777	-263.83
196.244	66.6
196.711	69.37
197.177	71.86
197.644	71.2
198.111	71.66
198.578	71.79
199.045	71.8
199.511	71.81
199.978	72.29
200.445	72.72
200.911	72.87
201.378	72.45
201.844	72.26
202.31	71.93
202.777	72.11
203.243	72.01
203.709	71.96
204.176	71.51
204.642	71
205.108	70.75
205.574	70.09
206.04	69.42
206.506	69.26
206.972	69.18
207.438	68.72
207.903	67.9
208.369	66.78
208.835	65.37
209.301	64.1
209.766	62.47
210.232	60.7
210.697	59.36
211.163	58.21
211.628	56.98
212.094	55.81
212.559	54.85
213.024	53.75
213.49	52.83
213.955	52.09
214.42	51.29
214.885	50.44
215.35	49.4
215.815	47.52
216.28	45.24
216.745	42.36
217.21	39.58
217.675	36.85
218.14	34.47
218.604	32.31
219.069	30.51
219.534	29
219.998	27.71
220.463	26.63
220.927	25.68
221.392	24.88
221.856	24.24
222.32	23.63
222.785	23.16
223.249	22.67
223.713	22.26
224.177	21.88
224.642	21.52
225.106	21.16
225.57	20.78
226.034	20.46
226.497	20.12
226.961	19.81
227.425	19.52
227.889	19.23
228.353	18.96
228.816	18.68
229.28	18.39
229.744	18.13
230.207	17.87
230.671	17.61
231.134	17.35
231.597	17.14
232.061	16.92
232.524	16.69
232.987	16.47
233.45	16.27
233.914	16.06
234.377	15.87
234.84	15.66
235.303	15.49
235.766	15.32
236.229	15.17
236.691	14.99
237.154	14.83
237.617	14.68
238.08	14.54
238.542	14.39
239.005	14.27
239.468	14.14
239.93	14.02
240.393	13.88
240.855	13.74
241.317	13.61
241.78	13.48
242.242	13.34
242.704	13.2
243.166	13.07
243.629	12.96
244.091	12.81
244.553	12.67
245.015	12.53
245.477	12.4
245.939	12.28
246.4	12.15
246.862	12.02
247.324	11.9
247.786	11.78
248.247	11.64
248.709	11.5
249.17	11.36
249.632	11.24
250.093	11.13
250.555	11.01
251.016	10.89
251.477	10.76
251.939	10.64
252.4	10.53
252.861	10.41
253.322	10.31
253.783	10.22
254.244	10.14
254.705	10.04
255.166	9.96
255.627	9.88
256.088	9.8
256.549	9.73
257.009	9.65
257.47	9.56
257.931	9.48
258.391	9.39
258.852	9.3
259.312	9.21
259.773	9.13
260.233	9.04
260.694	8.96
261.154	8.88
261.614	8.81
262.074	8.73
262.534	8.65
262.994	8.59
263.455	8.54
263.915	8.47
264.374	8.41
264.834	8.36
265.294	8.3
265.754	8.25
266.214	8.2
266.673	8.15
267.133	8.1
267.593	8.06
268.052	8.02
268.512	7.99
268.971	7.95
269.431	7.92
269.89	7.88
270.349	7.86
270.809	7.82
271.268	7.79
271.727	7.76
272.186	7.75
272.645	7.73
273.104	7.69
273.563	7.66
274.022	7.64
274.481	7.62
274.94	7.59
275.399	7.56
275.857	7.54
276.316	7.51
276.775	7.49
277.233	7.46
277.692	7.43
278.15	7.41
278.609	7.38
279.067	7.36
279.525	7.35
279.984	7.33
280.442	7.31
280.9	7.3
281.358	7.29
281.816	7.28
282.274	7.27
282.732	7.26
283.19	7.25
283.648	7.25
284.106	7.25
284.564	7.25
285.021	7.25
285.479	7.26
285.937	7.26
286.394	7.25
286.852	7.24
287.309	7.23
287.767	7.2
288.224	7.18
288.682	7.15
289.139	7.11
289.596	7.07
290.053	7.03
290.511	6.97
290.968	6.93
291.425	6.88
291.882	6.84
292.339	6.79
292.796	6.76
293.252	6.73
293.709	6.71
294.166	6.69
294.623	6.67
295.079	6.65
295.536	6.63
295.992	6.61
296.449	6.6
296.905	6.58
297.362	6.57
297.818	6.55
298.274	6.53
298.731	6.51
299.187	6.48
299.643	6.46
300.099	6.44
300.555	6.42
301.011	6.41
301.467	6.39
301.923	6.37
302.379	6.36
302.835	6.35
303.291	6.34
303.746	6.32
304.202	6.32
304.658	6.32
305.113	6.31
305.569	6.3
306.024	6.3
306.479	6.29
306.935	6.28
307.39	6.29
307.845	6.28
308.301	6.27
308.756	6.28
309.211	6.28
309.666	6.28
310.121	6.28
310.576	6.28
311.031	6.28
311.486	6.28
311.94	6.29
312.395	6.29
312.85	6.3
313.305	6.31
313.759	6.31
314.214	6.3
314.668	6.29
315.123	6.29
315.577	6.28
316.032	6.28
316.486	6.27
316.94	6.25
317.394	6.23
317.849	6.22
318.303	6.19
318.757	6.16
319.211	6.15
319.665	6.12
320.119	6.1
320.572	6.06
321.026	6.05
321.48	6.03
321.934	6
322.387	5.98
322.841	5.97
323.295	5.95
323.748	5.95
324.202	5.94
324.655	5.93
325.108	5.92
325.562	5.93
326.015	5.92
326.468	5.91
326.921	5.92
327.374	5.9
327.827	5.9
328.28	5.89
328.733	5.88
329.186	5.87
329.639	5.87
330.092	5.87
330.545	5.87
330.997	5.87
331.45	5.88
331.903	5.88
332.355	5.89
332.808	5.89
333.26	5.9
333.713	5.9
334.165	5.91
334.617	5.92
335.069	5.92
335.522	5.92
335.974	5.93
336.426	5.93
336.878	5.92
337.33	5.91
337.782	5.91
338.234	5.91
338.686	5.91
339.137	5.91
339.589	5.89
340.041	5.89
340.493	5.87
340.944	5.85
341.396	5.84
341.847	5.82
342.299	5.8
342.75	5.78
343.201	5.75
343.653	5.73
344.104	5.71
344.555	5.69
345.006	5.66
345.457	5.65
345.908	5.65
346.359	5.64
346.81	5.63
347.261	5.62
347.712	5.62
348.163	5.61
348.613	5.6
349.064	5.6
349.515	5.6
349.965	5.6
350.416	5.59
350.866	5.58
351.317	5.57
351.767	5.58
352.217	5.58
352.668	5.59
353.118	5.61
353.568	5.61
354.018	5.62
354.468	5.62
354.918	5.63
355.368	5.64
355.818	5.65
356.268	5.66
356.718	5.66
357.168	5.66
357.617	5.66
358.067	5.65
358.517	5.66
358.966	5.67
359.416	5.66
359.865	5.67
360.315	5.67
360.764	5.67
361.213	5.67
361.663	5.67
362.112	5.68
362.561	5.69
363.01	5.7
363.459	5.7
363.908	5.69
364.357	5.7
364.806	5.71
365.255	5.72
365.703	5.73
366.152	5.74
366.601	5.76
367.05	5.76
367.498	5.76
367.947	5.76
368.395	5.77
368.844	5.79
369.292	5.8
369.74	5.81
370.189	5.81
370.637	5.81
371.085	5.81
371.533	5.82
371.981	5.82
372.429	5.83
372.877	5.84
373.325	5.84
373.773	5.85
374.221	5.85
374.669	5.84
375.116	5.84
375.564	5.84
376.012	5.85
376.459	5.86
376.907	5.87
377.354	5.89
377.801	5.91
378.249	5.91
378.696	5.92
379.143	5.95
379.591	5.96
380.038	5.98
380.485	5.99
380.932	6
381.379	6.01
381.826	6.01
382.273	6.02
382.72	6.01
383.166	6.02
383.613	6.02
384.06	6.01
384.506	6.02
384.953	6.03
385.4	6.05
385.846	6.08
386.292	6.1
386.739	6.13
387.185	6.14
387.631	6.18
388.078	6.2
388.524	6.23
388.97	6.26
389.416	6.28
389.862	6.32
390.308	6.36
390.754	6.38
391.2	6.4
391.645	6.43
392.091	6.48
392.537	6.52
392.983	6.55
393.428	6.59
393.874	6.63
394.319	6.68
394.765	6.7
395.21	6.73
395.655	6.76
396.101	6.8
396.546	6.83
396.991	6.87
397.436	6.9
397.881	6.95
398.326	7
398.771	7.04
399.216	7.09
399.661	7.14
400.106	7.18
400.551	7.22
400.995	7.25
401.44	7.27
401.885	7.3
402.329	7.32
402.774	7.36
403.218	7.42
403.663	7.46
404.107	7.5
404.551	7.54
404.995	7.58
405.44	7.62
405.884	7.68
406.328	7.75
406.772	7.8
407.216	7.85
407.66	7.89
408.104	7.91
408.547	7.95
408.991	7.99
409.435	8.03
409.879	8.08
410.322	8.13
410.766	8.17
411.209	8.22
411.653	8.28
412.096	8.33
412.54	8.38
412.983	8.43
413.426	8.5
413.869	8.57
414.312	8.66
414.756	8.71
415.199	8.76
415.642	8.81
416.085	8.85
416.527	8.88
416.97	8.91
417.413	8.94
417.856	8.96
418.298	8.97
418.741	8.97
419.184	8.98
419.626	9
420.069	9.03
420.511	9.05
420.953	9.06
421.396	9.09
421.838	9.12
422.28	9.15
422.722	9.2
423.164	9.23
423.606	9.27
424.048	9.29
424.49	9.33
424.932	9.36
425.374	9.36
425.816	9.35
426.258	9.35
426.699	9.34
427.141	9.34
427.582	9.35
428.024	9.38
428.465	9.41
428.907	9.43
429.348	9.43
429.789	9.45
430.231	9.49
430.672	9.55
431.113	9.61
431.554	9.67
431.995	9.72
432.436	9.76
432.877	9.78
433.318	9.81
433.759	9.86
434.2	9.92
434.64	9.95
435.081	10
435.522	10.03
435.962	10.06
436.403	10.12
436.843	10.16
437.284	10.17
437.724	10.18
438.164	10.19
438.604	10.22
439.045	10.24
439.485	10.25
439.925	10.26
440.365	10.27
440.805	10.29
441.245	10.3
441.685	10.33
442.125	10.37
442.564	10.41
443.004	10.43
443.444	10.44
443.883	10.47
444.323	10.51
444.762	10.54
445.202	10.56
445.641	10.59
446.081	10.62
446.52	10.63
446.959	10.67
447.398	10.7
447.837	10.73
448.276	10.75
448.716	10.77
449.154	10.81
449.593	10.84
450.032	10.84
450.471	10.85
450.91	10.83
451.349	10.85
451.787	10.85
452.226	10.84
452.664	10.82
453.103	10.81
453.541	10.78
453.98	10.75
454.418	10.71
454.856	10.69
455.295	10.68
455.733	10.65
456.171	10.61
456.609	10.58
457.047	10.55
457.485	10.53
457.923	10.52
458.361	10.5
458.798	10.49
459.236	10.48
459.674	10.46
460.111	10.44
460.549	10.44
460.987	10.43
461.424	10.43
461.862	10.42
462.299	10.42
462.736	10.4
463.173	10.4
463.611	10.4
464.048	10.4
464.485	10.39
464.922	10.4
465.359	10.4
465.796	10.39
466.233	10.4
466.67	10.4
467.106	10.41
467.543	10.41
467.98	10.41
468.416	10.4
468.853	10.41
469.29	10.43
469.726	10.43
470.162	10.43
470.599	10.44
471.035	10.43
471.471	10.42
471.907	10.4
472.344	10.4
472.78	10.4
473.216	10.4
473.652	10.39
474.088	10.36
474.523	10.36
474.959	10.35
475.395	10.33
475.831	10.32
476.266	10.34
476.702	10.34
477.138	10.33
477.573	10.32
478.008	10.32
478.444	10.3
478.879	10.3
479.314	10.29
479.75	10.28
480.185	10.26
480.62	10.26
481.055	10.24
481.49	10.22
481.925	10.21
482.36	10.19
482.795	10.17
483.229	10.17
483.664	10.16
484.099	10.15
484.534	10.16
484.968	10.16
485.403	10.17
485.837	10.17
486.271	10.19
486.706	10.19
487.14	10.2
487.574	10.22
488.009	10.23
488.443	10.24
488.877	10.26
489.311	10.27
489.745	10.3
490.179	10.32
490.613	10.34
491.046	10.36
491.48	10.39
491.914	10.43
492.348	10.46
492.781	10.5
493.215	10.55
493.648	10.59
494.082	10.63
494.515	10.66
494.948	10.7
495.382	10.74
495.815	10.8
496.248	10.86
496.681	10.92
497.114	10.97
497.547	11.03
497.98	11.09
498.413	11.15
498.846	11.22
499.279	11.3
499.711	11.38
500.144	11.46
500.577	11.54
501.009	11.61
501.442	11.71
501.874	11.81
502.306	11.9
502.739	12.03
503.171	12.14
503.603	12.24
504.036	12.36
504.468	12.47
504.9	12.59
505.332	12.72
505.764	12.86
506.196	12.99
506.627	13.13
507.059	13.27
507.491	13.41
507.923	13.57
508.354	13.75
508.786	13.93
509.217	14.1
509.649	14.29
510.08	14.47
510.512	14.66
510.943	14.86
511.374	15.05
511.805	15.26
512.237	15.46
512.668	15.67
513.099	15.86
513.53	16.08
513.961	16.31
514.391	16.53
514.822	16.77
515.253	16.99
515.684	17.21
516.114	17.45
516.545	17.69
516.975	17.93
517.406	18.15
517.836	18.39
518.267	18.64
518.697	18.84
519.127	19.07
519.558	19.3
519.988	19.53
520.418	19.76
520.848	19.99
521.278	20.2
521.708	20.44
522.138	20.66
522.567	20.87
522.997	21.07
523.427	21.3
523.857	21.47
524.286	21.66
524.716	21.86
525.145	22.06
525.575	22.24
526.004	22.43
526.433	22.59
526.863	22.75
527.292	22.92
527.721	23.06
528.15	23.21
528.579	23.37
529.008	23.5
529.437	23.63
529.866	23.76
530.295	23.89
530.724	24
531.152	24.12
531.581	24.24
532.01	24.33
532.438	24.44
532.867	24.53
533.295	24.63
533.723	24.71
534.152	24.78
534.58	24.85
535.008	24.9
535.436	24.96
535.865	25.01
536.293	25.07
536.721	25.13
537.149	25.18
537.576	25.23
538.004	25.26
538.432	25.31
538.86	25.35
539.287	25.37
539.715	25.42
540.143	25.46
540.57	25.49
540.998	25.52
541.425	25.56
541.852	25.58
542.28	25.61
542.707	25.64
543.134	25.67
543.561	25.72
543.988	25.76
544.415	25.77
544.842	25.81
545.269	25.85
545.696	25.86
546.123	25.9
546.549	25.94
546.976	25.97
547.403	26.02
547.829	26.05
548.256	26.09
548.682	26.11
549.108	26.15
549.535	26.19
549.961	26.22
550.387	26.25
550.813	26.26
551.24	26.28
551.666	26.3
552.092	26.31
552.518	26.32
552.943	26.32
553.369	26.31
553.795	26.32
554.221	26.31
554.646	26.29
555.072	26.27
555.498	26.24
555.923	26.21
556.349	26.18
556.774	26.15
557.199	26.1
557.625	26.06
558.05	26.03
558.475	25.97
558.9	25.92
559.325	25.86
559.75	25.8
560.175	25.74
560.6	25.66
561.025	25.58
561.449	25.49
561.874	25.38
562.299	25.28
562.723	25.18
563.148	25.08
563.572	24.94
563.997	24.83
564.421	24.69
564.846	24.57
565.27	24.42
565.694	24.29
566.118	24.15
566.542	24.01
566.966	23.85
567.39	23.71
567.814	23.56
568.238	23.42
568.662	23.27
569.086	23.13
569.509	22.98
569.933	22.87
570.357	22.73
570.78	22.59
571.204	22.48
571.627	22.37
572.05	22.24
572.474	22.14
572.897	22.04
573.32	21.93
573.743	21.84
574.166	21.74
574.589	21.63
575.012	21.54
575.435	21.46
575.858	21.39
576.281	21.31
576.704	21.23
577.126	21.14
577.549	21.05
577.972	20.99
578.394	20.9
578.817	20.84
579.239	20.77
579.661	20.69
580.084	20.62
580.506	20.55
580.928	20.49
581.35	20.41
581.772	20.36
582.194	20.3
582.616	20.26
583.038	20.21
583.46	20.15
583.882	20.08
584.303	20.02
584.725	19.97
585.147	19.92
585.568	19.87
585.99	19.83
586.411	19.79
586.833	19.72
587.254	19.67
587.675	19.64
588.096	19.59
588.518	19.56
588.939	19.53
589.36	19.5
589.781	19.46
590.202	19.42
590.623	19.38
591.043	19.33
591.464	19.32
591.885	19.28
592.305	19.23
592.726	19.2
593.147	19.17
593.567	19.14
593.987	19.11
594.408	19.07
594.828	19.04
595.248	19.02
595.669	18.99
596.089	18.95
596.509	18.92
596.929	18.9
597.349	18.88
597.769	18.84
598.189	18.81
598.608	18.78
599.028	18.76
599.448	18.72
599.867	18.69
600.287	18.66
600.706	18.63
601.126	18.6
601.545	18.57
601.965	18.55
602.384	18.53
602.803	18.5
603.222	18.47
603.641	18.43
604.061	18.4
604.48	18.37
604.898	18.32
605.317	18.31
605.736	18.26
606.155	18.23
606.574	18.17
606.992	18.12
607.411	18.08
607.829	18.01
608.248	17.96
608.666	17.91
609.085	17.87
609.503	17.84
609.921	17.79
610.339	17.74
610.758	17.69
611.176	17.64
611.594	17.59
612.012	17.55
612.43	17.52
612.847	17.47
613.265	17.42
613.683	17.37
614.101	17.32
614.518	17.26
614.936	17.2
615.353	17.14
615.771	17.1
616.188	17.05
616.606	17.01
617.023	16.98
617.44	16.95
617.857	16.91
618.274	16.86
618.691	16.81
619.108	16.77
619.525	16.74
619.942	16.72
620.359	16.69
620.776	16.66
621.192	16.62
621.609	16.59
622.026	16.58
622.442	16.57
622.859	16.56
623.275	16.55
623.691	16.53
624.108	16.52
624.524	16.51
624.94	16.5
625.356	16.49
625.772	16.48
626.188	16.49
626.604	16.47
627.02	16.44
627.436	16.42
627.852	16.42
628.268	16.41
628.683	16.4
629.099	16.38
629.514	16.37
629.93	16.33
630.345	16.31
630.761	16.26
631.176	16.22
631.591	16.16
632.007	16.13
632.422	16.07
632.837	16.01
633.252	15.92
633.667	15.84
634.082	15.73
634.497	15.65
634.911	15.55
635.326	15.46
635.741	15.35
636.155	15.24
636.57	15.11
636.984	14.98
637.399	14.86
637.813	14.73
638.228	14.59
638.642	14.46
639.056	14.33
639.47	14.19
639.884	14.06
640.298	13.92
640.712	13.78
641.126	13.66
641.54	13.53
641.954	13.4
642.368	13.28
642.781	13.18
643.195	13.06
643.609	12.95
644.022	12.84
644.436	12.74
644.849	12.65
645.262	12.56
645.676	12.47
646.089	12.4
646.502	12.34
646.915	12.27
647.328	12.21
647.741	12.16
648.154	12.1
648.567	12.06
648.98	12.01
649.393	11.97
649.805	11.95
650.218	11.93
650.631	11.91
651.043	11.88
651.456	11.85
651.868	11.82
652.28	11.8
652.693	11.79
653.105	11.76
653.517	11.73
653.929	11.71
654.341	11.68
654.753	11.65
655.165	11.61
655.577	11.56
655.989	11.54
656.401	11.5
656.813	11.46
657.224	11.4
657.636	11.36
658.047	11.31
658.459	11.26
658.87	11.21
659.282	11.14
659.693	11.08
660.104	11.01
660.515	10.94
660.926	10.88
661.338	10.82
661.749	10.76
662.159	10.7
662.57	10.64
662.981	10.58
663.392	10.51
663.803	10.46
664.213	10.41
664.624	10.37
665.035	10.32
665.445	10.28
665.855	10.24
666.266	10.19
666.676	10.17
667.086	10.14
667.497	10.11
667.907	10.1
668.317	10.07
668.727	10.06
669.137	10.04
669.547	10.03
669.956	10.03
670.366	10.03
670.776	10.02
671.186	10.02
671.595	10.01
672.005	10.01
672.414	10.02
672.824	10.01
673.233	10.02
673.642	10.04
674.052	10.05
674.461	10.05
674.87	10.06
675.279	10.1
675.688	10.12
676.097	10.16
676.506	10.19
676.915	10.22
677.323	10.27
677.732	10.31
678.141	10.36
678.549	10.41
678.958	10.47
679.366	10.54
679.775	10.61
680.183	10.7
680.592	10.8
681	10.9
681.408	11
681.816	11.13
682.224	11.27
682.632	11.4
683.04	11.55
683.448	11.73
683.856	11.91
684.264	12.12
684.671	12.34
685.079	12.58
685.487	12.85
685.894	13.15
686.302	13.48
686.709	13.84
687.116	14.23
687.524	14.65
687.931	15.09
688.338	15.56
688.745	16.06
689.152	16.58
689.559	17.13
689.966	17.69
690.373	18.28
690.78	18.89
691.187	19.51
691.593	20.15
692	20.81
692.407	21.47
692.813	22.15
693.22	22.82
693.626	23.53
694.032	24.24
694.439	24.95
694.845	25.68
695.251	26.38
695.657	27.09
696.063	27.83
696.469	28.54
696.875	29.25
697.281	29.95
697.687	30.65
698.093	31.34
698.498	32.02
698.904	32.71
699.31	33.38
699.715	34.06
700.12	34.73
700.526	35.37
700.931	36.02
701.337	36.65
701.742	37.27
702.147	37.9
702.552	38.54
702.957	39.11
703.362	39.68
703.767	40.23
704.172	40.77
704.577	41.31
704.981	41.85
705.386	42.39
705.791	42.93
706.195	43.45
706.6	43.96
707.004	44.42
707.408	44.93
707.813	45.42
708.217	45.91
708.621	46.4
709.025	46.83
709.43	47.25
709.834	47.71
710.237	48.11
710.641	48.53
711.045	48.92
711.449	49.34
711.853	49.73
712.256	50.09
712.66	50.46
713.064	50.79
713.467	51.12
713.87	51.46
714.274	51.73
714.677	52.04
715.08	52.3
715.484	52.56
715.887	52.84
716.29	53.11
716.693	53.41
717.096	53.7
717.499	54.02
717.901	54.35
718.304	54.65
718.707	54.97
719.109	55.27
719.512	55.57
719.915	55.88
720.317	56.14
720.719	56.39
721.122	56.63
721.524	56.85
721.926	57.05
722.328	57.27
722.731	57.49
723.133	57.71
723.535	57.92
723.937	58.14
724.338	58.32
724.74	58.5
725.142	58.73
725.544	58.9
725.945	59.07
726.347	59.22
726.748	59.35
727.15	59.49
727.551	59.67
727.952	59.81
728.354	59.95
728.755	60.1
729.156	60.27
729.557	60.38
729.958	60.51
730.359	60.67
730.76	60.81
731.161	60.97
731.562	61.12
731.962	61.21
732.363	61.35
732.763	61.45
733.164	61.54
733.564	61.63
733.965	61.7
734.365	61.8
734.766	61.84
735.166	61.93
735.566	61.98
735.966	62.03
736.366	62.08
736.766	62.11
737.166	62.17
737.566	62.22
737.966	62.25
738.365	62.33
738.765	62.38
739.165	62.44
739.564	62.49
739.964	62.52
740.363	62.55
740.763	62.61
741.162	62.66
741.561	62.68
741.96	62.72
742.36	62.77
742.759	62.81
743.158	62.84
743.557	62.86
743.955	62.9
744.354	62.95
744.753	63.02
745.152	63.06
745.55	63.09
745.949	63.14
746.348	63.19
746.746	63.23
747.144	63.28
747.543	63.32
747.941	63.36
748.339	63.36
748.737	63.38
749.136	63.38
749.534	63.39
749.932	63.4
750.33	63.4
750.727	63.4
751.125	63.39
751.523	63.36
751.921	63.32
752.318	63.32
752.716	63.29
753.113	63.25
753.511	63.24
753.908	63.24
754.305	63.19
754.703	63.09
755.1	62.93
755.497	62.68
755.894	62.34
756.291	62
756.688	61.59
757.085	61.29
757.482	60.99
757.878	60.65
758.275	60.34
758.672	60.04
759.068	59.81
759.465	59.63
759.861	59.59
760.258	59.66
760.654	59.75
761.05	59.92
761.447	60.07
761.843	60.2
762.239	60.35
762.635	60.52
763.031	60.75
763.427	60.97
763.822	61.2
764.218	61.41
764.614	61.65
765.01	61.85
765.405	62.01
765.801	62.11
766.196	62.3
766.592	62.44
766.987	62.52
767.382	62.58
767.778	62.63
768.173	62.67
768.568	62.69
768.963	62.68
769.358	62.73
769.753	62.73
770.148	62.77
770.542	62.75
770.937	62.76
771.332	62.74
771.726	62.75
772.121	62.73
772.515	62.73
772.91	62.75
773.304	62.78
