Data from C_3_HIR_WI_4N_Splice17_14-02-12-991.txt Node
Date: Sat Mar 07 14:02:12 EST 2020
User: sa697716
Spectrometer: NQ5500242
Trigger mode: 0
Integration Time (sec): 1.450000E-1
Scans to average: 20
Nonlinearity correction enabled: false
Boxcar width: 5
Storing dark spectrum: false
XAxis mode: Wavelengths
Number of Pixels in Spectrum: 512
>>>>>Begin Spectral Data<<<<<
187.83	45.22
188.298	68.07
188.766	43.92
189.233	30.42
189.701	26.81
190.169	32.58
190.636	17.34
191.104	21.69
191.571	85.91
192.039	-47.74
192.506	-539.85
192.974	144.92
193.441	325.99
193.908	52.79
194.375	-12.6
194.842	-52.31
195.31	-48.04
195.777	-238.02
196.244	44.55
196.711	54.84
197.177	58.18
197.644	56.7
198.111	56.56
198.578	56.67
199.045	57.53
199.511	57.75
199.978	57.84
200.445	57.91
200.911	58.11
201.378	58.05
201.844	57.76
202.31	57.31
202.777	57.61
203.243	57.56
203.709	57.29
204.176	56.84
204.642	56.65
205.108	56.48
205.574	55.93
206.04	55.23
206.506	54.75
206.972	54.83
207.438	54.23
207.903	53.36
208.369	52.41
208.835	51.35
209.301	50.23
209.766	48.68
210.232	47.36
210.697	46.11
211.163	44.92
211.628	43.82
212.094	42.5
212.559	41.63
213.024	40.65
213.49	39.55
213.955	38.54
214.42	37.78
214.885	36.85
215.35	35.46
215.815	33.73
216.28	31.47
216.745	28.83
217.21	26.39
217.675	24
218.14	21.94
218.604	20.2
219.069	18.68
219.534	17.35
219.998	16.22
220.463	15.35
220.927	14.52
221.392	13.91
221.856	13.43
222.32	12.97
222.785	12.58
223.249	12.23
223.713	11.91
224.177	11.63
224.642	11.35
225.106	11.08
225.57	10.83
226.034	10.64
226.497	10.45
226.961	10.27
227.425	10.08
227.889	9.91
228.353	9.73
228.816	9.57
229.28	9.43
229.744	9.3
230.207	9.16
230.671	9.02
231.134	8.9
231.597	8.76
232.061	8.63
232.524	8.51
232.987	8.4
233.45	8.31
233.914	8.21
234.377	8.09
234.84	7.98
235.303	7.91
235.766	7.83
236.229	7.74
236.691	7.66
237.154	7.58
237.617	7.52
238.08	7.44
238.542	7.36
239.005	7.29
239.468	7.23
239.93	7.17
240.393	7.1
240.855	7.02
241.317	6.95
241.78	6.89
242.242	6.81
242.704	6.75
243.166	6.69
243.629	6.64
244.091	6.57
244.553	6.51
245.015	6.45
245.477	6.39
245.939	6.33
246.4	6.27
246.862	6.22
247.324	6.18
247.786	6.13
248.247	6.07
248.709	6
249.17	5.96
249.632	5.93
250.093	5.9
250.555	5.86
251.016	5.83
251.477	5.78
251.939	5.75
252.4	5.72
252.861	5.68
253.322	5.65
253.783	5.63
254.244	5.6
254.705	5.56
255.166	5.53
255.627	5.49
256.088	5.46
256.549	5.43
257.009	5.39
257.47	5.36
257.931	5.33
258.391	5.28
258.852	5.24
259.312	5.21
259.773	5.18
260.233	5.15
260.694	5.11
261.154	5.08
261.614	5.06
262.074	5.02
262.534	4.98
262.994	4.95
263.455	4.93
263.915	4.91
264.374	4.88
264.834	4.86
265.294	4.83
265.754	4.82
266.214	4.8
266.673	4.78
267.133	4.76
267.593	4.76
268.052	4.74
268.512	4.74
268.971	4.72
269.431	4.71
269.89	4.7
270.349	4.69
270.809	4.67
271.268	4.66
271.727	4.65
272.186	4.64
272.645	4.62
273.104	4.61
273.563	4.6
274.022	4.59
274.481	4.58
274.94	4.57
275.399	4.55
275.857	4.54
276.316	4.53
276.775	4.53
277.233	4.52
277.692	4.51
278.15	4.5
278.609	4.5
279.067	4.49
279.525	4.49
279.984	4.48
280.442	4.47
280.9	4.47
281.358	4.46
281.816	4.46
282.274	4.45
282.732	4.44
283.19	4.44
283.648	4.43
284.106	4.42
284.564	4.41
285.021	4.42
285.479	4.42
285.937	4.42
286.394	4.41
286.852	4.4
287.309	4.39
287.767	4.38
288.224	4.36
288.682	4.35
289.139	4.33
289.596	4.31
290.053	4.28
290.511	4.26
290.968	4.24
291.425	4.22
291.882	4.2
292.339	4.18
292.796	4.17
293.252	4.15
293.709	4.14
294.166	4.13
294.623	4.13
295.079	4.11
295.536	4.11
295.992	4.09
296.449	4.08
296.905	4.08
297.362	4.07
297.818	4.05
298.274	4.04
298.731	4.03
299.187	4.02
299.643	4
300.099	4
300.555	3.98
301.011	3.97
301.467	3.96
301.923	3.95
302.379	3.94
302.835	3.94
303.291	3.94
303.746	3.93
304.202	3.93
304.658	3.93
305.113	3.92
305.569	3.92
306.024	3.92
306.479	3.92
306.935	3.91
307.39	3.91
307.845	3.9
308.301	3.9
308.756	3.9
309.211	3.89
309.666	3.9
310.121	3.9
310.576	3.9
311.031	3.9
311.486	3.9
311.94	3.9
312.395	3.9
312.85	3.9
313.305	3.9
313.759	3.9
314.214	3.9
314.668	3.88
315.123	3.88
315.577	3.87
316.032	3.86
316.486	3.85
316.94	3.85
317.394	3.84
317.849	3.82
318.303	3.81
318.757	3.8
319.211	3.79
319.665	3.77
320.119	3.76
320.572	3.75
321.026	3.74
321.48	3.73
321.934	3.71
322.387	3.69
322.841	3.69
323.295	3.68
323.748	3.67
324.202	3.66
324.655	3.66
325.108	3.65
325.562	3.65
326.015	3.65
326.468	3.64
326.921	3.65
327.374	3.64
327.827	3.64
328.28	3.63
328.733	3.62
329.186	3.62
329.639	3.61
330.092	3.61
330.545	3.62
330.997	3.61
331.45	3.61
331.903	3.61
332.355	3.62
332.808	3.63
333.26	3.63
333.713	3.63
334.165	3.63
334.617	3.65
335.069	3.65
335.522	3.66
335.974	3.66
336.426	3.67
336.878	3.66
337.33	3.66
337.782	3.65
338.234	3.66
338.686	3.67
339.137	3.68
339.589	3.67
340.041	3.66
340.493	3.65
340.944	3.63
341.396	3.62
341.847	3.62
342.299	3.6
342.75	3.6
343.201	3.57
343.653	3.56
344.104	3.53
344.555	3.52
345.006	3.5
345.457	3.5
345.908	3.49
346.359	3.49
346.81	3.48
347.261	3.48
347.712	3.47
348.163	3.48
348.613	3.48
349.064	3.48
349.515	3.48
349.965	3.47
350.416	3.47
350.866	3.47
351.317	3.47
351.767	3.47
352.217	3.47
352.668	3.47
353.118	3.47
353.568	3.46
354.018	3.47
354.468	3.48
354.918	3.48
355.368	3.48
355.818	3.49
356.268	3.48
356.718	3.48
357.168	3.47
357.617	3.47
358.067	3.48
358.517	3.49
358.966	3.5
359.416	3.51
359.865	3.51
360.315	3.52
360.764	3.53
361.213	3.54
361.663	3.54
362.112	3.56
362.561	3.57
363.01	3.58
363.459	3.57
363.908	3.56
364.357	3.56
364.806	3.57
365.255	3.57
365.703	3.59
366.152	3.6
366.601	3.61
367.05	3.62
367.498	3.62
367.947	3.64
368.395	3.66
368.844	3.69
369.292	3.71
369.74	3.73
370.189	3.75
370.637	3.76
371.085	3.77
371.533	3.79
371.981	3.81
372.429	3.84
372.877	3.85
373.325	3.87
373.773	3.89
374.221	3.91
374.669	3.92
375.116	3.94
375.564	3.96
376.012	3.98
376.459	4.02
376.907	4.05
377.354	4.08
377.801	4.11
378.249	4.15
378.696	4.17
379.143	4.2
379.591	4.23
380.038	4.27
380.485	4.3
380.932	4.33
381.379	4.37
381.826	4.39
382.273	4.42
382.72	4.45
383.166	4.48
383.613	4.51
384.06	4.53
384.506	4.57
384.953	4.6
385.4	4.64
385.846	4.68
386.292	4.7
386.739	4.73
387.185	4.77
387.631	4.8
388.078	4.83
388.524	4.87
388.97	4.91
389.416	4.94
389.862	4.98
390.308	5.01
390.754	5.05
391.2	5.09
391.645	5.12
392.091	5.16
392.537	5.21
392.983	5.24
393.428	5.29
393.874	5.31
394.319	5.35
394.765	5.37
395.21	5.38
395.655	5.41
396.101	5.44
396.546	5.46
396.991	5.49
397.436	5.5
397.881	5.54
398.326	5.57
398.771	5.6
399.216	5.62
399.661	5.65
400.106	5.68
400.551	5.69
400.995	5.69
401.44	5.71
401.885	5.71
402.329	5.72
402.774	5.71
403.218	5.73
403.663	5.75
404.107	5.77
404.551	5.77
404.995	5.77
405.44	5.78
405.884	5.78
406.328	5.79
406.772	5.79
407.216	5.79
407.66	5.79
408.104	5.78
408.547	5.78
408.991	5.77
409.435	5.77
409.879	5.77
410.322	5.8
410.766	5.81
411.209	5.82
411.653	5.85
412.096	5.85
412.54	5.86
412.983	5.86
413.426	5.89
413.869	5.91
414.312	5.94
414.756	5.96
415.199	5.94
415.642	5.95
416.085	5.96
416.527	5.96
416.97	5.96
417.413	5.96
417.856	5.96
418.298	5.94
418.741	5.93
419.184	5.92
419.626	5.92
420.069	5.93
420.511	5.93
420.953	5.93
421.396	5.92
421.838	5.93
422.28	5.94
422.722	5.97
423.164	5.96
423.606	5.98
424.048	5.98
424.49	5.98
424.932	5.97
425.374	5.95
425.816	5.93
426.258	5.91
426.699	5.89
427.141	5.87
427.582	5.86
428.024	5.86
428.465	5.85
428.907	5.84
429.348	5.83
429.789	5.82
430.231	5.84
430.672	5.87
431.113	5.89
431.554	5.9
431.995	5.92
432.436	5.92
432.877	5.94
433.318	5.96
433.759	5.98
434.2	6.01
434.64	6.03
435.081	6.03
435.522	6.04
435.962	6.07
436.403	6.09
436.843	6.12
437.284	6.14
437.724	6.14
438.164	6.15
438.604	6.16
439.045	6.18
439.485	6.19
439.925	6.2
440.365	6.21
440.805	6.22
441.245	6.24
441.685	6.27
442.125	6.29
442.564	6.31
443.004	6.33
443.444	6.35
443.883	6.37
444.323	6.37
444.762	6.4
445.202	6.42
445.641	6.46
446.081	6.48
446.52	6.49
446.959	6.52
447.398	6.55
447.837	6.59
448.276	6.6
448.716	6.63
449.154	6.68
449.593	6.72
450.032	6.73
450.471	6.72
450.91	6.72
451.349	6.76
451.787	6.77
452.226	6.78
452.664	6.79
453.103	6.79
453.541	6.8
453.98	6.8
454.418	6.79
454.856	6.79
455.295	6.79
455.733	6.77
456.171	6.75
456.609	6.74
457.047	6.72
457.485	6.71
457.923	6.7
458.361	6.68
458.798	6.67
459.236	6.67
459.674	6.67
460.111	6.68
460.549	6.69
460.987	6.7
461.424	6.69
461.862	6.7
462.299	6.71
462.736	6.7
463.173	6.71
463.611	6.71
464.048	6.71
464.485	6.71
464.922	6.71
465.359	6.71
465.796	6.72
466.233	6.72
466.67	6.73
467.106	6.74
467.543	6.75
467.98	6.73
468.416	6.74
468.853	6.75
469.29	6.74
469.726	6.74
470.162	6.74
470.599	6.73
471.035	6.73
471.471	6.73
471.907	6.72
472.344	6.73
472.78	6.74
473.216	6.72
473.652	6.73
474.088	6.72
474.523	6.73
474.959	6.73
475.395	6.72
475.831	6.73
476.266	6.72
476.702	6.72
477.138	6.72
477.573	6.72
478.008	6.73
478.444	6.73
478.879	6.74
479.314	6.73
479.75	6.73
480.185	6.73
480.62	6.72
481.055	6.73
481.49	6.72
481.925	6.73
482.36	6.73
482.795	6.73
483.229	6.73
483.664	6.74
484.099	6.75
484.534	6.75
484.968	6.76
485.403	6.77
485.837	6.79
486.271	6.82
486.706	6.84
487.14	6.86
487.574	6.89
488.009	6.92
488.443	6.95
488.877	6.99
489.311	7.03
489.745	7.08
490.179	7.14
490.613	7.19
491.046	7.25
491.48	7.3
491.914	7.36
492.348	7.42
492.781	7.48
493.215	7.56
493.648	7.63
494.082	7.69
494.515	7.76
494.948	7.84
495.382	7.92
495.815	8
496.248	8.1
496.681	8.2
497.114	8.29
497.547	8.39
497.98	8.5
498.413	8.62
498.846	8.74
499.279	8.87
499.711	8.99
500.144	9.13
500.577	9.27
501.009	9.4
501.442	9.55
501.874	9.71
502.306	9.88
502.739	10.05
503.171	10.22
503.603	10.39
504.036	10.58
504.468	10.78
504.9	10.97
505.332	11.16
505.764	11.39
506.196	11.6
506.627	11.82
507.059	12.05
507.491	12.29
507.923	12.53
508.354	12.8
508.786	13.07
509.217	13.32
509.649	13.59
510.08	13.87
510.512	14.15
510.943	14.44
511.374	14.74
511.805	15.02
512.237	15.31
512.668	15.61
513.099	15.89
513.53	16.18
513.961	16.49
514.391	16.8
514.822	17.13
515.253	17.42
515.684	17.73
516.114	18.04
516.545	18.34
516.975	18.67
517.406	18.99
517.836	19.31
518.267	19.63
518.697	19.94
519.127	20.24
519.558	20.55
519.988	20.86
520.418	21.15
520.848	21.44
521.278	21.73
521.708	22.15
522.138	22.43
522.567	22.71
522.997	22.97
523.427	23.24
523.857	23.49
524.286	23.7
524.716	23.94
525.145	24.17
525.575	24.41
526.004	24.63
526.433	24.7
526.863	24.88
527.292	25.07
527.721	25.25
528.15	25.42
528.579	25.58
529.008	25.77
529.437	25.92
529.866	26.06
530.295	26.21
530.724	26.32
531.152	26.43
531.581	26.57
532.01	26.68
532.438	26.8
532.867	26.91
533.295	27
533.723	27.09
534.152	27.17
534.58	27.26
535.008	27.32
535.436	27.4
535.865	27.47
536.293	27.51
536.721	27.57
537.149	27.61
537.576	27.65
538.004	27.72
538.432	27.75
538.86	27.79
539.287	27.82
539.715	27.86
540.143	27.89
540.57	27.92
540.998	27.95
541.425	27.97
541.852	28.02
542.28	28.06
542.707	28.08
543.134	28.1
543.561	28.14
543.988	28.18
544.415	28.18
544.842	28.21
545.269	28.25
545.696	28.29
546.123	28.32
546.549	28.34
546.976	28.36
547.403	28.38
547.829	28.41
548.256	28.45
548.682	28.46
549.108	28.5
549.535	28.54
549.961	28.54
550.387	28.55
550.813	28.59
551.24	28.61
551.666	28.63
552.092	28.64
552.518	28.64
552.943	28.63
553.369	28.63
553.795	28.61
554.221	28.56
554.646	28.53
555.072	28.49
555.498	28.42
555.923	28.38
556.349	28.3
556.774	28.24
557.199	28.17
557.625	28.11
558.05	28.04
558.475	27.97
558.9	27.91
559.325	27.85
559.75	27.78
560.175	27.71
560.6	27.62
561.025	27.54
561.449	27.45
561.874	27.36
562.299	27.24
562.723	27.12
563.148	27
563.572	26.86
563.997	26.72
564.421	26.58
564.846	26.43
565.27	26.29
565.694	26.15
566.118	26
566.542	25.84
566.966	25.7
567.39	25.54
567.814	25.39
568.238	25.23
568.662	25.08
569.086	24.92
569.509	24.78
569.933	24.62
570.357	24.45
570.78	24.3
571.204	24.14
571.627	24
572.05	23.85
572.474	23.73
572.897	23.6
573.32	23.47
573.743	23.33
574.166	23.21
574.589	23.08
575.012	22.97
575.435	22.84
575.858	22.73
576.281	22.61
576.704	22.5
577.126	22.38
577.549	22.28
577.972	22.17
578.394	22.07
578.817	21.97
579.239	21.87
579.661	21.78
580.084	21.69
580.506	21.61
580.928	21.52
581.35	21.44
581.772	21.35
582.194	21.26
582.616	21.19
583.038	21.12
583.46	21.04
583.882	20.97
584.303	20.89
584.725	20.85
585.147	20.78
585.568	20.71
585.99	20.63
586.411	20.57
586.833	20.49
587.254	20.42
587.675	20.35
588.096	20.29
588.518	20.24
588.939	20.19
589.36	20.11
589.781	20.06
590.202	20.01
590.623	19.98
591.043	19.93
591.464	19.92
591.885	19.88
592.305	19.85
592.726	19.81
593.147	19.75
593.567	19.72
593.987	19.68
594.408	19.65
594.828	19.62
595.248	19.58
595.669	19.55
596.089	19.52
596.509	19.48
596.929	19.45
597.349	19.41
597.769	19.39
598.189	19.36
598.608	19.34
599.028	19.3
599.448	19.26
599.867	19.22
600.287	19.18
600.706	19.13
601.126	19.08
601.545	19.05
601.965	19.01
602.384	18.95
602.803	18.88
603.222	18.81
603.641	18.74
604.061	18.7
604.48	18.62
604.898	18.55
605.317	18.48
605.736	18.41
606.155	18.33
606.574	18.25
606.992	18.18
607.411	18.1
607.829	18
608.248	17.9
608.666	17.8
609.085	17.73
609.503	17.65
609.921	17.56
610.339	17.48
610.758	17.39
611.176	17.29
611.594	17.21
612.012	17.13
612.43	17.06
612.847	16.99
613.265	16.91
613.683	16.83
614.101	16.75
614.518	16.67
614.936	16.59
615.353	16.5
615.771	16.44
616.188	16.37
616.606	16.31
617.023	16.25
617.44	16.2
617.857	16.15
618.274	16.08
618.691	16.02
619.108	15.97
619.525	15.92
619.942	15.88
620.359	15.83
620.776	15.79
621.192	15.76
621.609	15.72
622.026	15.68
622.442	15.65
622.859	15.62
623.275	15.6
623.691	15.57
624.108	15.55
624.524	15.53
624.94	15.52
625.356	15.51
625.772	15.48
626.188	15.47
626.604	15.45
627.02	15.44
627.436	15.43
627.852	15.41
628.268	15.41
628.683	15.39
629.099	15.38
629.514	15.35
629.93	15.33
630.345	15.3
630.761	15.26
631.176	15.22
631.591	15.17
632.007	15.12
632.422	15.07
632.837	15.01
633.252	14.94
633.667	14.86
634.082	14.77
634.497	14.7
634.911	14.62
635.326	14.54
635.741	14.44
636.155	14.33
636.57	14.24
636.984	14.13
637.399	14.01
637.813	13.91
638.228	13.79
638.642	13.66
639.056	13.52
639.47	13.39
639.884	13.27
640.298	13.13
640.712	13.01
641.126	12.88
641.54	12.74
641.954	12.61
642.368	12.48
642.781	12.35
643.195	12.23
643.609	12.11
644.022	11.99
644.436	11.87
644.849	11.75
645.262	11.64
645.676	11.53
646.089	11.43
646.502	11.33
646.915	11.26
647.328	11.17
647.741	11.09
648.154	11.03
648.567	10.97
648.98	10.91
649.393	10.86
649.805	10.81
650.218	10.76
650.631	10.71
651.043	10.66
651.456	10.61
651.868	10.57
652.28	10.51
652.693	10.45
653.105	10.39
653.517	10.33
653.929	10.27
654.341	10.2
654.753	10.12
655.165	10.05
655.577	9.96
655.989	9.88
656.401	9.78
656.813	9.71
657.224	9.61
657.636	9.5
658.047	9.41
658.459	9.3
658.87	9.19
659.282	9.09
659.693	8.98
660.104	8.87
660.515	8.76
660.926	8.66
661.338	8.55
661.749	8.46
662.159	8.37
662.57	8.27
662.981	8.19
663.392	8.11
663.803	8.03
664.213	7.95
664.624	7.88
665.035	7.81
665.445	7.75
665.855	7.69
666.266	7.63
666.676	7.58
667.086	7.53
667.497	7.48
667.907	7.43
668.317	7.39
668.727	7.36
669.137	7.34
669.547	7.31
669.956	7.29
670.366	7.27
670.776	7.25
671.186	7.24
671.595	7.22
672.005	7.21
672.414	7.22
672.824	7.22
673.233	7.24
673.642	7.25
674.052	7.26
674.461	7.28
674.87	7.29
675.279	7.33
675.688	7.36
676.097	7.4
676.506	7.43
676.915	7.47
677.323	7.51
677.732	7.54
678.141	7.59
678.549	7.64
678.958	7.71
679.366	7.79
679.775	7.85
680.183	7.94
680.592	8.04
681	8.17
681.408	8.28
681.816	8.42
682.224	8.57
682.632	8.74
683.04	8.93
683.448	9.12
683.856	9.32
684.264	9.57
684.671	9.83
685.079	10.11
685.487	10.42
685.894	10.76
686.302	11.13
686.709	11.51
687.116	11.91
687.524	12.34
687.931	12.82
688.338	13.3
688.745	13.8
689.152	14.31
689.559	14.87
689.966	15.43
690.373	15.98
690.78	16.57
691.187	17.15
691.593	17.75
692	18.36
692.407	18.95
692.813	19.58
693.22	20.19
693.626	20.8
694.032	21.4
694.439	22.02
694.845	22.64
695.251	23.24
695.657	23.84
696.063	24.44
696.469	25.02
696.875	25.61
697.281	26.18
697.687	26.76
698.093	27.32
698.498	27.87
698.904	28.4
699.31	28.93
699.715	29.45
700.12	29.95
700.526	30.44
700.931	30.92
701.337	31.39
701.742	31.84
702.147	32.28
702.552	32.73
702.957	33.13
703.362	33.54
703.767	33.94
704.172	34.33
704.577	34.73
704.981	35.11
705.386	35.51
705.791	35.88
706.195	36.26
706.6	36.63
707.004	36.96
707.408	37.32
707.813	37.69
708.217	38.02
708.621	38.37
709.025	38.66
709.43	38.98
709.834	39.29
710.237	39.6
710.641	39.88
711.045	40.17
711.449	40.47
711.853	40.78
712.256	41.04
712.66	41.32
713.064	41.57
713.467	41.84
713.87	42.09
714.274	42.32
714.677	42.58
715.08	42.83
715.484	43.08
715.887	43.33
716.29	43.55
716.693	43.76
717.096	43.99
717.499	44.21
717.901	44.43
718.304	44.65
718.707	44.88
719.109	45.07
719.512	45.27
719.915	45.45
720.317	45.59
720.719	45.75
721.122	45.94
721.524	46.08
721.926	46.25
722.328	46.43
722.731	46.57
723.133	46.71
723.535	46.84
723.937	46.99
724.338	47.12
724.74	47.28
725.142	47.49
725.544	47.6
725.945	47.77
726.347	47.85
726.748	47.94
727.15	48.04
727.551	48.16
727.952	48.29
728.354	48.39
728.755	48.5
729.156	48.62
729.557	48.63
729.958	48.72
730.359	48.78
730.76	48.88
731.161	48.97
731.562	49.08
731.962	49.1
732.363	49.17
732.763	49.24
733.164	49.31
733.564	49.37
733.965	49.43
734.365	49.5
734.766	49.55
735.166	49.62
735.566	49.68
735.966	49.72
736.366	49.79
736.766	49.81
737.166	49.85
737.566	49.88
737.966	49.88
738.365	49.92
738.765	49.97
739.165	50.02
739.564	50.04
739.964	50.07
740.363	50.07
740.763	50.13
741.162	50.18
741.561	50.19
741.96	50.21
742.36	50.23
742.759	50.26
743.158	50.26
743.557	50.25
743.955	50.29
744.354	50.31
744.753	50.38
745.152	50.4
745.55	50.46
745.949	50.51
746.348	50.56
746.746	50.58
747.144	50.61
747.543	50.64
747.941	50.68
748.339	50.69
748.737	50.7
749.136	50.73
749.534	50.71
749.932	50.71
750.33	50.71
750.727	50.71
751.125	50.76
751.523	50.74
751.921	50.73
752.318	50.76
752.716	50.76
753.113	50.77
753.511	50.73
753.908	50.77
754.305	50.75
754.703	50.75
755.1	50.74
755.497	50.7
755.894	50.71
756.291	50.71
756.688	50.66
757.085	50.67
757.482	50.66
757.878	50.66
758.275	50.63
758.672	50.62
759.068	50.6
759.465	50.6
759.861	50.62
760.258	50.62
760.654	50.64
761.05	50.63
761.447	50.65
761.843	50.64
762.239	50.62
762.635	50.62
763.031	50.63
763.427	50.62
763.822	50.62
764.218	50.63
764.614	50.64
765.01	50.62
765.405	50.63
765.801	50.6
766.196	50.6
766.592	50.62
766.987	50.63
767.382	50.6
767.778	50.64
768.173	50.62
768.568	50.6
768.963	50.59
769.358	50.6
769.753	50.61
770.148	50.61
770.542	50.63
770.937	50.62
771.332	50.6
771.726	50.64
772.121	50.64
772.515	50.67
772.91	50.68
773.304	50.67
773.699	50.68
774.093	50.67
774.487	50.68
774.881	50.68
775.275	50.68
775.669	50.66
776.063	50.62
776.457	50.61
776.851	50.59
777.245	50.57
777.638	50.55
778.032	50.55
778.425	50.59
778.819	50.6
779.212	50.62
779.606	50.66
779.999	50.7
780.392	50.76
