Data from C_3_DIV_IL_4N_Splice17_14-15-22-797.txt Node
Date: Sat Mar 07 14:15:22 EST 2020
User: sa697716
Spectrometer: NQ5500242
Trigger mode: 0
Integration Time (sec): 1.450000E-1
Scans to average: 20
Nonlinearity correction enabled: false
Boxcar width: 5
Storing dark spectrum: false
XAxis mode: Wavelengths
Number of Pixels in Spectrum: 512
>>>>>Begin Spectral Data<<<<<
187.83	112.07
188.298	145.92
188.766	116.68
189.233	115.64
189.701	110.28
190.169	133.98
190.636	132.46
191.104	131.79
191.571	74.3
192.039	99.33
192.506	-116.68
192.974	165.15
193.441	372.83
193.908	174.78
194.375	171.81
194.842	98.59
195.31	186.6
195.777	356.17
196.244	70.14
196.711	69.69
197.177	69.83
197.644	69.74
198.111	69.64
198.578	69.8
199.045	69.93
199.511	69.33
199.978	69.85
200.445	69.76
200.911	69.36
201.378	69.3
201.844	68.93
202.31	68.41
202.777	68.49
203.243	68.25
203.709	67.75
204.176	67.35
204.642	67.24
205.108	66.82
205.574	66.4
206.04	65.95
206.506	65.48
206.972	65.34
207.438	64.8
207.903	63.66
208.369	62.32
208.835	61.24
209.301	59.72
209.766	58.4
210.232	56.83
210.697	55.36
211.163	54.14
211.628	53.01
212.094	51.54
212.559	50.58
213.024	49.61
213.49	48.78
213.955	47.9
214.42	47.12
214.885	45.84
215.35	44.28
215.815	42.15
216.28	39.61
216.745	36.98
217.21	34.22
217.675	31.58
218.14	29.29
218.604	27.26
219.069	25.47
219.534	24.05
219.998	22.89
220.463	21.95
220.927	21.13
221.392	20.41
221.856	19.79
222.32	19.25
222.785	18.8
223.249	18.38
223.713	17.99
224.177	17.67
224.642	17.35
225.106	17.03
225.57	16.71
226.034	16.42
226.497	16.18
226.961	15.91
227.425	15.7
227.889	15.47
228.353	15.24
228.816	15.02
229.28	14.81
229.744	14.61
230.207	14.41
230.671	14.21
231.134	14.03
231.597	13.86
232.061	13.69
232.524	13.51
232.987	13.35
233.45	13.19
233.914	13.04
234.377	12.9
234.84	12.73
235.303	12.59
235.766	12.47
236.229	12.33
236.691	12.22
237.154	12.11
237.617	12
238.08	11.88
238.542	11.76
239.005	11.66
239.468	11.53
239.93	11.44
240.393	11.35
240.855	11.24
241.317	11.13
241.78	11.02
242.242	10.9
242.704	10.81
243.166	10.72
243.629	10.65
244.091	10.54
244.553	10.46
245.015	10.37
245.477	10.27
245.939	10.18
246.4	10.1
246.862	10.02
247.324	9.94
247.786	9.85
248.247	9.78
248.709	9.68
249.17	9.6
249.632	9.52
250.093	9.44
250.555	9.37
251.016	9.31
251.477	9.24
251.939	9.19
252.4	9.13
252.861	9.08
253.322	9.02
253.783	8.98
254.244	8.93
254.705	8.87
255.166	8.83
255.627	8.78
256.088	8.75
256.549	8.7
257.009	8.64
257.47	8.6
257.931	8.54
258.391	8.48
258.852	8.42
259.312	8.36
259.773	8.31
260.233	8.27
260.694	8.21
261.154	8.16
261.614	8.1
262.074	8.06
262.534	8.01
262.994	7.97
263.455	7.93
263.915	7.89
264.374	7.87
264.834	7.84
265.294	7.8
265.754	7.77
266.214	7.74
266.673	7.72
267.133	7.71
267.593	7.69
268.052	7.67
268.512	7.65
268.971	7.62
269.431	7.6
269.89	7.57
270.349	7.57
270.809	7.54
271.268	7.53
271.727	7.51
272.186	7.48
272.645	7.46
273.104	7.44
273.563	7.43
274.022	7.41
274.481	7.4
274.94	7.38
275.399	7.35
275.857	7.34
276.316	7.31
276.775	7.3
277.233	7.29
277.692	7.28
278.15	7.26
278.609	7.24
279.067	7.23
279.525	7.21
279.984	7.2
280.442	7.18
280.9	7.16
281.358	7.15
281.816	7.13
282.274	7.11
282.732	7.09
283.19	7.07
283.648	7.05
284.106	7.03
284.564	7.01
285.021	7
285.479	6.98
285.937	6.96
286.394	6.95
286.852	6.92
287.309	6.9
287.767	6.88
288.224	6.86
288.682	6.83
289.139	6.81
289.596	6.79
290.053	6.75
290.511	6.72
290.968	6.7
291.425	6.67
291.882	6.65
292.339	6.62
292.796	6.6
293.252	6.58
293.709	6.56
294.166	6.54
294.623	6.52
295.079	6.51
295.536	6.5
295.992	6.48
296.449	6.46
296.905	6.45
297.362	6.43
297.818	6.41
298.274	6.39
298.731	6.38
299.187	6.36
299.643	6.34
300.099	6.33
300.555	6.32
301.011	6.31
301.467	6.3
301.923	6.28
302.379	6.27
302.835	6.26
303.291	6.25
303.746	6.24
304.202	6.24
304.658	6.23
305.113	6.22
305.569	6.21
306.024	6.2
306.479	6.19
306.935	6.18
307.39	6.18
307.845	6.18
308.301	6.18
308.756	6.17
309.211	6.16
309.666	6.15
310.121	6.14
310.576	6.13
311.031	6.13
311.486	6.13
311.94	6.12
312.395	6.11
312.85	6.1
313.305	6.09
313.759	6.09
314.214	6.08
314.668	6.06
315.123	6.06
315.577	6.05
316.032	6.04
316.486	6.02
316.94	6.02
317.394	6
317.849	5.98
318.303	5.95
318.757	5.93
319.211	5.91
319.665	5.89
320.119	5.87
320.572	5.84
321.026	5.82
321.48	5.8
321.934	5.78
322.387	5.77
322.841	5.76
323.295	5.75
323.748	5.74
324.202	5.73
324.655	5.72
325.108	5.71
325.562	5.71
326.015	5.71
326.468	5.7
326.921	5.7
327.374	5.68
327.827	5.67
328.28	5.67
328.733	5.65
329.186	5.65
329.639	5.64
330.092	5.64
330.545	5.64
330.997	5.63
331.45	5.63
331.903	5.63
332.355	5.64
332.808	5.65
333.26	5.65
333.713	5.65
334.165	5.65
334.617	5.65
335.069	5.65
335.522	5.66
335.974	5.66
336.426	5.65
336.878	5.65
337.33	5.64
337.782	5.63
338.234	5.63
338.686	5.62
339.137	5.62
339.589	5.6
340.041	5.59
340.493	5.58
340.944	5.55
341.396	5.54
341.847	5.52
342.299	5.5
342.75	5.48
343.201	5.46
343.653	5.44
344.104	5.41
344.555	5.4
345.006	5.38
345.457	5.35
345.908	5.34
346.359	5.33
346.81	5.32
347.261	5.31
347.712	5.3
348.163	5.29
348.613	5.29
349.064	5.28
349.515	5.28
349.965	5.27
350.416	5.27
350.866	5.26
351.317	5.26
351.767	5.26
352.217	5.25
352.668	5.25
353.118	5.26
353.568	5.26
354.018	5.26
354.468	5.25
354.918	5.25
355.368	5.26
355.818	5.26
356.268	5.27
356.718	5.27
357.168	5.26
357.617	5.26
358.067	5.26
358.517	5.27
358.966	5.27
359.416	5.27
359.865	5.27
360.315	5.27
360.764	5.28
361.213	5.27
361.663	5.27
362.112	5.29
362.561	5.29
363.01	5.28
363.459	5.26
363.908	5.26
364.357	5.27
364.806	5.26
365.255	5.26
365.703	5.26
366.152	5.27
366.601	5.27
367.05	5.27
367.498	5.27
367.947	5.28
368.395	5.29
368.844	5.3
369.292	5.3
369.74	5.31
370.189	5.31
370.637	5.31
371.085	5.3
371.533	5.3
371.981	5.3
372.429	5.31
372.877	5.32
373.325	5.32
373.773	5.32
374.221	5.34
374.669	5.34
375.116	5.34
375.564	5.36
376.012	5.38
376.459	5.39
376.907	5.41
377.354	5.41
377.801	5.42
378.249	5.43
378.696	5.44
379.143	5.45
379.591	5.47
380.038	5.49
380.485	5.51
380.932	5.53
381.379	5.55
381.826	5.57
382.273	5.59
382.72	5.61
383.166	5.64
383.613	5.66
384.06	5.67
384.506	5.69
384.953	5.71
385.4	5.73
385.846	5.77
386.292	5.79
386.739	5.81
387.185	5.84
387.631	5.87
388.078	5.89
388.524	5.92
388.97	5.95
389.416	5.98
389.862	6.01
390.308	6.03
390.754	6.05
391.2	6.08
391.645	6.11
392.091	6.14
392.537	6.17
392.983	6.21
393.428	6.24
393.874	6.27
394.319	6.29
394.765	6.31
395.21	6.33
395.655	6.36
396.101	6.39
396.546	6.41
396.991	6.44
397.436	6.47
397.881	6.5
398.326	6.54
398.771	6.57
399.216	6.6
399.661	6.65
400.106	6.68
400.551	6.71
400.995	6.72
401.44	6.75
401.885	6.77
402.329	6.78
402.774	6.79
403.218	6.81
403.663	6.83
404.107	6.86
404.551	6.88
404.995	6.88
405.44	6.89
405.884	6.92
406.328	6.94
406.772	6.95
407.216	6.98
407.66	7.01
408.104	7.02
408.547	7.03
408.991	7.04
409.435	7.03
409.879	7.05
410.322	7.08
410.766	7.09
411.209	7.12
411.653	7.14
412.096	7.15
412.54	7.17
412.983	7.17
413.426	7.21
413.869	7.24
414.312	7.28
414.756	7.31
415.199	7.32
415.642	7.34
416.085	7.36
416.527	7.35
416.97	7.36
417.413	7.36
417.856	7.37
418.298	7.35
418.741	7.34
419.184	7.33
419.626	7.34
420.069	7.35
420.511	7.34
420.953	7.33
421.396	7.36
421.838	7.36
422.28	7.39
422.722	7.41
423.164	7.43
423.606	7.45
424.048	7.46
424.49	7.47
424.932	7.46
425.374	7.45
425.816	7.45
426.258	7.42
426.699	7.4
427.141	7.38
427.582	7.37
428.024	7.38
428.465	7.38
428.907	7.37
429.348	7.36
429.789	7.35
430.231	7.36
430.672	7.37
431.113	7.38
431.554	7.41
431.995	7.42
432.436	7.41
432.877	7.41
433.318	7.42
433.759	7.45
434.2	7.48
434.64	7.5
435.081	7.51
435.522	7.52
435.962	7.55
436.403	7.57
436.843	7.59
437.284	7.6
437.724	7.61
438.164	7.6
438.604	7.59
439.045	7.59
439.485	7.58
439.925	7.58
440.365	7.59
440.805	7.59
441.245	7.59
441.685	7.6
442.125	7.62
442.564	7.64
443.004	7.65
443.444	7.65
443.883	7.66
444.323	7.66
444.762	7.69
445.202	7.69
445.641	7.69
446.081	7.7
446.52	7.7
446.959	7.72
447.398	7.73
447.837	7.74
448.276	7.75
448.716	7.76
449.154	7.79
449.593	7.78
450.032	7.8
450.471	7.8
450.91	7.78
451.349	7.78
451.787	7.76
452.226	7.74
452.664	7.73
453.103	7.71
453.541	7.7
453.98	7.68
454.418	7.66
454.856	7.63
455.295	7.62
455.733	7.59
456.171	7.58
456.609	7.57
457.047	7.54
457.485	7.51
457.923	7.52
458.361	7.49
458.798	7.48
459.236	7.47
459.674	7.46
460.111	7.45
460.549	7.45
460.987	7.44
461.424	7.45
461.862	7.46
462.299	7.47
462.736	7.45
463.173	7.46
463.611	7.46
464.048	7.46
464.485	7.46
464.922	7.46
465.359	7.47
465.796	7.47
466.233	7.48
466.67	7.48
467.106	7.47
467.543	7.48
467.98	7.47
468.416	7.47
468.853	7.48
469.29	7.48
469.726	7.49
470.162	7.48
470.599	7.48
471.035	7.47
471.471	7.47
471.907	7.48
472.344	7.48
472.78	7.49
473.216	7.47
473.652	7.48
474.088	7.48
474.523	7.47
474.959	7.47
475.395	7.46
475.831	7.46
476.266	7.46
476.702	7.45
477.138	7.45
477.573	7.44
478.008	7.45
478.444	7.43
478.879	7.43
479.314	7.42
479.75	7.41
480.185	7.39
480.62	7.37
481.055	7.36
481.49	7.34
481.925	7.33
482.36	7.32
482.795	7.3
483.229	7.29
483.664	7.29
484.099	7.28
484.534	7.27
484.968	7.28
485.403	7.27
485.837	7.27
486.271	7.28
486.706	7.28
487.14	7.29
487.574	7.3
488.009	7.31
488.443	7.31
488.877	7.33
489.311	7.34
489.745	7.35
490.179	7.38
490.613	7.41
491.046	7.44
491.48	7.46
491.914	7.48
492.348	7.51
492.781	7.55
493.215	7.58
493.648	7.61
494.082	7.65
494.515	7.69
494.948	7.72
495.382	7.76
495.815	7.81
496.248	7.85
496.681	7.91
497.114	7.96
497.547	8.01
497.98	8.08
498.413	8.15
498.846	8.22
499.279	8.28
499.711	8.35
500.144	8.43
500.577	8.51
501.009	8.6
501.442	8.69
501.874	8.78
502.306	8.89
502.739	9
503.171	9.11
503.603	9.24
504.036	9.37
504.468	9.5
504.9	9.62
505.332	9.75
505.764	9.9
506.196	10.04
506.627	10.21
507.059	10.37
507.491	10.52
507.923	10.69
508.354	10.88
508.786	11.06
509.217	11.26
509.649	11.46
510.08	11.66
510.512	11.87
510.943	12.08
511.374	12.28
511.805	12.5
512.237	12.71
512.668	12.94
513.099	13.16
513.53	13.4
513.961	13.64
514.391	13.89
514.822	14.13
515.253	14.37
515.684	14.62
516.114	14.89
516.545	15.14
516.975	15.43
517.406	15.68
517.836	15.94
518.267	16.21
518.697	16.47
519.127	16.72
519.558	16.99
519.988	17.28
520.418	17.55
520.848	17.8
521.278	18.06
521.708	18.39
522.138	18.64
522.567	18.88
522.997	19.1
523.427	19.34
523.857	19.58
524.286	19.78
524.716	20
525.145	20.21
525.575	20.42
526.004	20.64
526.433	20.75
526.863	20.94
527.292	21.14
527.721	21.32
528.15	21.48
528.579	21.65
529.008	21.81
529.437	21.96
529.866	22.09
530.295	22.22
530.724	22.33
531.152	22.45
531.581	22.56
532.01	22.65
532.438	22.76
532.867	22.85
533.295	22.94
533.723	23.04
534.152	23.1
534.58	23.17
535.008	23.22
535.436	23.28
535.865	23.35
536.293	23.4
536.721	23.46
537.149	23.5
537.576	23.54
538.004	23.59
538.432	23.62
538.86	23.66
539.287	23.69
539.715	23.74
540.143	23.77
540.57	23.78
540.998	23.81
541.425	23.83
541.852	23.87
542.28	23.89
542.707	23.9
543.134	23.93
543.561	23.96
543.988	24
544.415	24.02
544.842	24.04
545.269	24.09
545.696	24.13
546.123	24.15
546.549	24.19
546.976	24.23
547.403	24.28
547.829	24.29
548.256	24.32
548.682	24.34
549.108	24.38
549.535	24.41
549.961	24.44
550.387	24.46
550.813	24.48
551.24	24.48
551.666	24.49
552.092	24.49
552.518	24.5
552.943	24.48
553.369	24.47
553.795	24.44
554.221	24.41
554.646	24.37
555.072	24.31
555.498	24.27
555.923	24.21
556.349	24.16
556.774	24.11
557.199	24.05
557.625	24
558.05	23.93
558.475	23.86
558.9	23.79
559.325	23.73
559.75	23.66
560.175	23.58
560.6	23.48
561.025	23.39
561.449	23.28
561.874	23.17
562.299	23.06
562.723	22.95
563.148	22.83
563.572	22.68
563.997	22.55
564.421	22.4
564.846	22.27
565.27	22.13
565.694	21.99
566.118	21.85
566.542	21.7
566.966	21.54
567.39	21.39
567.814	21.23
568.238	21.08
568.662	20.91
569.086	20.77
569.509	20.61
569.933	20.46
570.357	20.3
570.78	20.14
571.204	19.99
571.627	19.84
572.05	19.7
572.474	19.57
572.897	19.45
573.32	19.33
573.743	19.2
574.166	19.07
574.589	18.96
575.012	18.86
575.435	18.75
575.858	18.65
576.281	18.55
576.704	18.46
577.126	18.36
577.549	18.26
577.972	18.17
578.394	18.09
578.817	18.01
579.239	17.94
579.661	17.85
580.084	17.77
580.506	17.7
580.928	17.63
581.35	17.56
581.772	17.49
582.194	17.43
582.616	17.37
583.038	17.31
583.46	17.23
583.882	17.16
584.303	17.11
584.725	17.05
585.147	16.99
585.568	16.94
585.99	16.87
586.411	16.82
586.833	16.76
587.254	16.7
587.675	16.65
588.096	16.62
588.518	16.59
588.939	16.54
589.36	16.5
589.781	16.47
590.202	16.44
590.623	16.42
591.043	16.38
591.464	16.36
591.885	16.33
592.305	16.3
592.726	16.28
593.147	16.24
593.567	16.21
593.987	16.18
594.408	16.16
594.828	16.12
595.248	16.1
595.669	16.07
596.089	16.05
596.509	16.02
596.929	15.99
597.349	15.96
597.769	15.93
598.189	15.9
598.608	15.87
599.028	15.83
599.448	15.79
599.867	15.74
600.287	15.7
600.706	15.65
601.126	15.6
601.545	15.55
601.965	15.51
602.384	15.46
602.803	15.4
603.222	15.34
603.641	15.28
604.061	15.22
604.48	15.16
604.898	15.09
605.317	15.03
605.736	14.98
606.155	14.91
606.574	14.83
606.992	14.76
607.411	14.7
607.829	14.6
608.248	14.52
608.666	14.45
609.085	14.39
609.503	14.33
609.921	14.26
610.339	14.18
610.758	14.11
611.176	14.04
611.594	13.97
612.012	13.9
612.43	13.86
612.847	13.8
613.265	13.73
613.683	13.65
614.101	13.59
614.518	13.51
614.936	13.45
615.353	13.38
615.771	13.31
616.188	13.25
616.606	13.2
617.023	13.14
617.44	13.1
617.857	13.07
618.274	13.01
618.691	12.96
619.108	12.92
619.525	12.88
619.942	12.85
620.359	12.83
620.776	12.8
621.192	12.77
621.609	12.73
622.026	12.71
622.442	12.68
622.859	12.66
623.275	12.64
623.691	12.63
624.108	12.62
624.524	12.6
624.94	12.58
625.356	12.58
625.772	12.56
626.188	12.56
626.604	12.54
627.02	12.53
627.436	12.52
627.852	12.51
628.268	12.51
628.683	12.49
629.099	12.48
629.514	12.47
629.93	12.45
630.345	12.44
630.761	12.41
631.176	12.38
631.591	12.34
632.007	12.32
632.422	12.27
632.837	12.23
633.252	12.17
633.667	12.13
634.082	12.06
634.497	12.01
634.911	11.94
635.326	11.88
635.741	11.83
636.155	11.76
636.57	11.68
636.984	11.62
637.399	11.54
637.813	11.47
638.228	11.38
638.642	11.3
639.056	11.21
639.47	11.13
639.884	11.04
640.298	10.94
640.712	10.86
641.126	10.77
641.54	10.68
641.954	10.58
642.368	10.49
642.781	10.41
643.195	10.32
643.609	10.24
644.022	10.14
644.436	10.07
644.849	9.99
645.262	9.91
645.676	9.84
646.089	9.77
646.502	9.71
646.915	9.66
647.328	9.6
647.741	9.55
648.154	9.5
648.567	9.47
648.98	9.43
649.393	9.4
649.805	9.38
650.218	9.35
650.631	9.32
651.043	9.28
651.456	9.25
651.868	9.22
652.28	9.2
652.693	9.17
653.105	9.14
653.517	9.09
653.929	9.04
654.341	8.98
654.753	8.92
655.165	8.87
655.577	8.83
655.989	8.77
656.401	8.71
656.813	8.65
657.224	8.57
657.636	8.48
658.047	8.42
658.459	8.36
658.87	8.29
659.282	8.23
659.693	8.16
660.104	8.08
660.515	8.02
660.926	7.96
661.338	7.9
661.749	7.85
662.159	7.8
662.57	7.75
662.981	7.7
663.392	7.67
663.803	7.63
664.213	7.58
664.624	7.55
665.035	7.52
665.445	7.49
665.855	7.46
666.266	7.44
666.676	7.43
667.086	7.4
667.497	7.38
667.907	7.36
668.317	7.34
668.727	7.33
669.137	7.33
669.547	7.32
669.956	7.32
670.366	7.32
670.776	7.31
671.186	7.3
671.595	7.3
672.005	7.3
672.414	7.3
672.824	7.31
673.233	7.32
673.642	7.32
674.052	7.33
674.461	7.35
674.87	7.36
675.279	7.39
675.688	7.41
676.097	7.44
676.506	7.48
676.915	7.51
677.323	7.54
677.732	7.57
678.141	7.62
678.549	7.65
678.958	7.69
679.366	7.74
679.775	7.79
680.183	7.85
680.592	7.91
681	7.98
681.408	8.05
681.816	8.13
682.224	8.22
682.632	8.31
683.04	8.41
683.448	8.52
683.856	8.62
684.264	8.75
684.671	8.9
685.079	9.06
685.487	9.24
685.894	9.44
686.302	9.65
686.709	9.89
687.116	10.14
687.524	10.41
687.931	10.72
688.338	11.06
688.745	11.4
689.152	11.77
689.559	12.15
689.966	12.56
690.373	12.99
690.78	13.41
691.187	13.89
691.593	14.36
692	14.86
692.407	15.33
692.813	15.82
693.22	16.33
693.626	16.84
694.032	17.35
694.439	17.88
694.845	18.41
695.251	18.95
695.657	19.47
696.063	20
696.469	20.53
696.875	21.08
697.281	21.63
697.687	22.18
698.093	22.7
698.498	23.22
698.904	23.75
699.31	24.26
699.715	24.79
700.12	25.3
700.526	25.8
700.931	26.31
701.337	26.78
701.742	27.26
702.147	27.73
702.552	28.24
702.957	28.71
703.362	29.16
703.767	29.62
704.172	30.07
704.577	30.5
704.981	30.94
705.386	31.36
705.791	31.79
706.195	32.23
706.6	32.65
707.004	33.01
707.408	33.42
707.813	33.83
708.217	34.21
708.621	34.58
709.025	34.96
709.43	35.32
709.834	35.68
710.237	36.04
710.641	36.37
711.045	36.71
711.449	37.07
711.853	37.43
712.256	37.74
712.66	38.06
713.064	38.38
713.467	38.69
713.87	39.01
714.274	39.33
714.677	39.63
715.08	39.93
715.484	40.23
715.887	40.53
716.29	40.77
716.693	41.04
717.096	41.31
717.499	41.58
717.901	41.85
718.304	42.12
718.707	42.37
719.109	42.63
719.512	42.88
719.915	43.11
720.317	43.34
720.719	43.55
721.122	43.81
721.524	44.04
721.926	44.26
722.328	44.48
722.731	44.65
723.133	44.85
723.535	45.06
723.937	45.23
724.338	45.39
724.74	45.57
725.142	45.8
725.544	45.94
725.945	46.1
726.347	46.24
726.748	46.4
727.15	46.56
727.551	46.71
727.952	46.83
728.354	46.99
728.755	47.14
729.156	47.28
729.557	47.35
729.958	47.47
730.359	47.57
730.76	47.68
731.161	47.78
731.562	47.91
731.962	47.98
732.363	48.07
732.763	48.15
733.164	48.23
733.564	48.32
733.965	48.42
734.365	48.51
734.766	48.58
735.166	48.67
735.566	48.72
735.966	48.78
736.366	48.86
736.766	48.91
737.166	48.98
737.566	49.03
737.966	49.08
738.365	49.14
738.765	49.19
739.165	49.25
739.564	49.32
739.964	49.37
740.363	49.39
740.763	49.44
741.162	49.48
741.561	49.5
741.96	49.55
742.36	49.57
742.759	49.61
743.158	49.64
743.557	49.64
743.955	49.65
744.354	49.7
744.753	49.77
745.152	49.81
745.55	49.86
745.949	49.91
746.348	49.97
746.746	50.04
747.144	50.06
747.543	50.1
747.941	50.15
748.339	50.17
748.737	50.19
749.136	50.18
749.534	50.2
749.932	50.21
750.33	50.22
750.727	50.21
751.125	50.21
751.523	50.22
751.921	50.24
752.318	50.24
752.716	50.26
753.113	50.28
753.511	50.28
753.908	50.3
754.305	50.3
754.703	50.3
755.1	50.28
755.497	50.26
755.894	50.25
756.291	50.22
756.688	50.21
757.085	50.2
757.482	50.19
757.878	50.17
758.275	50.15
758.672	50.11
759.068	50.11
759.465	50.12
759.861	50.1
760.258	50.09
760.654	50.08
761.05	50.09
761.447	50.1
761.843	50.11
762.239	50.11
762.635	50.09
763.031	50.1
763.427	50.07
763.822	50.09
764.218	50.1
764.614	50.11
765.01	50.13
765.405	50.1
765.801	50.06
766.196	50.05
766.592	50.06
766.987	50.06
767.382	50.05
767.778	50.07
768.173	50.06
768.568	50.05
768.963	50.06
769.358	50.06
769.753	50.08
770.148	50.09
770.542	50.09
770.937	50.08
771.332	50.1
771.726	50.13
772.121	50.12
772.515	50.12
772.91	50.13
773.304	50.11
773.699	50.13
774.093	50.09
774.487	50.1
774.881	50.14
775.275	50.13
775.669	50.1
776.063	50.09
776.457	50.1
776.851	50.11
777.245	50.08
777.638	50.11
778.032	50.1
778.425	50.16
778.819	50.17
779.212	50.17
779.606	50.2
779.999	50.24
780.392	50.26
