Data from C_3_DIV_IL_4N_Splice17_14-14-56-079.txt Node
Date: Sat Mar 07 14:14:56 EST 2020
User: sa697716
Spectrometer: NQ5500242
Trigger mode: 0
Integration Time (sec): 1.450000E-1
Scans to average: 20
Nonlinearity correction enabled: false
Boxcar width: 5
Storing dark spectrum: false
XAxis mode: Wavelengths
Number of Pixels in Spectrum: 512
>>>>>Begin Spectral Data<<<<<
187.83	104.69
188.298	123.02
188.766	113.92
189.233	114.51
189.701	101.44
190.169	113.53
190.636	150.12
191.104	162.81
191.571	186.56
192.039	60.77
192.506	-44.5
192.974	186.73
193.441	265.97
193.908	151.1
194.375	162.4
194.842	80.88
195.31	50.71
195.777	83.39
196.244	54.41
196.711	58.66
197.177	60
197.644	61.69
198.111	60.74
198.578	60.99
199.045	61.93
199.511	61.95
199.978	62.06
200.445	62.37
200.911	62.56
201.378	62.6
201.844	62.61
202.31	62.52
202.777	62.41
203.243	62.69
203.709	62.64
204.176	61.77
204.642	61.12
205.108	61.1
205.574	60.75
206.04	60.18
206.506	59.58
206.972	59.41
207.438	58.58
207.903	57.52
208.369	56.47
208.835	55.13
209.301	54.28
209.766	53.03
210.232	51.54
210.697	50.03
211.163	48.96
211.628	47.79
212.094	46.23
212.559	45.27
213.024	44.24
213.49	43.18
213.955	42.34
214.42	41.25
214.885	40.28
215.35	38.7
215.815	36.86
216.28	34.38
216.745	31.83
217.21	29.43
217.675	27.1
218.14	25.05
218.604	23.27
219.069	21.71
219.534	20.38
219.998	19.3
220.463	18.43
220.927	17.65
221.392	17.04
221.856	16.53
222.32	16.11
222.785	15.7
223.249	15.32
223.713	15
224.177	14.72
224.642	14.47
225.106	14.17
225.57	13.9
226.034	13.68
226.497	13.45
226.961	13.23
227.425	13
227.889	12.81
228.353	12.62
228.816	12.43
229.28	12.25
229.744	12.08
230.207	11.92
230.671	11.77
231.134	11.62
231.597	11.48
232.061	11.35
232.524	11.22
232.987	11.1
233.45	10.98
233.914	10.87
234.377	10.75
234.84	10.63
235.303	10.54
235.766	10.46
236.229	10.35
236.691	10.26
237.154	10.16
237.617	10.07
238.08	9.98
238.542	9.88
239.005	9.8
239.468	9.71
239.93	9.64
240.393	9.55
240.855	9.45
241.317	9.37
241.78	9.29
242.242	9.2
242.704	9.13
243.166	9.06
243.629	8.99
244.091	8.92
244.553	8.84
245.015	8.76
245.477	8.68
245.939	8.63
246.4	8.56
246.862	8.49
247.324	8.43
247.786	8.37
248.247	8.3
248.709	8.23
249.17	8.16
249.632	8.1
250.093	8.05
250.555	8
251.016	7.95
251.477	7.89
251.939	7.85
252.4	7.8
252.861	7.75
253.322	7.71
253.783	7.68
254.244	7.64
254.705	7.6
255.166	7.56
255.627	7.52
256.088	7.48
256.549	7.45
257.009	7.41
257.47	7.38
257.931	7.33
258.391	7.29
258.852	7.24
259.312	7.2
259.773	7.16
260.233	7.12
260.694	7.08
261.154	7.03
261.614	7
262.074	6.96
262.534	6.91
262.994	6.88
263.455	6.85
263.915	6.82
264.374	6.8
264.834	6.78
265.294	6.75
265.754	6.74
266.214	6.72
266.673	6.7
267.133	6.68
267.593	6.67
268.052	6.66
268.512	6.65
268.971	6.63
269.431	6.62
269.89	6.6
270.349	6.59
270.809	6.57
271.268	6.56
271.727	6.54
272.186	6.52
272.645	6.51
273.104	6.49
273.563	6.47
274.022	6.45
274.481	6.43
274.94	6.42
275.399	6.4
275.857	6.39
276.316	6.37
276.775	6.36
277.233	6.35
277.692	6.33
278.15	6.31
278.609	6.31
279.067	6.3
279.525	6.29
279.984	6.27
280.442	6.25
280.9	6.24
281.358	6.22
281.816	6.21
282.274	6.2
282.732	6.18
283.19	6.17
283.648	6.15
284.106	6.13
284.564	6.12
285.021	6.11
285.479	6.1
285.937	6.09
286.394	6.09
286.852	6.08
287.309	6.06
287.767	6.04
288.224	6.02
288.682	6.01
289.139	5.99
289.596	5.97
290.053	5.95
290.511	5.93
290.968	5.9
291.425	5.87
291.882	5.85
292.339	5.83
292.796	5.82
293.252	5.8
293.709	5.78
294.166	5.76
294.623	5.75
295.079	5.73
295.536	5.72
295.992	5.7
296.449	5.68
296.905	5.67
297.362	5.66
297.818	5.64
298.274	5.62
298.731	5.61
299.187	5.58
299.643	5.57
300.099	5.56
300.555	5.54
301.011	5.54
301.467	5.53
301.923	5.51
302.379	5.49
302.835	5.49
303.291	5.47
303.746	5.46
304.202	5.46
304.658	5.46
305.113	5.44
305.569	5.43
306.024	5.43
306.479	5.42
306.935	5.42
307.39	5.42
307.845	5.41
308.301	5.42
308.756	5.41
309.211	5.41
309.666	5.41
310.121	5.41
310.576	5.41
311.031	5.41
311.486	5.4
311.94	5.4
312.395	5.4
312.85	5.39
313.305	5.38
313.759	5.38
314.214	5.38
314.668	5.36
315.123	5.35
315.577	5.35
316.032	5.34
316.486	5.34
316.94	5.33
317.394	5.31
317.849	5.29
318.303	5.28
318.757	5.27
319.211	5.26
319.665	5.25
320.119	5.23
320.572	5.21
321.026	5.21
321.48	5.19
321.934	5.16
322.387	5.15
322.841	5.14
323.295	5.13
323.748	5.11
324.202	5.1
324.655	5.08
325.108	5.07
325.562	5.07
326.015	5.06
326.468	5.05
326.921	5.05
327.374	5.04
327.827	5.04
328.28	5.03
328.733	5.03
329.186	5.02
329.639	5.03
330.092	5.02
330.545	5.02
330.997	5.01
331.45	5.02
331.903	5.02
332.355	5.03
332.808	5.03
333.26	5.03
333.713	5.03
334.165	5.03
334.617	5.03
335.069	5.03
335.522	5.02
335.974	5.02
336.426	5
336.878	5
337.33	4.99
337.782	4.99
338.234	5
338.686	4.99
339.137	4.99
339.589	4.97
340.041	4.97
340.493	4.96
340.944	4.94
341.396	4.95
341.847	4.93
342.299	4.91
342.75	4.89
343.201	4.88
343.653	4.86
344.104	4.84
344.555	4.83
345.006	4.81
345.457	4.8
345.908	4.8
346.359	4.79
346.81	4.78
347.261	4.77
347.712	4.76
348.163	4.75
348.613	4.75
349.064	4.74
349.515	4.73
349.965	4.74
350.416	4.72
350.866	4.71
351.317	4.69
351.767	4.69
352.217	4.69
352.668	4.68
353.118	4.68
353.568	4.67
354.018	4.67
354.468	4.68
354.918	4.67
355.368	4.68
355.818	4.69
356.268	4.69
356.718	4.69
357.168	4.69
357.617	4.7
358.067	4.7
358.517	4.71
358.966	4.71
359.416	4.72
359.865	4.73
360.315	4.72
360.764	4.73
361.213	4.71
361.663	4.72
362.112	4.72
362.561	4.73
363.01	4.73
363.459	4.71
363.908	4.71
364.357	4.71
364.806	4.7
365.255	4.71
365.703	4.72
366.152	4.73
366.601	4.74
367.05	4.74
367.498	4.74
367.947	4.74
368.395	4.76
368.844	4.76
369.292	4.76
369.74	4.77
370.189	4.78
370.637	4.78
371.085	4.78
371.533	4.8
371.981	4.82
372.429	4.83
372.877	4.85
373.325	4.86
373.773	4.88
374.221	4.9
374.669	4.91
375.116	4.92
375.564	4.93
376.012	4.95
376.459	4.95
376.907	4.97
377.354	4.99
377.801	5.01
378.249	5.02
378.696	5.04
379.143	5.06
379.591	5.09
380.038	5.1
380.485	5.12
380.932	5.15
381.379	5.18
381.826	5.21
382.273	5.23
382.72	5.25
383.166	5.27
383.613	5.29
384.06	5.31
384.506	5.33
384.953	5.36
385.4	5.4
385.846	5.44
386.292	5.46
386.739	5.48
387.185	5.51
387.631	5.54
388.078	5.58
388.524	5.6
388.97	5.63
389.416	5.67
389.862	5.7
390.308	5.73
390.754	5.76
391.2	5.8
391.645	5.84
392.091	5.87
392.537	5.91
392.983	5.95
393.428	6
393.874	6.03
394.319	6.08
394.765	6.1
395.21	6.12
395.655	6.14
396.101	6.17
396.546	6.2
396.991	6.23
397.436	6.26
397.881	6.3
398.326	6.33
398.771	6.37
399.216	6.4
399.661	6.44
400.106	6.49
400.551	6.52
400.995	6.55
401.44	6.58
401.885	6.6
402.329	6.62
402.774	6.64
403.218	6.67
403.663	6.7
404.107	6.72
404.551	6.74
404.995	6.75
405.44	6.76
405.884	6.78
406.328	6.8
406.772	6.82
407.216	6.84
407.66	6.87
408.104	6.86
408.547	6.86
408.991	6.88
409.435	6.89
409.879	6.9
410.322	6.94
410.766	6.96
411.209	6.99
411.653	7.01
412.096	7.03
412.54	7.05
412.983	7.07
413.426	7.12
413.869	7.14
414.312	7.18
414.756	7.21
415.199	7.23
415.642	7.25
416.085	7.27
416.527	7.29
416.97	7.29
417.413	7.31
417.856	7.31
418.298	7.31
418.741	7.31
419.184	7.31
419.626	7.3
420.069	7.31
420.511	7.32
420.953	7.33
421.396	7.33
421.838	7.32
422.28	7.32
422.722	7.36
423.164	7.36
423.606	7.37
424.048	7.37
424.49	7.38
424.932	7.38
425.374	7.38
425.816	7.35
426.258	7.34
426.699	7.33
427.141	7.31
427.582	7.29
428.024	7.29
428.465	7.3
428.907	7.3
429.348	7.28
429.789	7.26
430.231	7.27
430.672	7.29
431.113	7.31
431.554	7.34
431.995	7.35
432.436	7.36
432.877	7.36
433.318	7.36
433.759	7.37
434.2	7.41
434.64	7.42
435.081	7.42
435.522	7.42
435.962	7.42
436.403	7.44
436.843	7.45
437.284	7.44
437.724	7.44
438.164	7.44
438.604	7.44
439.045	7.42
439.485	7.43
439.925	7.44
440.365	7.44
440.805	7.45
441.245	7.45
441.685	7.48
442.125	7.51
442.564	7.53
443.004	7.53
443.444	7.54
443.883	7.56
444.323	7.56
444.762	7.58
445.202	7.59
445.641	7.62
446.081	7.63
446.52	7.62
446.959	7.63
447.398	7.65
447.837	7.68
448.276	7.69
448.716	7.7
449.154	7.73
449.593	7.75
450.032	7.76
450.471	7.75
450.91	7.75
451.349	7.75
451.787	7.75
452.226	7.74
452.664	7.74
453.103	7.74
453.541	7.72
453.98	7.73
454.418	7.7
454.856	7.7
455.295	7.67
455.733	7.64
456.171	7.64
456.609	7.62
457.047	7.59
457.485	7.57
457.923	7.56
458.361	7.54
458.798	7.52
459.236	7.52
459.674	7.5
460.111	7.5
460.549	7.5
460.987	7.5
461.424	7.5
461.862	7.5
462.299	7.51
462.736	7.5
463.173	7.5
463.611	7.49
464.048	7.48
464.485	7.48
464.922	7.48
465.359	7.49
465.796	7.47
466.233	7.47
466.67	7.47
467.106	7.48
467.543	7.47
467.98	7.48
468.416	7.48
468.853	7.48
469.29	7.48
469.726	7.49
470.162	7.49
470.599	7.5
471.035	7.5
471.471	7.5
471.907	7.49
472.344	7.5
472.78	7.51
473.216	7.51
473.652	7.52
474.088	7.51
474.523	7.51
474.959	7.51
475.395	7.5
475.831	7.51
476.266	7.52
476.702	7.51
477.138	7.52
477.573	7.51
478.008	7.51
478.444	7.5
478.879	7.51
479.314	7.49
479.75	7.48
480.185	7.46
480.62	7.45
481.055	7.44
481.49	7.43
481.925	7.42
482.36	7.4
482.795	7.39
483.229	7.39
483.664	7.38
484.099	7.38
484.534	7.38
484.968	7.39
485.403	7.39
485.837	7.38
486.271	7.39
486.706	7.4
487.14	7.4
487.574	7.41
488.009	7.42
488.443	7.42
488.877	7.43
489.311	7.45
489.745	7.46
490.179	7.48
490.613	7.51
491.046	7.52
491.48	7.55
491.914	7.58
492.348	7.62
492.781	7.65
493.215	7.69
493.648	7.73
494.082	7.76
494.515	7.79
494.948	7.82
495.382	7.86
495.815	7.91
496.248	7.95
496.681	7.98
497.114	8.03
497.547	8.08
497.98	8.13
498.413	8.18
498.846	8.25
499.279	8.32
499.711	8.38
500.144	8.46
500.577	8.54
501.009	8.61
501.442	8.69
501.874	8.78
502.306	8.86
502.739	8.96
503.171	9.07
503.603	9.16
504.036	9.27
504.468	9.37
504.9	9.47
505.332	9.59
505.764	9.7
506.196	9.82
506.627	9.94
507.059	10.06
507.491	10.19
507.923	10.32
508.354	10.48
508.786	10.62
509.217	10.77
509.649	10.93
510.08	11.09
510.512	11.25
510.943	11.42
511.374	11.6
511.805	11.78
512.237	11.95
512.668	12.13
513.099	12.29
513.53	12.46
513.961	12.65
514.391	12.83
514.822	13.03
515.253	13.22
515.684	13.4
516.114	13.6
516.545	13.79
516.975	14.01
517.406	14.22
517.836	14.42
518.267	14.63
518.697	14.83
519.127	15.03
519.558	15.22
519.988	15.44
520.418	15.64
520.848	15.83
521.278	16.02
521.708	16.23
522.138	16.41
522.567	16.57
522.997	16.74
523.427	16.92
523.857	17.09
524.286	17.25
524.716	17.39
525.145	17.55
525.575	17.7
526.004	17.84
526.433	17.97
526.863	18.11
527.292	18.26
527.721	18.4
528.15	18.52
528.579	18.63
529.008	18.75
529.437	18.86
529.866	18.96
530.295	19.06
530.724	19.16
531.152	19.24
531.581	19.33
532.01	19.41
532.438	19.49
532.867	19.57
533.295	19.64
533.723	19.7
534.152	19.77
534.58	19.84
535.008	19.88
535.436	19.94
535.865	19.99
536.293	20.02
536.721	20.06
537.149	20.09
537.576	20.12
538.004	20.16
538.432	20.18
538.86	20.21
539.287	20.22
539.715	20.26
540.143	20.26
540.57	20.28
540.998	20.29
541.425	20.31
541.852	20.32
542.28	20.33
542.707	20.35
543.134	20.36
543.561	20.39
543.988	20.41
544.415	20.42
544.842	20.42
545.269	20.45
545.696	20.48
546.123	20.5
546.549	20.54
546.976	20.56
547.403	20.58
547.829	20.61
548.256	20.64
548.682	20.66
549.108	20.69
549.535	20.75
549.961	20.75
550.387	20.77
550.813	20.79
551.24	20.8
551.666	20.82
552.092	20.82
552.518	20.83
552.943	20.82
553.369	20.81
553.795	20.79
554.221	20.76
554.646	20.75
555.072	20.73
555.498	20.7
555.923	20.67
556.349	20.61
556.774	20.57
557.199	20.52
557.625	20.48
558.05	20.43
558.475	20.38
558.9	20.34
559.325	20.29
559.75	20.24
560.175	20.18
560.6	20.11
561.025	20.05
561.449	19.98
561.874	19.91
562.299	19.83
562.723	19.75
563.148	19.67
563.572	19.57
563.997	19.47
564.421	19.36
564.846	19.26
565.27	19.15
565.694	19.07
566.118	18.95
566.542	18.85
566.966	18.74
567.39	18.62
567.814	18.49
568.238	18.37
568.662	18.25
569.086	18.14
569.509	18.03
569.933	17.92
570.357	17.79
570.78	17.68
571.204	17.56
571.627	17.45
572.05	17.34
572.474	17.25
572.897	17.17
573.32	17.08
573.743	17
574.166	16.91
574.589	16.82
575.012	16.73
575.435	16.65
575.858	16.57
576.281	16.5
576.704	16.44
577.126	16.38
577.549	16.3
577.972	16.24
578.394	16.17
578.817	16.11
579.239	16.07
579.661	16.02
580.084	15.99
580.506	15.94
580.928	15.9
581.35	15.85
581.772	15.78
582.194	15.73
582.616	15.68
583.038	15.63
583.46	15.58
583.882	15.52
584.303	15.47
584.725	15.42
585.147	15.36
585.568	15.31
585.99	15.27
586.411	15.23
586.833	15.19
587.254	15.14
587.675	15.1
588.096	15.06
588.518	15.03
588.939	15
589.36	14.97
589.781	14.96
590.202	14.92
590.623	14.89
591.043	14.86
591.464	14.84
591.885	14.83
592.305	14.8
592.726	14.78
593.147	14.75
593.567	14.73
593.987	14.71
594.408	14.67
594.828	14.65
595.248	14.64
595.669	14.62
596.089	14.59
596.509	14.56
596.929	14.55
597.349	14.53
597.769	14.52
598.189	14.48
598.608	14.47
599.028	14.45
599.448	14.43
599.867	14.39
600.287	14.36
600.706	14.33
601.126	14.29
601.545	14.25
601.965	14.22
602.384	14.17
602.803	14.12
603.222	14.08
603.641	14.03
604.061	13.98
604.48	13.94
604.898	13.88
605.317	13.84
605.736	13.79
606.155	13.75
606.574	13.7
606.992	13.65
607.411	13.61
607.829	13.52
608.248	13.45
608.666	13.4
609.085	13.35
609.503	13.31
609.921	13.25
610.339	13.2
610.758	13.14
611.176	13.08
611.594	13.03
612.012	12.97
612.43	12.94
612.847	12.9
613.265	12.85
613.683	12.79
614.101	12.74
614.518	12.69
614.936	12.64
615.353	12.58
615.771	12.54
616.188	12.49
616.606	12.45
617.023	12.4
617.44	12.36
617.857	12.33
618.274	12.3
618.691	12.26
619.108	12.23
619.525	12.19
619.942	12.16
620.359	12.12
620.776	12.1
621.192	12.06
621.609	12.06
622.026	12.04
622.442	12.01
622.859	11.98
623.275	11.96
623.691	11.94
624.108	11.93
624.524	11.91
624.94	11.91
625.356	11.9
625.772	11.9
626.188	11.88
626.604	11.86
627.02	11.84
627.436	11.85
627.852	11.84
628.268	11.83
628.683	11.81
629.099	11.81
629.514	11.79
629.93	11.78
630.345	11.77
630.761	11.74
631.176	11.71
631.591	11.69
632.007	11.66
632.422	11.64
632.837	11.6
633.252	11.55
633.667	11.51
634.082	11.46
634.497	11.41
634.911	11.36
635.326	11.32
635.741	11.26
636.155	11.21
636.57	11.15
636.984	11.1
637.399	11.04
637.813	10.99
638.228	10.92
638.642	10.85
639.056	10.78
639.47	10.72
639.884	10.65
640.298	10.59
640.712	10.51
641.126	10.44
641.54	10.37
641.954	10.3
642.368	10.23
642.781	10.17
643.195	10.11
643.609	10.05
644.022	9.98
644.436	9.92
644.849	9.85
645.262	9.79
645.676	9.73
646.089	9.67
646.502	9.63
646.915	9.58
647.328	9.53
647.741	9.49
648.154	9.45
648.567	9.41
648.98	9.37
649.393	9.35
649.805	9.33
650.218	9.3
650.631	9.28
651.043	9.26
651.456	9.23
651.868	9.2
652.28	9.16
652.693	9.14
653.105	9.11
653.517	9.07
653.929	9.04
654.341	8.98
654.753	8.95
655.165	8.91
655.577	8.85
655.989	8.81
656.401	8.77
656.813	8.72
657.224	8.67
657.636	8.6
658.047	8.55
658.459	8.49
658.87	8.45
659.282	8.38
659.693	8.31
660.104	8.24
660.515	8.17
660.926	8.12
661.338	8.05
661.749	8
662.159	7.94
662.57	7.9
662.981	7.85
663.392	7.79
663.803	7.75
664.213	7.71
664.624	7.68
665.035	7.65
665.445	7.61
665.855	7.58
666.266	7.57
666.676	7.55
667.086	7.52
667.497	7.5
667.907	7.48
668.317	7.46
668.727	7.45
669.137	7.43
669.547	7.41
669.956	7.4
670.366	7.4
670.776	7.38
671.186	7.37
671.595	7.37
672.005	7.36
672.414	7.37
672.824	7.37
673.233	7.39
673.642	7.41
674.052	7.42
674.461	7.43
674.87	7.44
675.279	7.47
675.688	7.5
676.097	7.52
676.506	7.54
676.915	7.57
677.323	7.6
677.732	7.62
678.141	7.64
678.549	7.67
678.958	7.7
679.366	7.75
679.775	7.79
680.183	7.84
680.592	7.9
681	7.96
681.408	8.03
681.816	8.09
682.224	8.19
682.632	8.29
683.04	8.39
683.448	8.51
683.856	8.62
684.264	8.74
684.671	8.88
685.079	9.03
685.487	9.19
685.894	9.38
686.302	9.57
686.709	9.76
687.116	9.97
687.524	10.2
687.931	10.44
688.338	10.71
688.745	10.97
689.152	11.26
689.559	11.57
689.966	11.88
690.373	12.2
690.78	12.54
691.187	12.89
691.593	13.26
692	13.63
692.407	13.99
692.813	14.37
693.22	14.76
693.626	15.15
694.032	15.55
694.439	15.96
694.845	16.36
695.251	16.76
695.657	17.15
696.063	17.53
696.469	17.93
696.875	18.34
697.281	18.74
697.687	19.13
698.093	19.51
698.498	19.88
698.904	20.24
699.31	20.6
699.715	20.95
700.12	21.32
700.526	21.68
700.931	22.03
701.337	22.38
701.742	22.7
702.147	23.04
702.552	23.39
702.957	23.71
703.362	24.03
703.767	24.34
704.172	24.66
704.577	24.98
704.981	25.29
705.386	25.59
705.791	25.88
706.195	26.18
706.6	26.48
707.004	26.74
707.408	27.03
707.813	27.3
708.217	27.56
708.621	27.84
709.025	28.09
709.43	28.34
709.834	28.59
710.237	28.84
710.641	29.07
711.045	29.3
711.449	29.55
711.853	29.81
712.256	30.03
712.66	30.26
713.064	30.45
713.467	30.67
713.87	30.87
714.274	31.07
714.677	31.25
715.08	31.45
715.484	31.66
715.887	31.86
716.29	32.03
716.693	32.24
717.096	32.45
717.499	32.66
717.901	32.84
718.304	33.05
718.707	33.25
719.109	33.46
719.512	33.64
719.915	33.81
720.317	33.96
720.719	34.11
721.122	34.25
721.524	34.41
721.926	34.57
722.328	34.73
722.731	34.87
723.133	35.01
723.535	35.13
723.937	35.26
724.338	35.38
724.74	35.49
725.142	35.64
725.544	35.75
725.945	35.87
726.347	35.97
726.748	36.06
727.15	36.16
727.551	36.24
727.952	36.32
728.354	36.41
728.755	36.51
729.156	36.61
729.557	36.68
729.958	36.77
730.359	36.85
730.76	36.92
731.161	37
731.562	37.07
731.962	37.12
732.363	37.19
732.763	37.26
733.164	37.31
733.564	37.36
733.965	37.4
734.365	37.45
734.766	37.46
735.166	37.52
735.566	37.57
735.966	37.62
736.366	37.68
736.766	37.72
737.166	37.76
737.566	37.81
737.966	37.84
738.365	37.87
738.765	37.91
739.165	37.95
739.564	37.99
739.964	38
740.363	38
740.763	38.01
741.162	38.05
741.561	38.06
741.96	38.06
742.36	38.1
742.759	38.11
743.158	38.14
743.557	38.17
743.955	38.19
744.354	38.2
744.753	38.24
745.152	38.29
745.55	38.3
745.949	38.35
746.348	38.39
746.746	38.41
747.144	38.45
747.543	38.46
747.941	38.49
748.339	38.48
748.737	38.51
749.136	38.53
749.534	38.52
749.932	38.53
750.33	38.52
750.727	38.51
751.125	38.5
751.523	38.5
751.921	38.5
752.318	38.48
752.716	38.48
753.113	38.48
753.511	38.48
753.908	38.49
754.305	38.46
754.703	38.44
755.1	38.41
755.497	38.39
755.894	38.34
756.291	38.31
756.688	38.28
757.085	38.26
757.482	38.23
757.878	38.2
758.275	38.15
758.672	38.15
759.068	38.15
759.465	38.15
759.861	38.15
760.258	38.16
760.654	38.15
761.05	38.15
761.447	38.15
761.843	38.15
762.239	38.14
762.635	38.17
763.031	38.16
763.427	38.15
763.822	38.17
764.218	38.19
764.614	38.22
765.01	38.22
765.405	38.24
765.801	38.24
766.196	38.25
766.592	38.26
766.987	38.26
767.382	38.28
767.778	38.3
768.173	38.31
768.568	38.31
768.963	38.29
769.358	38.32
769.753	38.31
770.148	38.32
770.542	38.31
770.937	38.32
771.332	38.32
771.726	38.3
772.121	38.3
772.515	38.28
772.91	38.25
773.304	38.27
773.699	38.26
774.093	38.23
774.487	38.22
774.881	38.22
775.275	38.22
775.669	38.19
776.063	38.19
776.457	38.19
776.851	38.19
777.245	38.17
777.638	38.14
778.032	38.15
778.425	38.19
778.819	38.19
779.212	38.19
779.606	38.22
779.999	38.23
780.392	38.24
780.786	38.22
781.179	38.24
781.572	38.28
781.965	38.29
