Data from C_3_HIR_WI_4N_Splice17_14-02-19-813.txt Node
Date: Sat Mar 07 14:02:19 EST 2020
User: sa697716
Spectrometer: NQ5500242
Trigger mode: 0
Integration Time (sec): 1.450000E-1
Scans to average: 20
Nonlinearity correction enabled: false
Boxcar width: 5
Storing dark spectrum: false
XAxis mode: Wavelengths
Number of Pixels in Spectrum: 512
>>>>>Begin Spectral Data<<<<<
187.83	161.56
188.298	195.45
188.766	143.89
189.233	107.83
189.701	111.93
190.169	115.27
190.636	103.13
191.104	115.66
191.571	45.09
192.039	-42.24
192.506	-964.66
192.974	293.72
193.441	375.51
193.908	90.67
194.375	11.84
194.842	-27.35
195.31	-83.13
195.777	-455.36
196.244	28.53
196.711	49.75
197.177	54.19
197.644	52.76
198.111	53.06
198.578	54.12
199.045	54.61
199.511	54.68
199.978	54.96
200.445	55.15
200.911	55.36
201.378	55.31
201.844	55.35
202.31	54.88
202.777	55.24
203.243	55.38
203.709	55.1
204.176	54.56
204.642	54.78
205.108	54.63
205.574	54.45
206.04	54.08
206.506	53.64
206.972	53.4
207.438	52.98
207.903	52.04
208.369	51.02
208.835	50.04
209.301	48.92
209.766	47.18
210.232	45.74
210.697	44.41
211.163	43.24
211.628	42.02
212.094	40.85
212.559	39.95
213.024	38.95
213.49	38.09
213.955	37.07
214.42	36.35
214.885	35.38
215.35	34.1
215.815	32.42
216.28	30.26
216.745	27.91
217.21	25.54
217.675	23.26
218.14	21.36
218.604	19.58
219.069	18.19
219.534	16.94
219.998	15.95
220.463	15.1
220.927	14.33
221.392	13.76
221.856	13.28
222.32	12.82
222.785	12.43
223.249	12.09
223.713	11.78
224.177	11.51
224.642	11.25
225.106	10.99
225.57	10.77
226.034	10.56
226.497	10.33
226.961	10.13
227.425	9.96
227.889	9.8
228.353	9.62
228.816	9.45
229.28	9.3
229.744	9.15
230.207	9
230.671	8.86
231.134	8.72
231.597	8.63
232.061	8.51
232.524	8.4
232.987	8.29
233.45	8.19
233.914	8.09
234.377	7.98
234.84	7.89
235.303	7.82
235.766	7.75
236.229	7.67
236.691	7.58
237.154	7.5
237.617	7.44
238.08	7.37
238.542	7.3
239.005	7.26
239.468	7.2
239.93	7.14
240.393	7.07
240.855	6.99
241.317	6.93
241.78	6.87
242.242	6.8
242.704	6.73
243.166	6.68
243.629	6.62
244.091	6.55
244.553	6.48
245.015	6.42
245.477	6.36
245.939	6.31
246.4	6.25
246.862	6.2
247.324	6.15
247.786	6.1
248.247	6.04
248.709	5.98
249.17	5.92
249.632	5.89
250.093	5.86
250.555	5.82
251.016	5.78
251.477	5.74
251.939	5.7
252.4	5.67
252.861	5.63
253.322	5.6
253.783	5.57
254.244	5.54
254.705	5.51
255.166	5.48
255.627	5.45
256.088	5.42
256.549	5.4
257.009	5.36
257.47	5.32
257.931	5.28
258.391	5.25
258.852	5.22
259.312	5.18
259.773	5.15
260.233	5.11
260.694	5.08
261.154	5.04
261.614	5.01
262.074	4.98
262.534	4.95
262.994	4.93
263.455	4.9
263.915	4.88
264.374	4.86
264.834	4.84
265.294	4.82
265.754	4.8
266.214	4.79
266.673	4.77
267.133	4.76
267.593	4.74
268.052	4.73
268.512	4.72
268.971	4.71
269.431	4.69
269.89	4.67
270.349	4.66
270.809	4.65
271.268	4.64
271.727	4.63
272.186	4.62
272.645	4.61
273.104	4.6
273.563	4.59
274.022	4.58
274.481	4.57
274.94	4.56
275.399	4.55
275.857	4.54
276.316	4.52
276.775	4.51
277.233	4.5
277.692	4.5
278.15	4.48
278.609	4.47
279.067	4.46
279.525	4.45
279.984	4.44
280.442	4.43
280.9	4.43
281.358	4.43
281.816	4.42
282.274	4.42
282.732	4.41
283.19	4.4
283.648	4.39
284.106	4.39
284.564	4.39
285.021	4.39
285.479	4.38
285.937	4.37
286.394	4.36
286.852	4.35
287.309	4.34
287.767	4.33
288.224	4.32
288.682	4.31
289.139	4.29
289.596	4.28
290.053	4.26
290.511	4.24
290.968	4.22
291.425	4.21
291.882	4.19
292.339	4.17
292.796	4.16
293.252	4.15
293.709	4.14
294.166	4.13
294.623	4.11
295.079	4.1
295.536	4.09
295.992	4.08
296.449	4.06
296.905	4.06
297.362	4.05
297.818	4.04
298.274	4.03
298.731	4.02
299.187	4.01
299.643	3.99
300.099	3.99
300.555	3.98
301.011	3.97
301.467	3.97
301.923	3.95
302.379	3.94
302.835	3.94
303.291	3.93
303.746	3.92
304.202	3.92
304.658	3.92
305.113	3.91
305.569	3.91
306.024	3.9
306.479	3.89
306.935	3.88
307.39	3.88
307.845	3.87
308.301	3.87
308.756	3.87
309.211	3.86
309.666	3.87
310.121	3.87
310.576	3.86
311.031	3.87
311.486	3.87
311.94	3.87
312.395	3.87
312.85	3.86
313.305	3.86
313.759	3.86
314.214	3.86
314.668	3.85
315.123	3.83
315.577	3.83
316.032	3.82
316.486	3.81
316.94	3.8
317.394	3.79
317.849	3.77
318.303	3.75
318.757	3.73
319.211	3.72
319.665	3.7
320.119	3.69
320.572	3.68
321.026	3.67
321.48	3.66
321.934	3.64
322.387	3.63
322.841	3.62
323.295	3.62
323.748	3.62
324.202	3.61
324.655	3.59
325.108	3.59
325.562	3.58
326.015	3.58
326.468	3.58
326.921	3.58
327.374	3.57
327.827	3.57
328.28	3.56
328.733	3.55
329.186	3.54
329.639	3.55
330.092	3.55
330.545	3.55
330.997	3.55
331.45	3.56
331.903	3.57
332.355	3.58
332.808	3.57
333.26	3.57
333.713	3.58
334.165	3.58
334.617	3.58
335.069	3.57
335.522	3.57
335.974	3.58
336.426	3.56
336.878	3.54
337.33	3.54
337.782	3.54
338.234	3.54
338.686	3.54
339.137	3.55
339.589	3.55
340.041	3.55
340.493	3.53
340.944	3.52
341.396	3.51
341.847	3.5
342.299	3.48
342.75	3.47
343.201	3.44
343.653	3.42
344.104	3.4
344.555	3.38
345.006	3.37
345.457	3.35
345.908	3.35
346.359	3.34
346.81	3.33
347.261	3.32
347.712	3.31
348.163	3.31
348.613	3.32
349.064	3.32
349.515	3.32
349.965	3.31
350.416	3.31
350.866	3.3
351.317	3.29
351.767	3.3
352.217	3.3
352.668	3.3
353.118	3.3
353.568	3.29
354.018	3.3
354.468	3.3
354.918	3.3
355.368	3.31
355.818	3.32
356.268	3.32
356.718	3.32
357.168	3.32
357.617	3.32
358.067	3.32
358.517	3.33
358.966	3.33
359.416	3.33
359.865	3.33
360.315	3.34
360.764	3.34
361.213	3.34
361.663	3.34
362.112	3.35
362.561	3.36
363.01	3.36
363.459	3.35
363.908	3.36
364.357	3.36
364.806	3.36
365.255	3.37
365.703	3.39
366.152	3.4
366.601	3.41
367.05	3.43
367.498	3.44
367.947	3.46
368.395	3.49
368.844	3.51
369.292	3.52
369.74	3.54
370.189	3.55
370.637	3.56
371.085	3.58
371.533	3.6
371.981	3.62
372.429	3.64
372.877	3.66
373.325	3.68
373.773	3.7
374.221	3.71
374.669	3.73
375.116	3.76
375.564	3.78
376.012	3.8
376.459	3.82
376.907	3.85
377.354	3.87
377.801	3.9
378.249	3.93
378.696	3.96
379.143	3.99
379.591	4.03
380.038	4.05
380.485	4.1
380.932	4.12
381.379	4.16
381.826	4.18
382.273	4.22
382.72	4.24
383.166	4.27
383.613	4.3
384.06	4.33
384.506	4.36
384.953	4.41
385.4	4.43
385.846	4.48
386.292	4.5
386.739	4.53
387.185	4.55
387.631	4.6
388.078	4.63
388.524	4.67
388.97	4.71
389.416	4.75
389.862	4.77
390.308	4.8
390.754	4.84
391.2	4.88
391.645	4.92
392.091	4.97
392.537	5
392.983	5.04
393.428	5.09
393.874	5.12
394.319	5.14
394.765	5.17
395.21	5.18
395.655	5.21
396.101	5.23
396.546	5.25
396.991	5.27
397.436	5.29
397.881	5.32
398.326	5.33
398.771	5.36
399.216	5.39
399.661	5.43
400.106	5.46
400.551	5.47
400.995	5.48
401.44	5.48
401.885	5.49
402.329	5.5
402.774	5.49
403.218	5.51
403.663	5.53
404.107	5.54
404.551	5.53
404.995	5.54
405.44	5.53
405.884	5.54
406.328	5.55
406.772	5.55
407.216	5.56
407.66	5.56
408.104	5.55
408.547	5.53
408.991	5.53
409.435	5.53
409.879	5.52
410.322	5.54
410.766	5.55
411.209	5.56
411.653	5.57
412.096	5.58
412.54	5.58
412.983	5.59
413.426	5.63
413.869	5.63
414.312	5.66
414.756	5.67
415.199	5.67
415.642	5.68
416.085	5.68
416.527	5.68
416.97	5.66
417.413	5.66
417.856	5.65
418.298	5.63
418.741	5.62
419.184	5.61
419.626	5.6
420.069	5.61
420.511	5.59
420.953	5.59
421.396	5.59
421.838	5.6
422.28	5.61
422.722	5.62
423.164	5.63
423.606	5.64
424.048	5.64
424.49	5.63
424.932	5.63
425.374	5.62
425.816	5.58
426.258	5.56
426.699	5.54
427.141	5.52
427.582	5.51
428.024	5.51
428.465	5.5
428.907	5.49
429.348	5.48
429.789	5.48
430.231	5.5
430.672	5.53
431.113	5.54
431.554	5.55
431.995	5.57
432.436	5.58
432.877	5.59
433.318	5.6
433.759	5.62
434.2	5.64
434.64	5.66
435.081	5.66
435.522	5.67
435.962	5.69
436.403	5.73
436.843	5.73
437.284	5.74
437.724	5.74
438.164	5.74
438.604	5.75
439.045	5.77
439.485	5.78
439.925	5.8
440.365	5.81
440.805	5.81
441.245	5.82
441.685	5.85
442.125	5.87
442.564	5.9
443.004	5.91
443.444	5.93
443.883	5.95
444.323	5.95
444.762	5.97
445.202	6
445.641	6.04
446.081	6.08
446.52	6.09
446.959	6.13
447.398	6.17
447.837	6.21
448.276	6.25
448.716	6.27
449.154	6.33
449.593	6.36
450.032	6.39
450.471	6.41
450.91	6.42
451.349	6.46
451.787	6.47
452.226	6.47
452.664	6.48
453.103	6.47
453.541	6.48
453.98	6.48
454.418	6.48
454.856	6.46
455.295	6.45
455.733	6.43
456.171	6.42
456.609	6.4
457.047	6.39
457.485	6.37
457.923	6.38
458.361	6.35
458.798	6.34
459.236	6.33
459.674	6.31
460.111	6.31
460.549	6.31
460.987	6.3
461.424	6.31
461.862	6.3
462.299	6.32
462.736	6.31
463.173	6.31
463.611	6.32
464.048	6.33
464.485	6.34
464.922	6.34
465.359	6.34
465.796	6.35
466.233	6.36
466.67	6.36
467.106	6.37
467.543	6.38
467.98	6.38
468.416	6.37
468.853	6.37
469.29	6.37
469.726	6.37
470.162	6.38
470.599	6.38
471.035	6.37
471.471	6.37
471.907	6.36
472.344	6.37
472.78	6.38
473.216	6.38
473.652	6.38
474.088	6.37
474.523	6.38
474.959	6.37
475.395	6.36
475.831	6.37
476.266	6.38
476.702	6.37
477.138	6.36
477.573	6.36
478.008	6.37
478.444	6.36
478.879	6.37
479.314	6.37
479.75	6.37
480.185	6.37
480.62	6.36
481.055	6.35
481.49	6.35
481.925	6.35
482.36	6.36
482.795	6.35
483.229	6.36
483.664	6.38
484.099	6.39
484.534	6.4
484.968	6.42
485.403	6.43
485.837	6.45
486.271	6.48
486.706	6.5
487.14	6.52
487.574	6.55
488.009	6.58
488.443	6.62
488.877	6.65
489.311	6.7
489.745	6.73
490.179	6.79
490.613	6.85
491.046	6.9
491.48	6.97
491.914	7.04
492.348	7.11
492.781	7.18
493.215	7.25
493.648	7.32
494.082	7.4
494.515	7.48
494.948	7.58
495.382	7.66
495.815	7.76
496.248	7.85
496.681	7.95
497.114	8.05
497.547	8.16
497.98	8.28
498.413	8.4
498.846	8.53
499.279	8.66
499.711	8.79
500.144	8.94
500.577	9.08
501.009	9.23
501.442	9.4
501.874	9.56
502.306	9.73
502.739	9.91
503.171	10.08
503.603	10.28
504.036	10.47
504.468	10.68
504.9	10.86
505.332	11.07
505.764	11.3
506.196	11.52
506.627	11.75
507.059	11.99
507.491	12.24
507.923	12.49
508.354	12.76
508.786	13.03
509.217	13.3
509.649	13.58
510.08	13.86
510.512	14.15
510.943	14.43
511.374	14.73
511.805	15.03
512.237	15.32
512.668	15.63
513.099	15.94
513.53	16.24
513.961	16.56
514.391	16.89
514.822	17.22
515.253	17.53
515.684	17.86
516.114	18.18
516.545	18.51
516.975	18.85
517.406	19.16
517.836	19.47
518.267	19.8
518.697	20.11
519.127	20.41
519.558	20.72
519.988	21.03
520.418	21.33
520.848	21.64
521.278	21.93
521.708	22.36
522.138	22.65
522.567	22.93
522.997	23.2
523.427	23.47
523.857	23.72
524.286	23.95
524.716	24.21
525.145	24.45
525.575	24.67
526.004	24.89
526.433	24.94
526.863	25.15
527.292	25.35
527.721	25.52
528.15	25.7
528.579	25.88
529.008	26.05
529.437	26.18
529.866	26.31
530.295	26.45
530.724	26.58
531.152	26.72
531.581	26.83
532.01	26.94
532.438	27.07
532.867	27.16
533.295	27.27
533.723	27.36
534.152	27.43
534.58	27.53
535.008	27.6
535.436	27.66
535.865	27.74
536.293	27.8
536.721	27.85
537.149	27.89
537.576	27.94
538.004	27.98
538.432	28.02
538.86	28.08
539.287	28.1
539.715	28.15
540.143	28.18
540.57	28.19
540.998	28.22
541.425	28.24
541.852	28.28
542.28	28.31
542.707	28.33
543.134	28.36
543.561	28.38
543.988	28.43
544.415	28.44
544.842	28.47
545.269	28.5
545.696	28.54
546.123	28.56
546.549	28.59
546.976	28.63
547.403	28.65
547.829	28.67
548.256	28.68
548.682	28.7
549.108	28.73
549.535	28.76
549.961	28.77
550.387	28.79
550.813	28.81
551.24	28.82
551.666	28.81
552.092	28.81
552.518	28.81
552.943	28.8
553.369	28.79
553.795	28.76
554.221	28.74
554.646	28.71
555.072	28.66
555.498	28.64
555.923	28.59
556.349	28.53
556.774	28.46
557.199	28.4
557.625	28.34
558.05	28.26
558.475	28.2
558.9	28.13
559.325	28.06
559.75	27.99
560.175	27.89
560.6	27.8
561.025	27.73
561.449	27.64
561.874	27.52
562.299	27.41
562.723	27.29
563.148	27.18
563.572	27.04
563.997	26.9
564.421	26.75
564.846	26.61
565.27	26.47
565.694	26.32
566.118	26.16
566.542	26.03
566.966	25.85
567.39	25.71
567.814	25.53
568.238	25.37
568.662	25.23
569.086	25.08
569.509	24.93
569.933	24.77
570.357	24.61
570.78	24.46
571.204	24.3
571.627	24.17
572.05	24.02
572.474	23.9
572.897	23.75
573.32	23.6
573.743	23.46
574.166	23.33
574.589	23.19
575.012	23.07
575.435	22.94
575.858	22.82
576.281	22.71
576.704	22.6
577.126	22.48
577.549	22.37
577.972	22.26
578.394	22.16
578.817	22.07
579.239	21.97
579.661	21.87
580.084	21.78
580.506	21.69
580.928	21.6
581.35	21.51
581.772	21.43
582.194	21.36
582.616	21.3
583.038	21.21
583.46	21.12
583.882	21.05
584.303	20.98
584.725	20.91
585.147	20.83
585.568	20.76
585.99	20.7
586.411	20.63
586.833	20.57
587.254	20.5
587.675	20.44
588.096	20.38
588.518	20.33
588.939	20.29
589.36	20.22
589.781	20.17
590.202	20.12
590.623	20.08
591.043	20.03
591.464	19.99
591.885	19.94
592.305	19.91
592.726	19.89
593.147	19.83
593.567	19.78
593.987	19.75
594.408	19.7
594.828	19.68
595.248	19.65
595.669	19.62
596.089	19.59
596.509	19.56
596.929	19.53
597.349	19.49
597.769	19.45
598.189	19.41
598.608	19.4
599.028	19.37
599.448	19.31
599.867	19.25
600.287	19.2
600.706	19.15
601.126	19.1
601.545	19.06
601.965	19
602.384	18.96
602.803	18.9
603.222	18.82
603.641	18.76
604.061	18.7
604.48	18.63
604.898	18.55
605.317	18.47
605.736	18.4
606.155	18.32
606.574	18.24
606.992	18.16
607.411	18.08
607.829	17.97
608.248	17.87
608.666	17.78
609.085	17.7
609.503	17.62
609.921	17.54
610.339	17.44
610.758	17.36
611.176	17.25
611.594	17.16
612.012	17.08
612.43	17.02
612.847	16.94
613.265	16.84
613.683	16.77
614.101	16.68
614.518	16.59
614.936	16.51
615.353	16.43
615.771	16.36
616.188	16.29
616.606	16.22
617.023	16.16
617.44	16.1
617.857	16.05
618.274	15.98
618.691	15.92
619.108	15.88
619.525	15.83
619.942	15.79
620.359	15.73
620.776	15.68
621.192	15.63
621.609	15.59
622.026	15.55
622.442	15.51
622.859	15.48
623.275	15.46
623.691	15.43
624.108	15.4
624.524	15.38
624.94	15.37
625.356	15.35
625.772	15.35
626.188	15.34
626.604	15.33
627.02	15.3
627.436	15.3
627.852	15.28
628.268	15.26
628.683	15.26
629.099	15.25
629.514	15.22
629.93	15.21
630.345	15.17
630.761	15.13
631.176	15.09
631.591	15.06
632.007	15.01
632.422	14.96
632.837	14.9
633.252	14.83
633.667	14.76
634.082	14.68
634.497	14.59
634.911	14.5
635.326	14.42
635.741	14.31
636.155	14.2
636.57	14.09
636.984	14
637.399	13.87
637.813	13.75
638.228	13.61
638.642	13.49
639.056	13.36
639.47	13.23
639.884	13.09
640.298	12.95
640.712	12.81
641.126	12.67
641.54	12.52
641.954	12.38
642.368	12.25
642.781	12.13
643.195	11.99
643.609	11.85
644.022	11.72
644.436	11.6
644.849	11.49
645.262	11.38
645.676	11.27
646.089	11.17
646.502	11.08
646.915	11
647.328	10.91
647.741	10.82
648.154	10.75
648.567	10.69
648.98	10.63
649.393	10.56
649.805	10.51
650.218	10.46
650.631	10.4
651.043	10.34
651.456	10.28
651.868	10.22
652.28	10.17
652.693	10.11
653.105	10.06
653.517	9.99
653.929	9.93
654.341	9.86
654.753	9.77
655.165	9.7
655.577	9.62
655.989	9.52
656.401	9.44
656.813	9.35
657.224	9.24
657.636	9.13
658.047	9.02
658.459	8.9
658.87	8.78
659.282	8.66
659.693	8.56
660.104	8.45
660.515	8.33
660.926	8.23
661.338	8.12
661.749	8.01
662.159	7.91
662.57	7.81
662.981	7.72
663.392	7.63
663.803	7.55
664.213	7.45
664.624	7.36
665.035	7.29
665.445	7.21
665.855	7.14
666.266	7.08
666.676	7.03
667.086	6.98
667.497	6.92
667.907	6.88
668.317	6.84
668.727	6.81
669.137	6.79
669.547	6.76
669.956	6.74
670.366	6.73
670.776	6.72
671.186	6.71
671.595	6.71
672.005	6.71
672.414	6.72
672.824	6.73
673.233	6.74
673.642	6.75
674.052	6.75
674.461	6.77
674.87	6.79
675.279	6.82
675.688	6.85
676.097	6.88
676.506	6.92
676.915	6.95
677.323	6.98
677.732	7.03
678.141	7.08
678.549	7.14
678.958	7.2
679.366	7.28
679.775	7.34
680.183	7.44
680.592	7.54
681	7.65
681.408	7.77
681.816	7.92
682.224	8.07
682.632	8.24
683.04	8.44
683.448	8.64
683.856	8.86
684.264	9.11
684.671	9.39
685.079	9.68
685.487	10
685.894	10.36
686.302	10.73
686.709	11.13
687.116	11.56
687.524	12.01
687.931	12.48
688.338	12.98
688.745	13.5
689.152	14.01
689.559	14.57
689.966	15.15
690.373	15.73
690.78	16.32
691.187	16.91
691.593	17.53
692	18.14
692.407	18.76
692.813	19.38
693.22	20
693.626	20.62
694.032	21.25
694.439	21.86
694.845	22.47
695.251	23.09
695.657	23.7
696.063	24.3
696.469	24.91
696.875	25.51
697.281	26.1
697.687	26.69
698.093	27.25
698.498	27.79
698.904	28.34
699.31	28.87
699.715	29.4
700.12	29.91
700.526	30.41
700.931	30.92
701.337	31.39
701.742	31.86
702.147	32.31
702.552	32.77
702.957	33.2
703.362	33.62
703.767	34.02
704.172	34.4
704.577	34.81
704.981	35.21
705.386	35.57
705.791	35.93
706.195	36.3
706.6	36.66
707.004	37
707.408	37.37
707.813	37.72
708.217	38.06
708.621	38.4
709.025	38.71
709.43	39
709.834	39.31
710.237	39.62
710.641	39.91
711.045	40.2
711.449	40.48
711.853	40.77
712.256	41.03
712.66	41.32
713.064	41.59
713.467	41.85
713.87	42.13
714.274	42.36
714.677	42.59
715.08	42.81
715.484	43.05
715.887	43.3
716.29	43.52
716.693	43.74
717.096	43.96
717.499	44.17
717.901	44.38
718.304	44.56
718.707	44.76
719.109	44.97
719.512	45.16
719.915	45.33
720.317	45.49
720.719	45.65
721.122	45.8
721.524	45.98
721.926	46.15
722.328	46.31
722.731	46.46
723.133	46.62
723.535	46.74
723.937	46.9
724.338	47.03
724.74	47.18
725.142	47.38
725.544	47.5
725.945	47.61
726.347	47.7
726.748	47.8
727.15	47.9
727.551	48.02
727.952	48.11
728.354	48.21
728.755	48.3
729.156	48.36
729.557	48.37
729.958	48.45
730.359	48.52
730.76	48.61
731.161	48.68
731.562	48.76
731.962	48.8
732.363	48.88
732.763	48.93
733.164	48.99
733.564	49.07
733.965	49.13
734.365	49.22
734.766	49.26
735.166	49.31
735.566	49.4
735.966	49.46
736.366	49.51
736.766	49.55
737.166	49.6
737.566	49.64
737.966	49.67
738.365	49.73
738.765	49.77
739.165	49.81
739.564	49.85
739.964	49.87
740.363	49.88
740.763	49.93
741.162	49.95
741.561	49.95
741.96	49.97
742.36	50
742.759	50
743.158	49.98
743.557	49.99
743.955	50.01
744.354	50.03
744.753	50.07
745.152	50.1
745.55	50.12
745.949	50.18
746.348	50.22
746.746	50.24
747.144	50.29
747.543	50.34
747.941	50.39
748.339	50.39
748.737	50.4
749.136	50.39
749.534	50.36
749.932	50.41
750.33	50.42
750.727	50.42
751.125	50.41
751.523	50.41
751.921	50.42
752.318	50.4
752.716	50.42
753.113	50.43
753.511	50.44
753.908	50.49
754.305	50.47
754.703	50.45
755.1	50.46
755.497	50.48
755.894	50.46
756.291	50.43
756.688	50.4
757.085	50.37
757.482	50.36
757.878	50.36
758.275	50.33
758.672	50.31
759.068	50.32
759.465	50.29
759.861	50.29
760.258	50.3
760.654	50.3
761.05	50.31
761.447	50.32
761.843	50.32
762.239	50.3
762.635	50.29
763.031	50.3
763.427	50.29
763.822	50.3
764.218	50.31
764.614	50.3
765.01	50.31
765.405	50.3
765.801	50.32
766.196	50.32
766.592	50.3
766.987	50.32
767.382	50.3
767.778	50.31
768.173	50.31
768.568	50.29
768.963	50.29
769.358	50.31
769.753	50.31
770.148	50.31
770.542	50.3
770.937	50.35
771.332	50.33
771.726	50.35
772.121	50.35
772.515	50.34
772.91	50.36
773.304	50.38
773.699	50.38
774.093	50.39
774.487	50.36
774.881	50.4
775.275	50.39
775.669	50.38
776.063	50.37
776.457	50.38
776.851	50.36
777.245	50.31
777.638	50.29
778.032	50.27
778.425	50.29
778.819	50.3
779.212	50.29
779.606	50.32
779.999	50.33
780.392	50.36
780.786	50.35
781.179	50.4
781.572	50.44
