Data from C_3_DEC_CT_2N_Splice17_13-54-48-215.txt Node
Date: Sat Mar 07 13:54:48 EST 2020
User: sa697716
Spectrometer: NQ5500242
Trigger mode: 0
Integration Time (sec): 1.450000E-1
Scans to average: 20
Nonlinearity correction enabled: false
Boxcar width: 5
Storing dark spectrum: false
XAxis mode: Wavelengths
Number of Pixels in Spectrum: 512
>>>>>Begin Spectral Data<<<<<
187.83	232.21
188.298	242.17
188.766	214.96
189.233	184.71
189.701	208.99
190.169	239.49
190.636	264.71
191.104	339.15
191.571	148.45
192.039	-79.41
192.506	-473.7
192.974	183.45
193.441	293.73
193.908	133.3
194.375	97.3
194.842	86.2
195.31	169.8
195.777	283.15
196.244	64.45
196.711	51.61
197.177	51.79
197.644	51.69
198.111	50.93
198.578	51.28
199.045	51.62
199.511	51.73
199.978	52.28
200.445	52.28
200.911	52.42
201.378	52.41
201.844	52.57
202.31	52.18
202.777	52.01
203.243	52.22
203.709	51.71
204.176	51.37
204.642	51.17
205.108	50.81
205.574	50.41
206.04	49.83
206.506	49.14
206.972	48.78
207.438	48.35
207.903	47.82
208.369	46.93
208.835	46.16
209.301	45.01
209.766	43.53
210.232	42.21
210.697	40.86
211.163	39.84
211.628	39.02
212.094	37.81
212.559	37.04
213.024	36.08
213.49	35.23
213.955	34.36
214.42	33.61
214.885	32.74
215.35	31.55
215.815	30.08
216.28	27.97
216.745	25.51
217.21	23.24
217.675	20.96
218.14	19.07
218.604	17.36
219.069	15.93
219.534	14.73
219.998	13.75
220.463	12.97
220.927	12.2
221.392	11.64
221.856	11.22
222.32	10.84
222.785	10.5
223.249	10.19
223.713	9.95
224.177	9.72
224.642	9.5
225.106	9.28
225.57	9.03
226.034	8.88
226.497	8.71
226.961	8.53
227.425	8.36
227.889	8.22
228.353	8.07
228.816	7.9
229.28	7.77
229.744	7.65
230.207	7.51
230.671	7.4
231.134	7.28
231.597	7.17
232.061	7.07
232.524	6.97
232.987	6.88
233.45	6.8
233.914	6.71
234.377	6.61
234.84	6.53
235.303	6.46
235.766	6.39
236.229	6.32
236.691	6.23
237.154	6.16
237.617	6.09
238.08	6.03
238.542	5.96
239.005	5.92
239.468	5.86
239.93	5.81
240.393	5.76
240.855	5.69
241.317	5.62
241.78	5.58
242.242	5.51
242.704	5.48
243.166	5.42
243.629	5.37
244.091	5.31
244.553	5.25
245.015	5.2
245.477	5.14
245.939	5.09
246.4	5.04
246.862	4.98
247.324	4.93
247.786	4.87
248.247	4.81
248.709	4.75
249.17	4.69
249.632	4.66
250.093	4.62
250.555	4.57
251.016	4.53
251.477	4.5
251.939	4.47
252.4	4.44
252.861	4.4
253.322	4.38
253.783	4.35
254.244	4.33
254.705	4.28
255.166	4.25
255.627	4.22
256.088	4.2
256.549	4.17
257.009	4.13
257.47	4.09
257.931	4.06
258.391	4.02
258.852	3.99
259.312	3.95
259.773	3.92
260.233	3.89
260.694	3.86
261.154	3.82
261.614	3.79
262.074	3.75
262.534	3.73
262.994	3.7
263.455	3.68
263.915	3.65
264.374	3.63
264.834	3.61
265.294	3.59
265.754	3.57
266.214	3.55
266.673	3.53
267.133	3.52
267.593	3.5
268.052	3.49
268.512	3.48
268.971	3.47
269.431	3.46
269.89	3.45
270.349	3.44
270.809	3.43
271.268	3.42
271.727	3.41
272.186	3.41
272.645	3.4
273.104	3.38
273.563	3.38
274.022	3.37
274.481	3.36
274.94	3.36
275.399	3.34
275.857	3.34
276.316	3.33
276.775	3.32
277.233	3.32
277.692	3.32
278.15	3.32
278.609	3.31
279.067	3.31
279.525	3.31
279.984	3.3
280.442	3.3
280.9	3.3
281.358	3.3
281.816	3.3
282.274	3.3
282.732	3.3
283.19	3.3
283.648	3.3
284.106	3.29
284.564	3.29
285.021	3.29
285.479	3.29
285.937	3.29
286.394	3.29
286.852	3.28
287.309	3.28
287.767	3.28
288.224	3.27
288.682	3.26
289.139	3.25
289.596	3.23
290.053	3.22
290.511	3.2
290.968	3.18
291.425	3.16
291.882	3.15
292.339	3.14
292.796	3.12
293.252	3.11
293.709	3.1
294.166	3.1
294.623	3.09
295.079	3.08
295.536	3.08
295.992	3.07
296.449	3.07
296.905	3.07
297.362	3.06
297.818	3.05
298.274	3.05
298.731	3.05
299.187	3.03
299.643	3.03
300.099	3.02
300.555	3.02
301.011	3.01
301.467	3.01
301.923	3
302.379	3
302.835	3.01
303.291	3
303.746	3
304.202	3.01
304.658	3.01
305.113	3.01
305.569	3.01
306.024	3.01
306.479	3.01
306.935	3.01
307.39	3.02
307.845	3.02
308.301	3.02
308.756	3.03
309.211	3.03
309.666	3.04
310.121	3.04
310.576	3.05
311.031	3.05
311.486	3.05
311.94	3.05
312.395	3.06
312.85	3.06
313.305	3.06
313.759	3.07
314.214	3.07
314.668	3.06
315.123	3.06
315.577	3.06
316.032	3.05
316.486	3.06
316.94	3.06
317.394	3.05
317.849	3.03
318.303	3.02
318.757	3.01
319.211	3
319.665	2.99
320.119	2.97
320.572	2.96
321.026	2.95
321.48	2.95
321.934	2.93
322.387	2.93
322.841	2.92
323.295	2.92
323.748	2.92
324.202	2.92
324.655	2.93
325.108	2.94
325.562	2.94
326.015	2.94
326.468	2.94
326.921	2.95
327.374	2.95
327.827	2.96
328.28	2.96
328.733	2.95
329.186	2.95
329.639	2.96
330.092	2.96
330.545	2.96
330.997	2.95
331.45	2.96
331.903	2.96
332.355	2.96
332.808	2.96
333.26	2.96
333.713	2.96
334.165	2.96
334.617	2.96
335.069	2.95
335.522	2.96
335.974	2.97
336.426	2.97
336.878	2.96
337.33	2.96
337.782	2.96
338.234	2.98
338.686	2.98
339.137	2.98
339.589	2.98
340.041	2.99
340.493	2.98
340.944	2.96
341.396	2.96
341.847	2.95
342.299	2.93
342.75	2.93
343.201	2.91
343.653	2.9
344.104	2.88
344.555	2.87
345.006	2.86
345.457	2.85
345.908	2.85
346.359	2.85
346.81	2.85
347.261	2.84
347.712	2.83
348.163	2.83
348.613	2.83
349.064	2.84
349.515	2.84
349.965	2.84
350.416	2.83
350.866	2.83
351.317	2.82
351.767	2.83
352.217	2.83
352.668	2.83
353.118	2.83
353.568	2.82
354.018	2.82
354.468	2.83
354.918	2.84
355.368	2.85
355.818	2.85
356.268	2.86
356.718	2.85
357.168	2.85
357.617	2.86
358.067	2.86
358.517	2.88
358.966	2.89
359.416	2.89
359.865	2.89
360.315	2.89
360.764	2.89
361.213	2.89
361.663	2.89
362.112	2.9
362.561	2.91
363.01	2.91
363.459	2.89
363.908	2.88
364.357	2.88
364.806	2.88
365.255	2.88
365.703	2.89
366.152	2.9
366.601	2.9
367.05	2.9
367.498	2.88
367.947	2.88
368.395	2.9
368.844	2.9
369.292	2.9
369.74	2.9
370.189	2.9
370.637	2.89
371.085	2.88
371.533	2.88
371.981	2.88
372.429	2.88
372.877	2.88
373.325	2.88
373.773	2.87
374.221	2.87
374.669	2.87
375.116	2.87
375.564	2.87
376.012	2.87
376.459	2.87
376.907	2.88
377.354	2.88
377.801	2.89
378.249	2.89
378.696	2.89
379.143	2.9
379.591	2.9
380.038	2.9
380.485	2.9
380.932	2.91
381.379	2.9
381.826	2.91
382.273	2.9
382.72	2.89
383.166	2.89
383.613	2.89
384.06	2.88
384.506	2.88
384.953	2.88
385.4	2.88
385.846	2.88
386.292	2.88
386.739	2.87
387.185	2.88
387.631	2.88
388.078	2.89
388.524	2.9
388.97	2.91
389.416	2.93
389.862	2.94
390.308	2.97
390.754	2.98
391.2	2.99
391.645	3.01
392.091	3.03
392.537	3.05
392.983	3.05
393.428	3.06
393.874	3.07
394.319	3.08
394.765	3.09
395.21	3.08
395.655	3.08
396.101	3.1
396.546	3.11
396.991	3.13
397.436	3.14
397.881	3.17
398.326	3.2
398.771	3.21
399.216	3.23
399.661	3.25
400.106	3.27
400.551	3.29
400.995	3.3
401.44	3.31
401.885	3.31
402.329	3.33
402.774	3.33
403.218	3.35
403.663	3.38
404.107	3.39
404.551	3.4
404.995	3.41
405.44	3.42
405.884	3.43
406.328	3.45
406.772	3.46
407.216	3.48
407.66	3.49
408.104	3.49
408.547	3.5
408.991	3.53
409.435	3.55
409.879	3.56
410.322	3.59
410.766	3.61
411.209	3.65
411.653	3.67
412.096	3.7
412.54	3.72
412.983	3.74
413.426	3.78
413.869	3.81
414.312	3.84
414.756	3.86
415.199	3.88
415.642	3.9
416.085	3.91
416.527	3.9
416.97	3.9
417.413	3.9
417.856	3.89
418.298	3.87
418.741	3.87
419.184	3.87
419.626	3.88
420.069	3.88
420.511	3.88
420.953	3.89
421.396	3.91
421.838	3.92
422.28	3.94
422.722	3.97
423.164	4
423.606	4.02
424.048	4.02
424.49	4.04
424.932	4.05
425.374	4.04
425.816	4.03
426.258	4.01
426.699	4.02
427.141	4.02
427.582	4.03
428.024	4.03
428.465	4.04
428.907	4.05
429.348	4.04
429.789	4.06
430.231	4.09
430.672	4.12
431.113	4.15
431.554	4.17
431.995	4.2
432.436	4.21
432.877	4.22
433.318	4.23
433.759	4.26
434.2	4.29
434.64	4.3
435.081	4.32
435.522	4.34
435.962	4.37
436.403	4.41
436.843	4.41
437.284	4.41
437.724	4.42
438.164	4.42
438.604	4.42
439.045	4.42
439.485	4.43
439.925	4.43
440.365	4.43
440.805	4.43
441.245	4.43
441.685	4.45
442.125	4.49
442.564	4.5
443.004	4.5
443.444	4.51
443.883	4.53
444.323	4.52
444.762	4.53
445.202	4.52
445.641	4.54
446.081	4.54
446.52	4.54
446.959	4.54
447.398	4.56
447.837	4.58
448.276	4.58
448.716	4.58
449.154	4.6
449.593	4.61
450.032	4.62
450.471	4.61
450.91	4.61
451.349	4.61
451.787	4.58
452.226	4.56
452.664	4.56
453.103	4.54
453.541	4.53
453.98	4.53
454.418	4.51
454.856	4.5
455.295	4.48
455.733	4.46
456.171	4.44
456.609	4.43
457.047	4.42
457.485	4.41
457.923	4.4
458.361	4.4
458.798	4.38
459.236	4.38
459.674	4.37
460.111	4.36
460.549	4.37
460.987	4.37
461.424	4.38
461.862	4.38
462.299	4.41
462.736	4.41
463.173	4.42
463.611	4.43
464.048	4.43
464.485	4.45
464.922	4.46
465.359	4.46
465.796	4.49
466.233	4.5
466.67	4.51
467.106	4.51
467.543	4.5
467.98	4.5
468.416	4.48
468.853	4.48
469.29	4.48
469.726	4.47
470.162	4.46
470.599	4.44
471.035	4.42
471.471	4.39
471.907	4.37
472.344	4.37
472.78	4.36
473.216	4.36
473.652	4.35
474.088	4.33
474.523	4.34
474.959	4.33
475.395	4.31
475.831	4.3
476.266	4.3
476.702	4.29
477.138	4.28
477.573	4.28
478.008	4.27
478.444	4.25
478.879	4.25
479.314	4.24
479.75	4.22
480.185	4.21
480.62	4.2
481.055	4.18
481.49	4.16
481.925	4.15
482.36	4.13
482.795	4.11
483.229	4.11
483.664	4.1
484.099	4.09
484.534	4.08
484.968	4.08
485.403	4.07
485.837	4.08
486.271	4.08
486.706	4.08
487.14	4.08
487.574	4.09
488.009	4.09
488.443	4.09
488.877	4.1
489.311	4.1
489.745	4.11
490.179	4.12
490.613	4.12
491.046	4.13
491.48	4.14
491.914	4.15
492.348	4.16
492.781	4.19
493.215	4.21
493.648	4.22
494.082	4.24
494.515	4.25
494.948	4.27
495.382	4.3
495.815	4.32
496.248	4.34
496.681	4.36
497.114	4.38
497.547	4.4
497.98	4.43
498.413	4.46
498.846	4.49
499.279	4.53
499.711	4.56
500.144	4.6
500.577	4.64
501.009	4.67
501.442	4.73
501.874	4.78
502.306	4.84
502.739	4.91
503.171	4.97
503.603	5.03
504.036	5.11
504.468	5.18
504.9	5.24
505.332	5.32
505.764	5.41
506.196	5.49
506.627	5.58
507.059	5.68
507.491	5.76
507.923	5.87
508.354	5.98
508.786	6.1
509.217	6.22
509.649	6.36
510.08	6.49
510.512	6.62
510.943	6.77
511.374	6.91
511.805	7.06
512.237	7.21
512.668	7.36
513.099	7.52
513.53	7.69
513.961	7.87
514.391	8.06
514.822	8.26
515.253	8.44
515.684	8.63
516.114	8.84
516.545	9.05
516.975	9.27
517.406	9.48
517.836	9.69
518.267	9.92
518.697	10.14
519.127	10.36
519.558	10.57
519.988	10.8
520.418	11.03
520.848	11.25
521.278	11.48
521.708	11.87
522.138	12.09
522.567	12.32
522.997	12.51
523.427	12.73
523.857	12.94
524.286	13.13
524.716	13.34
525.145	13.54
525.575	13.73
526.004	13.92
526.433	13.92
526.863	14.1
527.292	14.27
527.721	14.44
528.15	14.59
528.579	14.73
529.008	14.89
529.437	15.02
529.866	15.14
530.295	15.28
530.724	15.41
531.152	15.53
531.581	15.65
532.01	15.76
532.438	15.86
532.867	15.97
533.295	16.08
533.723	16.16
534.152	16.24
534.58	16.33
535.008	16.4
535.436	16.46
535.865	16.52
536.293	16.57
536.721	16.62
537.149	16.67
537.576	16.73
538.004	16.77
538.432	16.82
538.86	16.86
539.287	16.88
539.715	16.93
540.143	16.96
540.57	17
540.998	17.04
541.425	17.08
541.852	17.11
542.28	17.14
542.707	17.17
543.134	17.19
543.561	17.23
543.988	17.29
544.415	17.3
544.842	17.32
545.269	17.35
545.696	17.4
546.123	17.42
546.549	17.46
546.976	17.51
547.403	17.54
547.829	17.56
548.256	17.59
548.682	17.59
549.108	17.63
549.535	17.66
549.961	17.68
550.387	17.69
550.813	17.7
551.24	17.69
551.666	17.66
552.092	17.65
552.518	17.64
552.943	17.62
553.369	17.6
553.795	17.56
554.221	17.51
554.646	17.47
555.072	17.44
555.498	17.38
555.923	17.33
556.349	17.26
556.774	17.2
557.199	17.12
557.625	17.06
558.05	16.98
558.475	16.9
558.9	16.83
559.325	16.75
559.75	16.65
560.175	16.55
560.6	16.44
561.025	16.33
561.449	16.21
561.874	16.08
562.299	15.96
562.723	15.84
563.148	15.71
563.572	15.56
563.997	15.42
564.421	15.26
564.846	15.12
565.27	14.97
565.694	14.84
566.118	14.69
566.542	14.56
566.966	14.4
567.39	14.25
567.814	14.1
568.238	13.95
568.662	13.8
569.086	13.66
569.509	13.52
569.933	13.38
570.357	13.23
570.78	13.1
571.204	12.96
571.627	12.83
572.05	12.7
572.474	12.59
572.897	12.48
573.32	12.36
573.743	12.25
574.166	12.14
574.589	12.04
575.012	11.94
575.435	11.83
575.858	11.73
576.281	11.63
576.704	11.54
577.126	11.43
577.549	11.34
577.972	11.26
578.394	11.18
578.817	11.1
579.239	11.02
579.661	10.95
580.084	10.89
580.506	10.83
580.928	10.76
581.35	10.7
581.772	10.64
582.194	10.59
582.616	10.53
583.038	10.48
583.46	10.41
583.882	10.35
584.303	10.29
584.725	10.23
585.147	10.2
585.568	10.15
585.99	10.11
586.411	10.06
586.833	10
587.254	9.94
587.675	9.89
588.096	9.85
588.518	9.82
588.939	9.78
589.36	9.75
589.781	9.69
590.202	9.66
590.623	9.63
591.043	9.59
591.464	9.56
591.885	9.54
592.305	9.51
592.726	9.49
593.147	9.46
593.567	9.42
593.987	9.38
594.408	9.36
594.828	9.32
595.248	9.3
595.669	9.27
596.089	9.24
596.509	9.2
596.929	9.18
597.349	9.15
597.769	9.12
598.189	9.09
598.608	9.07
599.028	9.05
599.448	9.01
599.867	8.97
600.287	8.94
600.706	8.91
601.126	8.88
601.545	8.84
601.965	8.81
602.384	8.78
602.803	8.74
603.222	8.7
603.641	8.64
604.061	8.61
604.48	8.57
604.898	8.52
605.317	8.46
605.736	8.42
606.155	8.38
606.574	8.32
606.992	8.26
607.411	8.21
607.829	8.13
608.248	8.08
608.666	8.01
609.085	7.96
609.503	7.92
609.921	7.86
610.339	7.8
610.758	7.74
611.176	7.68
611.594	7.63
612.012	7.58
612.43	7.56
612.847	7.5
613.265	7.46
613.683	7.41
614.101	7.36
614.518	7.32
614.936	7.26
615.353	7.22
615.771	7.17
616.188	7.12
616.606	7.09
617.023	7.05
617.44	7.01
617.857	6.97
618.274	6.94
618.691	6.91
619.108	6.88
619.525	6.85
619.942	6.83
620.359	6.82
620.776	6.79
621.192	6.77
621.609	6.75
622.026	6.73
622.442	6.72
622.859	6.69
623.275	6.67
623.691	6.67
624.108	6.66
624.524	6.65
624.94	6.65
625.356	6.65
625.772	6.65
626.188	6.63
626.604	6.63
627.02	6.62
627.436	6.62
627.852	6.62
628.268	6.61
628.683	6.6
629.099	6.59
629.514	6.58
629.93	6.57
630.345	6.56
630.761	6.54
631.176	6.52
631.591	6.51
632.007	6.5
632.422	6.47
632.837	6.45
633.252	6.42
633.667	6.38
634.082	6.34
634.497	6.32
634.911	6.28
635.326	6.25
635.741	6.22
636.155	6.18
636.57	6.13
636.984	6.09
637.399	6.04
637.813	6
638.228	5.95
638.642	5.9
639.056	5.84
639.47	5.79
639.884	5.73
640.298	5.67
640.712	5.62
641.126	5.56
641.54	5.5
641.954	5.43
642.368	5.39
642.781	5.35
643.195	5.29
643.609	5.25
644.022	5.19
644.436	5.15
644.849	5.1
645.262	5.06
645.676	5.02
646.089	4.99
646.502	4.96
646.915	4.93
647.328	4.9
647.741	4.87
648.154	4.83
648.567	4.81
648.98	4.78
649.393	4.77
649.805	4.75
650.218	4.72
650.631	4.7
651.043	4.69
651.456	4.67
651.868	4.64
652.28	4.63
652.693	4.63
653.105	4.61
653.517	4.59
653.929	4.58
654.341	4.56
654.753	4.53
655.165	4.52
655.577	4.5
655.989	4.48
656.401	4.46
656.813	4.43
657.224	4.4
657.636	4.36
658.047	4.34
658.459	4.31
658.87	4.28
659.282	4.26
659.693	4.23
660.104	4.2
660.515	4.17
660.926	4.14
661.338	4.11
661.749	4.09
662.159	4.08
662.57	4.07
662.981	4.06
663.392	4.04
663.803	4.02
664.213	4.01
664.624	4
665.035	3.99
665.445	3.99
665.855	4
666.266	4
666.676	4
667.086	3.99
667.497	3.99
667.907	4
668.317	4
668.727	4
669.137	4
669.547	4.01
669.956	4.01
670.366	4.02
670.776	4.02
671.186	4.03
671.595	4.04
672.005	4.04
672.414	4.06
672.824	4.08
673.233	4.1
673.642	4.11
674.052	4.13
674.461	4.14
674.87	4.15
675.279	4.17
675.688	4.19
676.097	4.21
676.506	4.23
676.915	4.25
677.323	4.26
677.732	4.27
678.141	4.3
678.549	4.33
678.958	4.35
679.366	4.38
679.775	4.41
680.183	4.44
680.592	4.49
681	4.52
681.408	4.56
681.816	4.6
682.224	4.64
682.632	4.68
683.04	4.72
683.448	4.78
683.856	4.82
684.264	4.88
684.671	4.94
685.079	5
685.487	5.09
685.894	5.19
686.302	5.29
686.709	5.4
687.116	5.54
687.524	5.7
687.931	5.86
688.338	6.04
688.745	6.24
689.152	6.45
689.559	6.7
689.966	6.96
690.373	7.24
690.78	7.55
691.187	7.87
691.593	8.21
692	8.57
692.407	8.94
692.813	9.35
693.22	9.76
693.626	10.21
694.032	10.66
694.439	11.14
694.845	11.62
695.251	12.12
695.657	12.63
696.063	13.15
696.469	13.69
696.875	14.26
697.281	14.82
697.687	15.4
698.093	15.98
698.498	16.54
698.904	17.12
699.31	17.7
699.715	18.3
700.12	18.89
700.526	19.5
700.931	20.1
701.337	20.7
701.742	21.27
702.147	21.85
702.552	22.45
702.957	23.04
703.362	23.63
703.767	24.22
704.172	24.79
704.577	25.37
704.981	25.94
705.386	26.5
705.791	27.07
706.195	27.67
706.6	28.27
707.004	28.82
707.408	29.39
707.813	29.97
708.217	30.54
708.621	31.11
709.025	31.66
709.43	32.2
709.834	32.75
710.237	33.31
710.641	33.83
711.045	34.36
711.449	34.89
711.853	35.44
712.256	35.96
712.66	36.47
713.064	36.97
713.467	37.51
713.87	38.02
714.274	38.52
714.677	38.99
715.08	39.46
715.484	39.96
715.887	40.45
716.29	40.86
716.693	41.32
717.096	41.79
717.499	42.29
717.901	42.71
718.304	43.17
718.707	43.61
719.109	44.06
719.512	44.5
719.915	44.89
720.317	45.27
720.719	45.67
721.122	46.06
721.524	46.44
721.926	46.8
722.328	47.19
722.731	47.53
723.133	47.9
723.535	48.24
723.937	48.6
724.338	48.94
724.74	49.3
725.142	49.77
725.544	50.08
725.945	50.42
726.347	50.69
726.748	50.96
727.15	51.22
727.551	51.5
727.952	51.75
728.354	51.98
728.755	52.23
729.156	52.45
729.557	52.56
729.958	52.77
730.359	52.96
730.76	53.17
731.161	53.37
731.562	53.62
731.962	53.78
732.363	53.99
732.763	54.18
733.164	54.34
733.564	54.53
733.965	54.68
734.365	54.88
734.766	55.03
735.166	55.18
735.566	55.35
735.966	55.49
736.366	55.61
736.766	55.74
737.166	55.89
737.566	56.01
737.966	56.12
738.365	56.24
738.765	56.36
739.165	56.49
739.564	56.59
739.964	56.68
740.363	56.74
740.763	56.85
741.162	56.95
741.561	57
741.96	57.07
742.36	57.15
742.759	57.23
743.158	57.26
743.557	57.3
743.955	57.35
744.354	57.41
744.753	57.46
745.152	57.54
745.55	57.58
745.949	57.68
746.348	57.75
746.746	57.79
747.144	57.84
747.543	57.88
747.941	57.94
748.339	57.98
748.737	58.01
749.136	58.07
749.534	58.08
749.932	58.11
750.33	58.11
750.727	58.12
751.125	58.16
751.523	58.16
751.921	58.21
752.318	58.21
752.716	58.23
753.113	58.23
753.511	58.25
753.908	58.29
754.305	58.31
754.703	58.31
755.1	58.31
755.497	58.32
755.894	58.34
756.291	58.35
756.688	58.36
757.085	58.38
757.482	58.43
757.878	58.44
758.275	58.42
758.672	58.44
759.068	58.5
759.465	58.51
759.861	58.51
760.258	58.53
760.654	58.54
761.05	58.56
761.447	58.58
761.843	58.55
762.239	58.57
762.635	58.56
763.031	58.57
763.427	58.53
763.822	58.54
764.218	58.57
764.614	58.56
765.01	58.56
765.405	58.55
765.801	58.53
766.196	58.56
766.592	58.54
766.987	58.56
767.382	58.57
767.778	58.59
768.173	58.62
768.568	58.6
768.963	58.63
769.358	58.63
769.753	58.64
770.148	58.68
770.542	58.68
770.937	58.69
771.332	58.69
771.726	58.69
772.121	58.7
772.515	58.68
772.91	58.67
773.304	58.65
773.699	58.65
774.093	58.62
774.487	58.61
774.881	58.63
775.275	58.62
775.669	58.61
776.063	58.62
776.457	58.59
776.851	58.57
777.245	58.55
777.638	58.54
778.032	58.54
778.425	58.57
778.819	58.56
779.212	58.57
779.606	58.61
779.999	58.62
780.392	58.63
780.786	58.64
781.179	58.67
781.572	58.72
781.965	58.74
782.358	58.76
782.751	58.77
783.143	58.79
783.536	58.78
783.929	58.77
784.322	58.79
784.714	58.79
785.107	58.81
785.499	58.82
785.891	58.8
786.284	58.84
786.676	58.85
787.068	58.83
787.46	58.83
787.852	58.86
