Data from C_3_HIR_WI_4N_Splice17_14-05-29-117.txt Node
Date: Sat Mar 07 14:05:29 EST 2020
User: sa697716
Spectrometer: NQ5500242
Trigger mode: 0
Integration Time (sec): 1.450000E-1
Scans to average: 20
Nonlinearity correction enabled: false
Boxcar width: 5
Storing dark spectrum: false
XAxis mode: Wavelengths
Number of Pixels in Spectrum: 512
>>>>>Begin Spectral Data<<<<<
187.83	124.94
188.298	133.31
188.766	97.83
189.233	92.21
189.701	98.63
190.169	116.77
190.636	137.83
191.104	228.61
191.571	72.97
192.039	77.78
192.506	132.17
192.974	107.23
193.441	158.16
193.908	1.5
194.375	58.85
194.842	33.07
195.31	62.35
195.777	314.58
196.244	81.81
196.711	60.25
197.177	60.01
197.644	58.73
198.111	57.61
198.578	57.6
199.045	57.72
199.511	57.49
199.978	57.7
200.445	57.58
200.911	57.23
201.378	56.88
201.844	56.84
202.31	56.49
202.777	56.71
203.243	56.89
203.709	56.41
204.176	56.04
204.642	55.5
205.108	55.43
205.574	55.27
206.04	54.74
206.506	54.28
206.972	53.88
207.438	53.64
207.903	52.72
208.369	51.81
208.835	50.99
209.301	49.76
209.766	48.68
210.232	46.92
210.697	45.62
211.163	44.78
211.628	43.95
212.094	42.9
212.559	41.74
213.024	40.83
213.49	39.85
213.955	38.98
214.42	38.45
214.885	37.44
215.35	36.42
215.815	34.47
216.28	32.21
216.745	29.78
217.21	27.38
217.675	25.2
218.14	23.23
218.604	21.55
219.069	20.17
219.534	18.88
219.998	17.9
220.463	17.06
220.927	16.39
221.392	15.83
221.856	15.37
222.32	14.96
222.785	14.58
223.249	14.27
223.713	13.98
224.177	13.69
224.642	13.45
225.106	13.19
225.57	12.94
226.034	12.74
226.497	12.54
226.961	12.34
227.425	12.17
227.889	11.99
228.353	11.81
228.816	11.62
229.28	11.46
229.744	11.32
230.207	11.18
230.671	11.03
231.134	10.89
231.597	10.76
232.061	10.64
232.524	10.51
232.987	10.39
233.45	10.28
233.914	10.19
234.377	10.08
234.84	9.97
235.303	9.88
235.766	9.79
236.229	9.7
236.691	9.6
237.154	9.51
237.617	9.43
238.08	9.35
238.542	9.25
239.005	9.18
239.468	9.09
239.93	9.02
240.393	8.95
240.855	8.88
241.317	8.8
241.78	8.72
242.242	8.64
242.704	8.57
243.166	8.5
243.629	8.45
244.091	8.37
244.553	8.31
245.015	8.24
245.477	8.16
245.939	8.09
246.4	8.03
246.862	7.98
247.324	7.92
247.786	7.85
248.247	7.79
248.709	7.71
249.17	7.65
249.632	7.62
250.093	7.57
250.555	7.52
251.016	7.47
251.477	7.42
251.939	7.38
252.4	7.35
252.861	7.32
253.322	7.29
253.783	7.27
254.244	7.23
254.705	7.18
255.166	7.15
255.627	7.11
256.088	7.08
256.549	7.05
257.009	7.01
257.47	6.97
257.931	6.93
258.391	6.87
258.852	6.83
259.312	6.79
259.773	6.74
260.233	6.71
260.694	6.67
261.154	6.63
261.614	6.59
262.074	6.56
262.534	6.52
262.994	6.49
263.455	6.47
263.915	6.45
264.374	6.43
264.834	6.42
265.294	6.39
265.754	6.38
266.214	6.36
266.673	6.34
267.133	6.31
267.593	6.3
268.052	6.28
268.512	6.28
268.971	6.26
269.431	6.25
269.89	6.23
270.349	6.22
270.809	6.2
271.268	6.19
271.727	6.18
272.186	6.17
272.645	6.15
273.104	6.13
273.563	6.12
274.022	6.1
274.481	6.09
274.94	6.07
275.399	6.05
275.857	6.04
276.316	6.03
276.775	6.01
277.233	6.01
277.692	6
278.15	5.99
278.609	5.98
279.067	5.97
279.525	5.96
279.984	5.95
280.442	5.94
280.9	5.93
281.358	5.92
281.816	5.91
282.274	5.9
282.732	5.88
283.19	5.87
283.648	5.86
284.106	5.84
284.564	5.84
285.021	5.84
285.479	5.84
285.937	5.83
286.394	5.82
286.852	5.81
287.309	5.81
287.767	5.8
288.224	5.79
288.682	5.77
289.139	5.76
289.596	5.74
290.053	5.71
290.511	5.69
290.968	5.67
291.425	5.65
291.882	5.63
292.339	5.61
292.796	5.6
293.252	5.58
293.709	5.57
294.166	5.56
294.623	5.55
295.079	5.54
295.536	5.53
295.992	5.52
296.449	5.51
296.905	5.5
297.362	5.49
297.818	5.48
298.274	5.47
298.731	5.45
299.187	5.44
299.643	5.43
300.099	5.43
300.555	5.42
301.011	5.41
301.467	5.4
301.923	5.39
302.379	5.38
302.835	5.38
303.291	5.37
303.746	5.36
304.202	5.36
304.658	5.35
305.113	5.34
305.569	5.33
306.024	5.32
306.479	5.32
306.935	5.31
307.39	5.31
307.845	5.29
308.301	5.3
308.756	5.29
309.211	5.28
309.666	5.29
310.121	5.29
310.576	5.29
311.031	5.29
311.486	5.29
311.94	5.29
312.395	5.29
312.85	5.3
313.305	5.3
313.759	5.3
314.214	5.29
314.668	5.27
315.123	5.26
315.577	5.25
316.032	5.24
316.486	5.23
316.94	5.22
317.394	5.2
317.849	5.17
318.303	5.16
318.757	5.13
319.211	5.12
319.665	5.1
320.119	5.09
320.572	5.07
321.026	5.06
321.48	5.04
321.934	5.03
322.387	5.02
322.841	5.01
323.295	5
323.748	5
324.202	5
324.655	5
325.108	5
325.562	5
326.015	4.99
326.468	4.98
326.921	4.98
327.374	4.97
327.827	4.97
328.28	4.97
328.733	4.96
329.186	4.95
329.639	4.94
330.092	4.94
330.545	4.93
330.997	4.92
331.45	4.93
331.903	4.93
332.355	4.93
332.808	4.93
333.26	4.93
333.713	4.92
334.165	4.92
334.617	4.92
335.069	4.92
335.522	4.92
335.974	4.93
336.426	4.91
336.878	4.91
337.33	4.9
337.782	4.9
338.234	4.9
338.686	4.9
339.137	4.9
339.589	4.89
340.041	4.88
340.493	4.87
340.944	4.85
341.396	4.85
341.847	4.84
342.299	4.81
342.75	4.8
343.201	4.78
343.653	4.75
344.104	4.73
344.555	4.72
345.006	4.7
345.457	4.69
345.908	4.68
346.359	4.67
346.81	4.65
347.261	4.64
347.712	4.64
348.163	4.62
348.613	4.62
349.064	4.61
349.515	4.6
349.965	4.6
350.416	4.59
350.866	4.58
351.317	4.57
351.767	4.57
352.217	4.57
352.668	4.57
353.118	4.57
353.568	4.57
354.018	4.58
354.468	4.58
354.918	4.58
355.368	4.59
355.818	4.59
356.268	4.6
356.718	4.61
357.168	4.6
357.617	4.6
358.067	4.6
358.517	4.62
358.966	4.62
359.416	4.63
359.865	4.62
360.315	4.63
360.764	4.63
361.213	4.63
361.663	4.63
362.112	4.64
362.561	4.65
363.01	4.65
363.459	4.64
363.908	4.64
364.357	4.64
364.806	4.64
365.255	4.65
365.703	4.66
366.152	4.66
366.601	4.68
367.05	4.68
367.498	4.69
367.947	4.71
368.395	4.73
368.844	4.75
369.292	4.77
369.74	4.79
370.189	4.81
370.637	4.83
371.085	4.84
371.533	4.86
371.981	4.88
372.429	4.92
372.877	4.94
373.325	4.96
373.773	4.99
374.221	5.01
374.669	5.04
375.116	5.06
375.564	5.09
376.012	5.13
376.459	5.15
376.907	5.18
377.354	5.21
377.801	5.24
378.249	5.27
378.696	5.3
379.143	5.33
379.591	5.36
380.038	5.4
380.485	5.43
380.932	5.47
381.379	5.51
381.826	5.55
382.273	5.59
382.72	5.62
383.166	5.67
383.613	5.71
384.06	5.74
384.506	5.79
384.953	5.83
385.4	5.86
385.846	5.91
386.292	5.95
386.739	5.98
387.185	6.02
387.631	6.07
388.078	6.11
388.524	6.15
388.97	6.19
389.416	6.23
389.862	6.28
390.308	6.34
390.754	6.38
391.2	6.42
391.645	6.47
392.091	6.51
392.537	6.56
392.983	6.6
393.428	6.67
393.874	6.72
394.319	6.76
394.765	6.79
395.21	6.81
395.655	6.85
396.101	6.89
396.546	6.91
396.991	6.96
397.436	6.99
397.881	7.02
398.326	7.05
398.771	7.08
399.216	7.11
399.661	7.16
400.106	7.19
400.551	7.21
400.995	7.23
401.44	7.24
401.885	7.24
402.329	7.25
402.774	7.26
403.218	7.28
403.663	7.3
404.107	7.31
404.551	7.3
404.995	7.31
405.44	7.32
405.884	7.33
406.328	7.35
406.772	7.36
407.216	7.38
407.66	7.38
408.104	7.37
408.547	7.37
408.991	7.38
409.435	7.38
409.879	7.39
410.322	7.41
410.766	7.42
411.209	7.43
411.653	7.46
412.096	7.45
412.54	7.47
412.983	7.5
413.426	7.53
413.869	7.55
414.312	7.58
414.756	7.6
415.199	7.61
415.642	7.61
416.085	7.63
416.527	7.62
416.97	7.62
417.413	7.61
417.856	7.6
418.298	7.58
418.741	7.56
419.184	7.55
419.626	7.53
420.069	7.53
420.511	7.54
420.953	7.53
421.396	7.54
421.838	7.54
422.28	7.55
422.722	7.55
423.164	7.56
423.606	7.56
424.048	7.57
424.49	7.57
424.932	7.56
425.374	7.54
425.816	7.51
426.258	7.47
426.699	7.45
427.141	7.43
427.582	7.42
428.024	7.41
428.465	7.41
428.907	7.38
429.348	7.36
429.789	7.33
430.231	7.33
430.672	7.34
431.113	7.36
431.554	7.37
431.995	7.38
432.436	7.38
432.877	7.38
433.318	7.38
433.759	7.39
434.2	7.41
434.64	7.42
435.081	7.44
435.522	7.46
435.962	7.46
436.403	7.49
436.843	7.51
437.284	7.51
437.724	7.53
438.164	7.53
438.604	7.55
439.045	7.56
439.485	7.58
439.925	7.6
440.365	7.61
440.805	7.62
441.245	7.65
441.685	7.67
442.125	7.69
442.564	7.72
443.004	7.73
443.444	7.77
443.883	7.79
444.323	7.79
444.762	7.81
445.202	7.83
445.641	7.87
446.081	7.9
446.52	7.91
446.959	7.95
447.398	7.98
447.837	8.03
448.276	8.05
448.716	8.08
449.154	8.14
449.593	8.19
450.032	8.21
450.471	8.23
450.91	8.23
451.349	8.25
451.787	8.25
452.226	8.25
452.664	8.24
453.103	8.24
453.541	8.24
453.98	8.24
454.418	8.21
454.856	8.21
455.295	8.18
455.733	8.16
456.171	8.15
456.609	8.15
457.047	8.13
457.485	8.12
457.923	8.11
458.361	8.1
458.798	8.08
459.236	8.06
459.674	8.06
460.111	8.06
460.549	8.07
460.987	8.07
461.424	8.06
461.862	8.06
462.299	8.05
462.736	8.05
463.173	8.05
463.611	8.05
464.048	8.05
464.485	8.05
464.922	8.05
465.359	8.04
465.796	8.05
466.233	8.05
466.67	8.06
467.106	8.06
467.543	8.06
467.98	8.06
468.416	8.05
468.853	8.06
469.29	8.07
469.726	8.07
470.162	8.06
470.599	8.06
471.035	8.06
471.471	8.06
471.907	8.07
472.344	8.08
472.78	8.09
473.216	8.1
473.652	8.1
474.088	8.09
474.523	8.11
474.959	8.12
475.395	8.12
475.831	8.12
476.266	8.13
476.702	8.11
477.138	8.11
477.573	8.12
478.008	8.13
478.444	8.12
478.879	8.13
479.314	8.11
479.75	8.1
480.185	8.09
480.62	8.08
481.055	8.08
481.49	8.09
481.925	8.1
482.36	8.09
482.795	8.08
483.229	8.09
483.664	8.1
484.099	8.1
484.534	8.11
484.968	8.14
485.403	8.16
485.837	8.18
486.271	8.21
486.706	8.22
487.14	8.23
487.574	8.27
488.009	8.3
488.443	8.32
488.877	8.35
489.311	8.39
489.745	8.43
490.179	8.47
490.613	8.52
491.046	8.56
491.48	8.62
491.914	8.68
492.348	8.74
492.781	8.81
493.215	8.89
493.648	8.97
494.082	9.04
494.515	9.11
494.948	9.19
495.382	9.27
495.815	9.37
496.248	9.48
496.681	9.58
497.114	9.68
497.547	9.78
497.98	9.88
498.413	9.99
498.846	10.12
499.279	10.24
499.711	10.37
500.144	10.51
500.577	10.65
501.009	10.77
501.442	10.92
501.874	11.08
502.306	11.24
502.739	11.42
503.171	11.59
503.603	11.75
504.036	11.94
504.468	12.11
504.9	12.3
505.332	12.49
505.764	12.69
506.196	12.9
506.627	13.11
507.059	13.32
507.491	13.53
507.923	13.75
508.354	14
508.786	14.24
509.217	14.48
509.649	14.73
510.08	14.98
510.512	15.23
510.943	15.49
511.374	15.74
511.805	16
512.237	16.26
512.668	16.53
513.099	16.8
513.53	17.05
513.961	17.34
514.391	17.62
514.822	17.9
515.253	18.17
515.684	18.45
516.114	18.73
516.545	19.01
516.975	19.31
517.406	19.6
517.836	19.87
518.267	20.17
518.697	20.43
519.127	20.69
519.558	20.97
519.988	21.23
520.418	21.5
520.848	21.75
521.278	22.02
521.708	22.37
522.138	22.6
522.567	22.82
522.997	23.03
523.427	23.26
523.857	23.48
524.286	23.69
524.716	23.9
525.145	24.08
525.575	24.28
526.004	24.46
526.433	24.53
526.863	24.72
527.292	24.9
527.721	25.06
528.15	25.21
528.579	25.36
529.008	25.5
529.437	25.64
529.866	25.77
530.295	25.9
530.724	26.01
531.152	26.11
531.581	26.21
532.01	26.3
532.438	26.42
532.867	26.51
533.295	26.58
533.723	26.66
534.152	26.71
534.58	26.78
535.008	26.83
535.436	26.88
535.865	26.94
536.293	26.96
536.721	27.02
537.149	27.04
537.576	27.07
538.004	27.11
538.432	27.15
538.86	27.18
539.287	27.2
539.715	27.23
540.143	27.26
540.57	27.28
540.998	27.31
541.425	27.32
541.852	27.35
542.28	27.38
542.707	27.4
543.134	27.42
543.561	27.45
543.988	27.48
544.415	27.49
544.842	27.5
545.269	27.53
545.696	27.57
546.123	27.6
546.549	27.63
546.976	27.66
547.403	27.68
547.829	27.7
548.256	27.73
548.682	27.74
549.108	27.78
549.535	27.82
549.961	27.84
550.387	27.84
550.813	27.84
551.24	27.86
551.666	27.85
552.092	27.85
552.518	27.85
552.943	27.83
553.369	27.81
553.795	27.78
554.221	27.78
554.646	27.75
555.072	27.73
555.498	27.69
555.923	27.66
556.349	27.61
556.774	27.58
557.199	27.54
557.625	27.49
558.05	27.44
558.475	27.4
558.9	27.32
559.325	27.28
559.75	27.21
560.175	27.14
560.6	27.05
561.025	26.99
561.449	26.89
561.874	26.79
562.299	26.72
562.723	26.62
563.148	26.51
563.572	26.4
563.997	26.27
564.421	26.14
564.846	26.02
565.27	25.89
565.694	25.76
566.118	25.62
566.542	25.5
566.966	25.35
567.39	25.23
567.814	25.09
568.238	24.95
568.662	24.83
569.086	24.7
569.509	24.57
569.933	24.45
570.357	24.31
570.78	24.17
571.204	24.04
571.627	23.93
572.05	23.78
572.474	23.67
572.897	23.56
573.32	23.43
573.743	23.32
574.166	23.22
574.589	23.1
575.012	23
575.435	22.91
575.858	22.81
576.281	22.7
576.704	22.62
577.126	22.53
577.549	22.43
577.972	22.35
578.394	22.27
578.817	22.19
579.239	22.11
579.661	22.03
580.084	21.96
580.506	21.88
580.928	21.81
581.35	21.74
581.772	21.65
582.194	21.58
582.616	21.51
583.038	21.44
583.46	21.35
583.882	21.29
584.303	21.22
584.725	21.15
585.147	21.08
585.568	21.01
585.99	20.96
586.411	20.91
586.833	20.86
587.254	20.8
587.675	20.74
588.096	20.69
588.518	20.64
588.939	20.62
589.36	20.57
589.781	20.55
590.202	20.52
590.623	20.48
591.043	20.43
591.464	20.41
591.885	20.38
592.305	20.35
592.726	20.34
593.147	20.28
593.567	20.25
593.987	20.21
594.408	20.17
594.828	20.12
595.248	20.1
595.669	20.08
596.089	20.03
596.509	20
596.929	19.98
597.349	19.95
597.769	19.93
598.189	19.89
598.608	19.86
599.028	19.84
599.448	19.8
599.867	19.75
600.287	19.7
600.706	19.67
601.126	19.63
601.545	19.58
601.965	19.53
602.384	19.47
602.803	19.42
603.222	19.37
603.641	19.32
604.061	19.26
604.48	19.2
604.898	19.13
605.317	19.06
605.736	18.99
606.155	18.92
606.574	18.84
606.992	18.76
607.411	18.69
607.829	18.58
608.248	18.49
608.666	18.4
609.085	18.32
609.503	18.25
609.921	18.18
610.339	18.09
610.758	18.01
611.176	17.94
611.594	17.87
612.012	17.78
612.43	17.72
612.847	17.65
613.265	17.58
613.683	17.51
614.101	17.44
614.518	17.35
614.936	17.29
615.353	17.2
615.771	17.13
616.188	17.07
616.606	17.03
617.023	16.98
617.44	16.93
617.857	16.87
618.274	16.81
618.691	16.75
619.108	16.71
619.525	16.66
619.942	16.62
620.359	16.58
620.776	16.54
621.192	16.5
621.609	16.47
622.026	16.44
622.442	16.42
622.859	16.4
623.275	16.38
623.691	16.35
624.108	16.34
624.524	16.32
624.94	16.31
625.356	16.29
625.772	16.27
626.188	16.26
626.604	16.24
627.02	16.23
627.436	16.21
627.852	16.2
628.268	16.18
628.683	16.16
629.099	16.14
629.514	16.11
629.93	16.09
630.345	16.07
630.761	16.03
631.176	16
631.591	15.96
632.007	15.92
632.422	15.86
632.837	15.81
633.252	15.75
633.667	15.69
634.082	15.61
634.497	15.55
634.911	15.48
635.326	15.39
635.741	15.3
636.155	15.21
636.57	15.12
636.984	15.03
637.399	14.93
637.813	14.82
638.228	14.71
638.642	14.6
639.056	14.49
639.47	14.37
639.884	14.26
640.298	14.13
640.712	14.01
641.126	13.88
641.54	13.75
641.954	13.61
642.368	13.5
642.781	13.38
643.195	13.25
643.609	13.12
644.022	13
644.436	12.89
644.849	12.78
645.262	12.66
645.676	12.56
646.089	12.47
646.502	12.4
646.915	12.33
647.328	12.25
647.741	12.17
648.154	12.11
648.567	12.03
648.98	11.97
649.393	11.91
649.805	11.88
650.218	11.83
650.631	11.77
651.043	11.71
651.456	11.66
651.868	11.6
652.28	11.55
652.693	11.49
653.105	11.43
653.517	11.36
653.929	11.3
654.341	11.23
654.753	11.16
655.165	11.08
655.577	11.01
655.989	10.91
656.401	10.81
656.813	10.72
657.224	10.63
657.636	10.52
658.047	10.42
658.459	10.3
658.87	10.19
659.282	10.07
659.693	9.96
660.104	9.83
660.515	9.72
660.926	9.61
661.338	9.49
661.749	9.38
662.159	9.28
662.57	9.19
662.981	9.09
663.392	9
663.803	8.9
664.213	8.81
664.624	8.73
665.035	8.66
665.445	8.59
665.855	8.53
666.266	8.47
666.676	8.42
667.086	8.34
667.497	8.29
667.907	8.24
668.317	8.21
668.727	8.17
669.137	8.14
669.547	8.11
669.956	8.07
670.366	8.05
670.776	8.03
671.186	8.01
671.595	8.01
672.005	8
672.414	8
672.824	7.98
673.233	7.98
673.642	7.99
674.052	7.99
674.461	8
674.87	8.01
675.279	8.03
675.688	8.05
676.097	8.07
676.506	8.11
676.915	8.15
677.323	8.19
677.732	8.24
678.141	8.29
678.549	8.34
678.958	8.41
679.366	8.5
679.775	8.58
680.183	8.67
680.592	8.78
681	8.9
681.408	9.03
681.816	9.17
682.224	9.34
682.632	9.51
683.04	9.71
683.448	9.91
683.856	10.12
684.264	10.37
684.671	10.64
685.079	10.91
685.487	11.22
685.894	11.55
686.302	11.9
686.709	12.26
687.116	12.65
687.524	13.06
687.931	13.5
688.338	13.96
688.745	14.42
689.152	14.9
689.559	15.4
689.966	15.91
690.373	16.43
690.78	16.96
691.187	17.49
691.593	18.03
692	18.57
692.407	19.09
692.813	19.63
693.22	20.17
693.626	20.71
694.032	21.25
694.439	21.77
694.845	22.3
695.251	22.81
695.657	23.31
696.063	23.83
696.469	24.32
696.875	24.84
697.281	25.33
697.687	25.84
698.093	26.31
698.498	26.78
698.904	27.24
699.31	27.69
699.715	28.12
700.12	28.56
700.526	28.97
700.931	29.39
701.337	29.78
701.742	30.16
702.147	30.52
702.552	30.88
702.957	31.22
703.362	31.57
703.767	31.88
704.172	32.21
704.577	32.53
704.981	32.83
705.386	33.14
705.791	33.43
706.195	33.73
706.6	34.04
707.004	34.31
707.408	34.61
707.813	34.89
708.217	35.17
708.621	35.44
709.025	35.71
709.43	35.98
709.834	36.21
710.237	36.47
710.641	36.7
711.045	36.92
711.449	37.17
711.853	37.4
712.256	37.62
712.66	37.82
713.064	38.03
713.467	38.24
713.87	38.44
714.274	38.63
714.677	38.83
715.08	39.02
715.484	39.2
715.887	39.4
716.29	39.57
716.693	39.76
717.096	39.95
717.499	40.12
717.901	40.29
718.304	40.46
718.707	40.63
719.109	40.79
719.512	40.92
719.915	41.08
720.317	41.21
720.719	41.32
721.122	41.45
721.524	41.56
721.926	41.7
722.328	41.83
722.731	41.92
723.133	42.06
723.535	42.19
723.937	42.33
724.338	42.43
724.74	42.55
725.142	42.72
725.544	42.81
725.945	42.92
726.347	42.99
726.748	43.09
727.15	43.16
727.551	43.23
727.952	43.28
728.354	43.36
728.755	43.42
729.156	43.5
729.557	43.49
729.958	43.54
730.359	43.61
730.76	43.68
731.161	43.72
731.562	43.82
731.962	43.88
732.363	43.92
732.763	43.97
733.164	44.02
733.564	44.05
733.965	44.12
734.365	44.18
734.766	44.23
735.166	44.27
735.566	44.31
735.966	44.35
736.366	44.38
736.766	44.44
737.166	44.47
737.566	44.52
737.966	44.55
738.365	44.58
738.765	44.63
739.165	44.64
739.564	44.69
739.964	44.73
740.363	44.74
740.763	44.77
741.162	44.8
741.561	44.84
741.96	44.85
742.36	44.88
742.759	44.89
743.158	44.89
743.557	44.89
743.955	44.93
744.354	44.94
744.753	44.96
745.152	44.99
745.55	44.99
745.949	45
746.348	45.03
746.746	45.03
747.144	45.04
747.543	45.05
747.941	45.07
748.339	45.05
748.737	45.07
749.136	45.07
749.534	45.07
749.932	45.07
750.33	45.07
750.727	45.08
751.125	45.09
751.523	45.1
751.921	45.12
752.318	45.14
752.716	45.14
753.113	45.12
753.511	45.15
753.908	45.16
754.305	45.17
754.703	45.17
755.1	45.15
755.497	45.16
755.894	45.15
756.291	45.14
756.688	45.1
757.085	45.1
757.482	45.07
757.878	45.05
758.275	45.04
758.672	45.05
759.068	45.04
759.465	45.03
759.861	45.01
760.258	45.01
760.654	45.02
761.05	45.03
761.447	45.04
761.843	45.05
762.239	45.04
762.635	45.03
763.031	45.03
763.427	45.02
763.822	45.03
764.218	45.05
764.614	45.06
765.01	45.02
765.405	45.02
765.801	45.01
766.196	45.01
766.592	45
766.987	45
767.382	45.01
767.778	45
768.173	45.01
768.568	45.01
768.963	45.02
769.358	45.04
769.753	45.04
770.148	45.07
770.542	45.08
770.937	45.09
771.332	45.1
771.726	45.09
772.121	45.1
772.515	45.12
772.91	45.11
773.304	45.14
773.699	45.15
774.093	45.14
774.487	45.12
774.881	45.14
775.275	45.15
775.669	45.13
776.063	45.12
776.457	45.12
776.851	45.1
777.245	45.08
777.638	45.04
778.032	45.04
778.425	45.08
778.819	45.06
779.212	45.05
779.606	45.07
779.999	45.09
780.392	45.11
