Data from N_1_DEC_VA_2n_Splice17_12-30-12-372.txt Node
Date: Sat Mar 07 12:30:12 EST 2020
User: sa697716
Spectrometer: NQ5500242
Trigger mode: 0
Integration Time (sec): 1.450000E-1
Scans to average: 20
Nonlinearity correction enabled: false
Boxcar width: 5
Storing dark spectrum: false
XAxis mode: Wavelengths
Number of Pixels in Spectrum: 512
>>>>>Begin Spectral Data<<<<<
187.83	65.72
188.298	80.14
188.766	67.99
189.233	54.59
189.701	43.26
190.169	41.45
190.636	-9.86
191.104	-178.14
191.571	-452.69
192.039	-310.48
192.506	-826.08
192.974	196.66
193.441	198.45
193.908	53.78
194.375	-27.92
194.842	-48.93
195.31	-63.05
195.777	-248.61
196.244	-2.64
196.711	12.07
197.177	16.55
197.644	14.88
198.111	14.03
198.578	15.27
199.045	15.64
199.511	16.14
199.978	16.09
200.445	16.14
200.911	15.82
201.378	15.76
201.844	15.95
202.31	15.86
202.777	16.49
203.243	16.98
203.709	16.73
204.176	16.57
204.642	16.48
205.108	16.56
205.574	16.47
206.04	16.56
206.506	16.15
206.972	16.15
207.438	15.62
207.903	14.98
208.369	14.33
208.835	14.05
209.301	13.67
209.766	13.12
210.232	12.36
210.697	11.77
211.163	11.49
211.628	11.48
212.094	10.64
212.559	10.52
213.024	10.28
213.49	10.06
213.955	9.57
214.42	9.2
214.885	8.9
215.35	8.65
215.815	8.13
216.28	7.16
216.745	6.31
217.21	5.7
217.675	5.03
218.14	4.46
218.604	4
219.069	3.66
219.534	3.37
219.998	3.09
220.463	2.85
220.927	2.61
221.392	2.49
221.856	2.35
222.32	2.23
222.785	2.13
223.249	2.04
223.713	1.94
224.177	1.87
224.642	1.81
225.106	1.71
225.57	1.62
226.034	1.57
226.497	1.52
226.961	1.48
227.425	1.43
227.889	1.41
228.353	1.37
228.816	1.34
229.28	1.29
229.744	1.27
230.207	1.25
230.671	1.23
231.134	1.21
231.597	1.19
232.061	1.17
232.524	1.15
232.987	1.13
233.45	1.12
233.914	1.1
234.377	1.08
234.84	1.06
235.303	1.05
235.766	1.04
236.229	1.04
236.691	1.03
237.154	1.02
237.617	1.01
238.08	1
238.542	0.99
239.005	0.98
239.468	0.97
239.93	0.96
240.393	0.96
240.855	0.93
241.317	0.92
241.78	0.91
242.242	0.9
242.704	0.89
243.166	0.88
243.629	0.87
244.091	0.87
244.553	0.86
245.015	0.85
245.477	0.85
245.939	0.84
246.4	0.83
246.862	0.83
247.324	0.82
247.786	0.8
248.247	0.8
248.709	0.79
249.17	0.78
249.632	0.78
250.093	0.78
250.555	0.77
251.016	0.77
251.477	0.76
251.939	0.76
252.4	0.76
252.861	0.77
253.322	0.77
253.783	0.77
254.244	0.76
254.705	0.75
255.166	0.75
255.627	0.74
256.088	0.74
256.549	0.73
257.009	0.73
257.47	0.72
257.931	0.7
258.391	0.69
258.852	0.68
259.312	0.68
259.773	0.67
260.233	0.67
260.694	0.66
261.154	0.65
261.614	0.65
262.074	0.64
262.534	0.63
262.994	0.63
263.455	0.63
263.915	0.63
264.374	0.62
264.834	0.62
265.294	0.61
265.754	0.61
266.214	0.61
266.673	0.61
267.133	0.61
267.593	0.61
268.052	0.61
268.512	0.61
268.971	0.61
269.431	0.61
269.89	0.61
270.349	0.61
270.809	0.6
271.268	0.6
271.727	0.6
272.186	0.6
272.645	0.6
273.104	0.59
273.563	0.59
274.022	0.59
274.481	0.59
274.94	0.59
275.399	0.59
275.857	0.59
276.316	0.59
276.775	0.59
277.233	0.59
277.692	0.59
278.15	0.59
278.609	0.6
279.067	0.6
279.525	0.59
279.984	0.59
280.442	0.59
280.9	0.59
281.358	0.6
281.816	0.6
282.274	0.6
282.732	0.6
283.19	0.6
283.648	0.6
284.106	0.6
284.564	0.6
285.021	0.6
285.479	0.6
285.937	0.6
286.394	0.6
286.852	0.6
287.309	0.6
287.767	0.6
288.224	0.59
288.682	0.59
289.139	0.58
289.596	0.57
290.053	0.57
290.511	0.56
290.968	0.56
291.425	0.56
291.882	0.55
292.339	0.55
292.796	0.55
293.252	0.55
293.709	0.55
294.166	0.56
294.623	0.56
295.079	0.55
295.536	0.56
295.992	0.56
296.449	0.56
296.905	0.56
297.362	0.56
297.818	0.55
298.274	0.55
298.731	0.55
299.187	0.55
299.643	0.54
300.099	0.54
300.555	0.53
301.011	0.53
301.467	0.53
301.923	0.53
302.379	0.53
302.835	0.53
303.291	0.53
303.746	0.53
304.202	0.53
304.658	0.53
305.113	0.53
305.569	0.54
306.024	0.53
306.479	0.53
306.935	0.53
307.39	0.53
307.845	0.54
308.301	0.54
308.756	0.54
309.211	0.54
309.666	0.55
310.121	0.56
310.576	0.56
311.031	0.56
311.486	0.57
311.94	0.57
312.395	0.57
312.85	0.57
313.305	0.57
313.759	0.56
314.214	0.56
314.668	0.55
315.123	0.55
315.577	0.55
316.032	0.56
316.486	0.56
316.94	0.56
317.394	0.55
317.849	0.55
318.303	0.56
318.757	0.56
319.211	0.55
319.665	0.56
320.119	0.56
320.572	0.56
321.026	0.55
321.48	0.54
321.934	0.54
322.387	0.54
322.841	0.54
323.295	0.54
323.748	0.53
324.202	0.53
324.655	0.53
325.108	0.53
325.562	0.53
326.015	0.53
326.468	0.54
326.921	0.54
327.374	0.55
327.827	0.55
328.28	0.55
328.733	0.55
329.186	0.55
329.639	0.55
330.092	0.55
330.545	0.55
330.997	0.55
331.45	0.55
331.903	0.56
332.355	0.56
332.808	0.56
333.26	0.55
333.713	0.55
334.165	0.55
334.617	0.55
335.069	0.55
335.522	0.55
335.974	0.55
336.426	0.55
336.878	0.54
337.33	0.54
337.782	0.54
338.234	0.55
338.686	0.56
339.137	0.56
339.589	0.56
340.041	0.56
340.493	0.56
340.944	0.55
341.396	0.55
341.847	0.55
342.299	0.54
342.75	0.54
343.201	0.53
343.653	0.53
344.104	0.53
344.555	0.52
345.006	0.52
345.457	0.52
345.908	0.53
346.359	0.53
346.81	0.54
347.261	0.54
347.712	0.54
348.163	0.53
348.613	0.54
349.064	0.54
349.515	0.55
349.965	0.55
350.416	0.55
350.866	0.54
351.317	0.54
351.767	0.53
352.217	0.53
352.668	0.53
353.118	0.54
353.568	0.53
354.018	0.53
354.468	0.53
354.918	0.53
355.368	0.54
355.818	0.54
356.268	0.54
356.718	0.54
357.168	0.53
357.617	0.53
358.067	0.53
358.517	0.54
358.966	0.53
359.416	0.54
359.865	0.54
360.315	0.54
360.764	0.54
361.213	0.54
361.663	0.54
362.112	0.55
362.561	0.56
363.01	0.55
363.459	0.54
363.908	0.53
364.357	0.53
364.806	0.52
365.255	0.53
365.703	0.53
366.152	0.54
366.601	0.54
367.05	0.55
367.498	0.54
367.947	0.55
368.395	0.56
368.844	0.56
369.292	0.56
369.74	0.57
370.189	0.57
370.637	0.56
371.085	0.56
371.533	0.56
371.981	0.56
372.429	0.57
372.877	0.57
373.325	0.57
373.773	0.56
374.221	0.56
374.669	0.56
375.116	0.55
375.564	0.55
376.012	0.55
376.459	0.55
376.907	0.55
377.354	0.55
377.801	0.55
378.249	0.55
378.696	0.55
379.143	0.55
379.591	0.56
380.038	0.56
380.485	0.57
380.932	0.58
381.379	0.59
381.826	0.6
382.273	0.61
382.72	0.61
383.166	0.62
383.613	0.63
384.06	0.65
384.506	0.67
384.953	0.69
385.4	0.71
385.846	0.74
386.292	0.77
386.739	0.81
387.185	0.85
387.631	0.9
388.078	0.93
388.524	0.96
388.97	0.99
389.416	1.03
389.862	1.09
390.308	1.16
390.754	1.24
391.2	1.32
391.645	1.39
392.091	1.45
392.537	1.51
392.983	1.61
393.428	1.74
393.874	1.91
394.319	2.1
394.765	2.29
395.21	2.48
395.655	2.68
396.101	2.9
396.546	3.14
396.991	3.42
397.436	3.72
397.881	4.02
398.326	4.3
398.771	4.56
399.216	4.79
399.661	5.02
400.106	5.22
400.551	5.4
400.995	5.55
401.44	5.7
401.885	5.84
402.329	5.99
402.774	6.14
403.218	6.34
403.663	6.54
404.107	6.76
404.551	6.98
404.995	7.18
405.44	7.38
405.884	7.59
406.328	7.84
406.772	8.11
407.216	8.4
407.66	8.66
408.104	8.87
408.547	9.07
408.991	9.26
409.435	9.45
409.879	9.69
410.322	9.97
410.766	10.25
411.209	10.52
411.653	10.76
412.096	10.96
412.54	11.16
412.983	11.38
413.426	11.62
413.869	11.84
414.312	12.08
414.756	12.28
415.199	12.43
415.642	12.58
416.085	12.68
416.527	12.75
416.97	12.78
417.413	12.81
417.856	12.81
418.298	12.81
418.741	12.84
419.184	12.86
419.626	12.93
420.069	13.03
420.511	13.13
420.953	13.24
421.396	13.39
421.838	13.58
422.28	13.77
422.722	13.98
423.164	14.17
423.606	14.34
424.048	14.47
424.49	14.52
424.932	14.43
425.374	14.21
425.816	13.92
426.258	13.64
426.699	13.46
427.141	13.48
427.582	13.64
428.024	13.88
428.465	14.13
428.907	14.36
429.348	14.58
429.789	14.92
430.231	15.45
430.672	16.15
431.113	16.91
431.554	17.64
431.995	18.18
432.436	18.6
432.877	18.9
433.318	19.18
433.759	19.48
434.2	19.88
434.64	20.32
435.081	20.73
435.522	21.1
435.962	21.39
436.403	21.65
436.843	21.91
437.284	22.16
437.724	22.48
438.164	22.82
438.604	23.26
439.045	23.68
439.485	24.09
439.925	24.44
440.365	24.71
440.805	24.95
441.245	25.17
441.685	25.38
442.125	25.6
442.564	25.88
443.004	26.19
443.444	26.48
443.883	26.82
444.323	27.13
444.762	27.45
445.202	27.84
445.641	28.27
446.081	28.81
446.52	29.33
446.959	29.83
447.398	30.19
447.837	30.41
448.276	30.54
448.716	30.61
449.154	30.71
449.593	30.81
450.032	30.83
450.471	30.78
450.91	30.63
451.349	30.53
451.787	30.46
452.226	30.43
452.664	30.47
453.103	30.51
453.541	30.53
453.98	30.49
454.418	30.41
454.856	30.33
455.295	30.27
455.733	30.21
456.171	30.16
456.609	30.11
457.047	30.1
457.485	30.12
457.923	30.21
458.361	30.34
458.798	30.5
459.236	30.67
459.674	30.82
460.111	30.98
460.549	31.18
460.987	31.35
461.424	31.53
461.862	31.7
462.299	31.85
462.736	31.99
463.173	32.19
463.611	32.42
464.048	32.71
464.485	33.06
464.922	33.44
465.359	33.79
465.796	34.11
466.233	34.44
466.67	34.82
467.106	35.25
467.543	35.75
467.98	36.19
468.416	36.57
468.853	36.93
469.29	37.27
469.726	37.62
470.162	38.02
470.599	38.43
471.035	38.78
471.471	39.01
471.907	39.17
472.344	39.27
472.78	39.4
473.216	39.55
473.652	39.69
474.088	39.76
474.523	39.81
474.959	39.82
475.395	39.82
475.831	39.82
476.266	39.85
476.702	39.89
477.138	39.92
477.573	39.88
478.008	39.79
478.444	39.65
478.879	39.5
479.314	39.28
479.75	39.03
480.185	38.73
480.62	38.32
481.055	37.74
481.49	36.98
481.925	36.14
482.36	35.36
482.795	34.73
483.229	34.24
483.664	33.86
484.099	33.52
484.534	33.24
484.968	33.07
485.403	33.02
485.837	33.2
486.271	33.5
486.706	33.83
487.14	34.07
487.574	34.22
488.009	34.26
488.443	34.31
488.877	34.38
489.311	34.46
489.745	34.55
490.179	34.63
490.613	34.7
491.046	34.78
491.48	34.92
491.914	35.12
492.348	35.37
492.781	35.63
493.215	35.84
493.648	35.99
494.082	36.11
494.515	36.19
494.948	36.3
495.382	36.35
495.815	36.4
496.248	36.44
496.681	36.44
497.114	36.41
497.547	36.39
497.98	36.44
498.413	36.6
498.846	36.8
499.279	36.99
499.711	37.13
500.144	37.36
500.577	37.65
501.009	38.04
501.442	38.52
501.874	39.01
502.306	39.49
502.739	39.92
503.171	40.26
503.603	40.58
504.036	40.94
504.468	41.38
504.9	41.81
505.332	42.19
505.764	42.49
506.196	42.79
506.627	43.12
507.059	43.53
507.491	43.92
507.923	44.36
508.354	44.79
508.786	45.15
509.217	45.42
509.649	45.68
510.08	45.94
510.512	46.26
510.943	46.58
511.374	46.84
511.805	46.96
512.237	46.94
512.668	46.86
513.099	46.81
513.53	46.84
513.961	46.94
514.391	47.1
514.822	47.35
515.253	47.65
515.684	47.98
516.114	48.37
516.545	48.9
516.975	49.63
517.406	50.45
517.836	51.23
518.267	51.94
518.697	52.61
519.127	53.26
519.558	53.88
519.988	54.43
520.418	54.94
520.848	55.39
521.278	55.74
521.708	55.95
522.138	56.01
522.567	56.03
522.997	56.11
523.427	56.27
523.857	56.45
524.286	56.63
524.716	56.83
525.145	57.01
525.575	57.18
526.004	57.43
526.433	57.79
526.863	58.3
527.292	58.81
527.721	59.16
528.15	59.33
528.579	59.39
529.008	59.4
529.437	59.34
529.866	59.28
530.295	59.29
530.724	59.28
531.152	59.28
531.581	59.27
532.01	59.22
532.438	59.21
532.867	59.26
533.295	59.37
533.723	59.46
534.152	59.53
534.58	59.55
535.008	59.46
535.436	59.3
535.865	59.05
536.293	58.78
536.721	58.61
537.149	58.56
537.576	58.57
538.004	58.56
538.432	58.52
538.86	58.52
539.287	58.57
539.715	58.72
540.143	58.92
540.57	59.19
540.998	59.49
541.425	59.77
541.852	60.03
542.28	60.25
542.707	60.43
543.134	60.65
543.561	60.82
543.988	61
544.415	61.14
544.842	61.32
545.269	61.51
545.696	61.68
546.123	61.85
546.549	61.97
546.976	62.11
547.403	62.31
547.829	62.49
548.256	62.69
548.682	62.83
549.108	62.99
549.535	63.13
549.961	63.27
550.387	63.39
550.813	63.53
551.24	63.66
551.666	63.72
552.092	63.72
552.518	63.69
552.943	63.63
553.369	63.57
553.795	63.45
554.221	63.27
554.646	62.98
555.072	62.68
555.498	62.38
555.923	62.12
556.349	61.9
556.774	61.75
557.199	61.57
557.625	61.4
558.05	61.26
558.475	61.11
558.9	61.01
559.325	60.93
559.75	60.83
560.175	60.72
560.6	60.51
561.025	60.23
561.449	59.87
561.874	59.52
562.299	59.19
562.723	58.87
563.148	58.54
563.572	58.15
563.997	57.75
564.421	57.35
564.846	56.94
565.27	56.55
565.694	56.2
566.118	55.8
566.542	55.41
566.966	55
567.39	54.59
567.814	54.25
568.238	53.98
568.662	53.77
569.086	53.59
569.509	53.42
569.933	53.27
570.357	53.1
570.78	53
571.204	52.89
571.627	52.82
572.05	52.74
572.474	52.65
572.897	52.53
573.32	52.35
573.743	52.17
574.166	52
574.589	51.83
575.012	51.72
575.435	51.67
575.858	51.67
576.281	51.65
576.704	51.65
577.126	51.64
577.549	51.67
577.972	51.76
578.394	51.89
578.817	52.04
579.239	52.21
579.661	52.37
580.084	52.49
580.506	52.57
580.928	52.62
581.35	52.62
581.772	52.6
582.194	52.59
582.616	52.59
583.038	52.58
583.46	52.54
583.882	52.4
584.303	52.15
584.725	51.83
585.147	51.48
585.568	51.21
585.99	51.05
586.411	50.95
586.833	50.86
587.254	50.78
587.675	50.73
588.096	50.69
588.518	50.75
588.939	50.9
589.36	51.14
589.781	51.43
590.202	51.65
590.623	51.8
591.043	51.88
591.464	51.94
591.885	51.97
592.305	51.99
592.726	52
593.147	51.98
593.567	51.93
593.987	51.87
594.408	51.81
594.828	51.78
595.248	51.75
595.669	51.69
596.089	51.57
596.509	51.46
596.929	51.3
597.349	51.14
597.769	50.98
598.189	50.84
598.608	50.77
599.028	50.74
599.448	50.69
599.867	50.66
600.287	50.66
600.706	50.67
601.126	50.65
601.545	50.65
601.965	50.67
602.384	50.7
602.803	50.72
603.222	50.69
603.641	50.59
604.061	50.48
604.48	50.33
604.898	50.17
605.317	50.01
605.736	49.87
606.155	49.7
606.574	49.52
606.992	49.36
607.411	49.19
607.829	48.98
608.248	48.82
608.666	48.64
609.085	48.46
609.503	48.28
609.921	48.09
610.339	47.92
610.758	47.77
611.176	47.6
611.594	47.36
612.012	47.12
612.43	46.86
612.847	46.64
613.265	46.45
613.683	46.33
614.101	46.24
614.518	46.15
614.936	46.07
615.353	45.94
615.771	45.88
616.188	45.86
616.606	45.87
617.023	45.91
617.44	45.91
617.857	45.85
618.274	45.74
618.691	45.57
619.108	45.41
619.525	45.22
619.942	45.03
620.359	44.78
620.776	44.53
621.192	44.29
621.609	44.05
622.026	43.83
622.442	43.65
622.859	43.47
623.275	43.3
623.691	43.11
624.108	42.93
624.524	42.8
624.94	42.68
625.356	42.55
625.772	42.41
626.188	42.29
626.604	42.17
627.02	42.03
627.436	41.92
627.852	41.84
628.268	41.8
628.683	41.76
629.099	41.75
629.514	41.7
629.93	41.71
630.345	41.7
630.761	41.69
631.176	41.68
631.591	41.65
632.007	41.63
632.422	41.61
632.837	41.58
633.252	41.54
633.667	41.49
634.082	41.46
634.497	41.42
634.911	41.35
635.326	41.27
635.741	41.14
636.155	41.02
636.57	40.87
636.984	40.71
637.399	40.52
637.813	40.34
638.228	40.14
638.642	39.92
639.056	39.68
639.47	39.5
639.884	39.32
640.298	39.16
640.712	39
641.126	38.84
641.54	38.67
641.954	38.51
642.368	38.31
642.781	38.12
643.195	37.95
643.609	37.76
644.022	37.58
644.436	37.38
644.849	37.15
645.262	36.91
645.676	36.71
646.089	36.55
646.502	36.42
646.915	36.31
647.328	36.21
647.741	36.11
648.154	36.04
648.567	35.96
648.98	35.89
649.393	35.88
649.805	35.88
650.218	35.83
650.631	35.74
651.043	35.53
651.456	35.17
651.868	34.69
652.28	34.16
652.693	33.71
653.105	33.34
653.517	33.05
653.929	32.83
654.341	32.66
654.753	32.53
655.165	32.44
655.577	32.46
655.989	32.63
656.401	32.92
656.813	33.27
657.224	33.53
657.636	33.73
658.047	33.85
658.459	33.87
658.87	33.84
659.282	33.78
659.693	33.69
660.104	33.58
660.515	33.47
660.926	33.36
661.338	33.25
661.749	33.11
662.159	32.96
662.57	32.81
662.981	32.66
663.392	32.52
663.803	32.4
664.213	32.28
664.624	32.18
665.035	32.06
665.445	31.94
665.855	31.82
666.266	31.68
666.676	31.57
667.086	31.4
667.497	31.27
667.907	31.15
668.317	31.03
668.727	30.92
669.137	30.77
669.547	30.67
669.956	30.54
670.366	30.43
670.776	30.35
671.186	30.26
671.595	30.22
672.005	30.16
672.414	30.11
672.824	30.04
673.233	30
673.642	29.97
674.052	29.93
674.461	29.92
674.87	29.89
675.279	29.87
675.688	29.86
676.097	29.86
676.506	29.84
676.915	29.82
677.323	29.84
677.732	29.86
678.141	29.89
678.549	29.9
678.958	29.92
679.366	29.95
679.775	29.97
680.183	29.97
680.592	30.01
681	30.07
681.408	30.13
681.816	30.12
682.224	29.95
682.632	29.63
683.04	29.21
683.448	28.82
683.856	28.44
684.264	28.15
684.671	27.89
685.079	27.64
685.487	27.44
685.894	27.29
686.302	27.24
686.709	27.4
687.116	27.78
687.524	28.32
687.931	28.92
688.338	29.52
688.745	30.1
689.152	30.68
689.559	31.29
689.966	31.84
690.373	32.4
690.78	32.9
691.187	33.41
691.593	33.89
692	34.35
692.407	34.78
692.813	35.22
693.22	35.62
693.626	36.01
694.032	36.38
694.439	36.75
694.845	37.11
695.251	37.47
695.657	37.76
696.063	38.04
696.469	38.3
696.875	38.53
697.281	38.75
697.687	38.94
698.093	39.13
698.498	39.32
698.904	39.56
699.31	39.77
699.715	40.01
700.12	40.29
700.526	40.57
700.931	40.85
701.337	41.15
701.742	41.43
702.147	41.74
702.552	42.05
702.957	42.32
703.362	42.56
703.767	42.8
704.172	43.01
704.577	43.2
704.981	43.39
705.386	43.57
705.791	43.75
706.195	43.93
706.6	44.12
707.004	44.28
707.408	44.44
707.813	44.59
708.217	44.75
708.621	44.9
709.025	45
709.43	45.13
709.834	45.25
710.237	45.34
710.641	45.41
711.045	45.47
711.449	45.54
711.853	45.57
712.256	45.53
712.66	45.39
713.064	45.2
713.467	44.95
713.87	44.59
714.274	44.15
714.677	43.7
715.08	43.22
715.484	42.75
715.887	42.29
716.29	41.9
716.693	41.69
717.096	41.65
717.499	41.8
717.901	42.03
718.304	42.37
718.707	42.72
719.109	43.05
719.512	43.35
719.915	43.64
720.317	43.89
720.719	44.1
721.122	44.19
721.524	44.2
721.926	44.12
722.328	44.01
722.731	43.9
723.133	43.84
723.535	43.81
723.937	43.84
724.338	43.81
724.74	43.85
725.142	43.91
725.544	43.93
725.945	44
726.347	44.01
726.748	44.04
727.15	44.06
727.551	44.16
727.952	44.27
728.354	44.43
728.755	44.64
729.156	44.85
729.557	45.07
729.958	45.32
730.359	45.56
730.76	45.8
731.161	46
731.562	46.19
731.962	46.26
732.363	46.36
732.763	46.42
733.164	46.47
733.564	46.51
733.965	46.47
734.365	46.41
734.766	46.31
735.166	46.22
735.566	46.15
735.966	46.14
736.366	46.08
736.766	46
737.166	45.92
737.566	45.82
737.966	45.7
738.365	45.64
738.765	45.62
739.165	45.62
739.564	45.63
739.964	45.61
740.363	45.54
740.763	45.54
741.162	45.55
741.561	45.57
741.96	45.56
742.36	45.57
742.759	45.56
743.158	45.53
743.557	45.48
743.955	45.45
744.354	45.4
744.753	45.36
745.152	45.31
745.55	45.23
745.949	45.13
746.348	45.05
746.746	44.94
747.144	44.83
747.543	44.71
747.941	44.59
748.339	44.45
748.737	44.35
749.136	44.25
749.534	44.16
749.932	44.09
750.33	44.03
750.727	43.96
751.125	43.91
751.523	43.83
751.921	43.76
752.318	43.7
752.716	43.62
753.113	43.52
753.511	43.44
753.908	43.34
754.305	43.15
754.703	42.75
755.1	41.99
755.497	40.67
755.894	38.8
756.291	36.58
756.688	34.23
757.085	31.98
757.482	29.96
757.878	28.03
758.275	26.12
758.672	24.24
759.068	22.54
759.465	21.28
759.861	20.68
760.258	20.78
760.654	21.37
761.05	22.23
761.447	23.15
761.843	23.99
762.239	24.87
762.635	25.89
763.031	27.12
763.427	28.49
763.822	29.9
764.218	31.29
764.614	32.59
765.01	33.78
765.405	34.87
765.801	35.83
766.196	36.72
766.592	37.45
766.987	38.05
767.382	38.48
767.778	38.8
768.173	39.05
768.568	39.22
768.963	39.33
769.358	39.45
769.753	39.51
770.148	39.56
770.542	39.52
770.937	39.49
771.332	39.42
771.726	39.39
772.121	39.36
772.515	39.3
772.91	39.23
773.304	39.18
773.699	39.05
