Data from N_1_DEC_CT_2n_Splice17_12-18-55-608.txt Node
Date: Sat Mar 07 12:18:55 EST 2020
User: sa697716
Spectrometer: NQ5500242
Trigger mode: 0
Integration Time (sec): 1.450000E-1
Scans to average: 20
Nonlinearity correction enabled: false
Boxcar width: 5
Storing dark spectrum: false
XAxis mode: Wavelengths
Number of Pixels in Spectrum: 512
>>>>>Begin Spectral Data<<<<<
187.83	91.99
188.298	100.1
188.766	65.2
189.233	72.05
189.701	62.45
190.169	78.88
190.636	86.82
191.104	85.56
191.571	15.18
192.039	-22.6
192.506	-192.63
192.974	72.16
193.441	114.14
193.908	-81.5
194.375	11.5
194.842	-21.58
195.31	1.25
195.777	95.77
196.244	33.16
196.711	35.56
197.177	37.34
197.644	36.81
198.111	36.96
198.578	36.71
199.045	36.75
199.511	35.96
199.978	35.82
200.445	35.91
200.911	35.76
201.378	35.82
201.844	35.53
202.31	34.99
202.777	34.93
203.243	34.64
203.709	34.5
204.176	34.68
204.642	34.94
205.108	34.97
205.574	34.94
206.04	34.56
206.506	34.51
206.972	34.69
207.438	34.67
207.903	34.19
208.369	33.68
208.835	33.09
209.301	32.38
209.766	31.48
210.232	30.65
210.697	29.86
211.163	29.28
211.628	28.57
212.094	27.78
212.559	27.24
213.024	26.68
213.49	26.27
213.955	25.61
214.42	25.06
214.885	24.37
215.35	23.67
215.815	22.56
216.28	21.25
216.745	19.84
217.21	18.45
217.675	17.16
218.14	16.06
218.604	15.13
219.069	14.35
219.534	13.66
219.998	13.13
220.463	12.64
220.927	12.18
221.392	11.9
221.856	11.6
222.32	11.37
222.785	11.16
223.249	10.94
223.713	10.73
224.177	10.6
224.642	10.43
225.106	10.25
225.57	10.08
226.034	9.98
226.497	9.82
226.961	9.69
227.425	9.58
227.889	9.46
228.353	9.35
228.816	9.24
229.28	9.11
229.744	9
230.207	8.9
230.671	8.79
231.134	8.69
231.597	8.63
232.061	8.54
232.524	8.44
232.987	8.35
233.45	8.28
233.914	8.19
234.377	8.11
234.84	8.04
235.303	7.98
235.766	7.91
236.229	7.83
236.691	7.74
237.154	7.68
237.617	7.62
238.08	7.56
238.542	7.48
239.005	7.44
239.468	7.37
239.93	7.31
240.393	7.25
240.855	7.19
241.317	7.14
241.78	7.08
242.242	7.01
242.704	6.95
243.166	6.9
243.629	6.85
244.091	6.78
244.553	6.74
245.015	6.69
245.477	6.63
245.939	6.59
246.4	6.53
246.862	6.5
247.324	6.46
247.786	6.41
248.247	6.37
248.709	6.33
249.17	6.3
249.632	6.27
250.093	6.23
250.555	6.19
251.016	6.16
251.477	6.13
251.939	6.11
252.4	6.08
252.861	6.06
253.322	6.03
253.783	6
254.244	5.99
254.705	5.96
255.166	5.94
255.627	5.92
256.088	5.91
256.549	5.89
257.009	5.87
257.47	5.85
257.931	5.82
258.391	5.8
258.852	5.78
259.312	5.76
259.773	5.75
260.233	5.74
260.694	5.72
261.154	5.7
261.614	5.69
262.074	5.67
262.534	5.65
262.994	5.65
263.455	5.65
263.915	5.64
264.374	5.63
264.834	5.63
265.294	5.61
265.754	5.61
266.214	5.61
266.673	5.6
267.133	5.6
267.593	5.61
268.052	5.61
268.512	5.61
268.971	5.61
269.431	5.6
269.89	5.6
270.349	5.6
270.809	5.6
271.268	5.6
271.727	5.6
272.186	5.59
272.645	5.58
273.104	5.57
273.563	5.56
274.022	5.55
274.481	5.55
274.94	5.54
275.399	5.53
275.857	5.53
276.316	5.52
276.775	5.52
277.233	5.51
277.692	5.51
278.15	5.51
278.609	5.51
279.067	5.5
279.525	5.49
279.984	5.48
280.442	5.48
280.9	5.47
281.358	5.47
281.816	5.46
282.274	5.44
282.732	5.44
283.19	5.42
283.648	5.41
284.106	5.4
284.564	5.39
285.021	5.4
285.479	5.39
285.937	5.37
286.394	5.36
286.852	5.35
287.309	5.35
287.767	5.34
288.224	5.33
288.682	5.32
289.139	5.31
289.596	5.31
290.053	5.29
290.511	5.27
290.968	5.27
291.425	5.26
291.882	5.25
292.339	5.24
292.796	5.23
293.252	5.23
293.709	5.22
294.166	5.21
294.623	5.21
295.079	5.21
295.536	5.2
295.992	5.2
296.449	5.19
296.905	5.19
297.362	5.19
297.818	5.18
298.274	5.19
298.731	5.18
299.187	5.17
299.643	5.16
300.099	5.16
300.555	5.15
301.011	5.14
301.467	5.14
301.923	5.13
302.379	5.12
302.835	5.11
303.291	5.1
303.746	5.1
304.202	5.09
304.658	5.09
305.113	5.09
305.569	5.08
306.024	5.08
306.479	5.07
306.935	5.07
307.39	5.07
307.845	5.07
308.301	5.07
308.756	5.07
309.211	5.07
309.666	5.07
310.121	5.07
310.576	5.07
311.031	5.06
311.486	5.07
311.94	5.06
312.395	5.05
312.85	5.05
313.305	5.05
313.759	5.05
314.214	5.03
314.668	5.02
315.123	5.01
315.577	5
316.032	5
316.486	4.99
316.94	4.99
317.394	4.98
317.849	4.97
318.303	4.96
318.757	4.95
319.211	4.95
319.665	4.94
320.119	4.93
320.572	4.93
321.026	4.92
321.48	4.91
321.934	4.9
322.387	4.89
322.841	4.89
323.295	4.89
323.748	4.89
324.202	4.89
324.655	4.89
325.108	4.9
325.562	4.9
326.015	4.9
326.468	4.9
326.921	4.89
327.374	4.89
327.827	4.9
328.28	4.89
328.733	4.88
329.186	4.87
329.639	4.86
330.092	4.85
330.545	4.84
330.997	4.83
331.45	4.83
331.903	4.84
332.355	4.84
332.808	4.83
333.26	4.83
333.713	4.83
334.165	4.83
334.617	4.83
335.069	4.83
335.522	4.83
335.974	4.83
336.426	4.82
336.878	4.81
337.33	4.81
337.782	4.8
338.234	4.8
338.686	4.79
339.137	4.8
339.589	4.8
340.041	4.79
340.493	4.78
340.944	4.77
341.396	4.77
341.847	4.75
342.299	4.74
342.75	4.73
343.201	4.72
343.653	4.72
344.104	4.69
344.555	4.68
345.006	4.68
345.457	4.67
345.908	4.67
346.359	4.67
346.81	4.67
347.261	4.66
347.712	4.66
348.163	4.65
348.613	4.64
349.064	4.65
349.515	4.65
349.965	4.65
350.416	4.64
350.866	4.63
351.317	4.63
351.767	4.63
352.217	4.63
352.668	4.63
353.118	4.63
353.568	4.63
354.018	4.63
354.468	4.63
354.918	4.62
355.368	4.62
355.818	4.63
356.268	4.62
356.718	4.61
357.168	4.6
357.617	4.6
358.067	4.6
358.517	4.6
358.966	4.59
359.416	4.6
359.865	4.6
360.315	4.6
360.764	4.6
361.213	4.59
361.663	4.58
362.112	4.6
362.561	4.61
363.01	4.61
363.459	4.6
363.908	4.61
364.357	4.62
364.806	4.61
365.255	4.62
365.703	4.62
366.152	4.64
366.601	4.65
367.05	4.64
367.498	4.62
367.947	4.62
368.395	4.63
368.844	4.62
369.292	4.61
369.74	4.61
370.189	4.6
370.637	4.59
371.085	4.58
371.533	4.58
371.981	4.58
372.429	4.58
372.877	4.58
373.325	4.58
373.773	4.57
374.221	4.57
374.669	4.56
375.116	4.55
375.564	4.55
376.012	4.55
376.459	4.55
376.907	4.55
377.354	4.55
377.801	4.55
378.249	4.56
378.696	4.56
379.143	4.56
379.591	4.56
380.038	4.57
380.485	4.58
380.932	4.59
381.379	4.59
381.826	4.6
382.273	4.6
382.72	4.6
383.166	4.61
383.613	4.62
384.06	4.62
384.506	4.63
384.953	4.64
385.4	4.65
385.846	4.67
386.292	4.68
386.739	4.69
387.185	4.69
387.631	4.71
388.078	4.71
388.524	4.72
388.97	4.74
389.416	4.76
389.862	4.77
390.308	4.79
390.754	4.81
391.2	4.83
391.645	4.85
392.091	4.87
392.537	4.89
392.983	4.92
393.428	4.95
393.874	4.96
394.319	4.98
394.765	4.99
395.21	5
395.655	5.02
396.101	5.04
396.546	5.06
396.991	5.09
397.436	5.12
397.881	5.16
398.326	5.19
398.771	5.24
399.216	5.26
399.661	5.3
400.106	5.33
400.551	5.36
400.995	5.37
401.44	5.4
401.885	5.43
402.329	5.45
402.774	5.46
403.218	5.49
403.663	5.51
404.107	5.54
404.551	5.57
404.995	5.58
405.44	5.61
405.884	5.64
406.328	5.66
406.772	5.68
407.216	5.71
407.66	5.73
408.104	5.74
408.547	5.77
408.991	5.79
409.435	5.81
409.879	5.84
410.322	5.87
410.766	5.89
411.209	5.93
411.653	5.96
412.096	5.99
412.54	6.02
412.983	6.04
413.426	6.09
413.869	6.12
414.312	6.16
414.756	6.18
415.199	6.19
415.642	6.21
416.085	6.23
416.527	6.23
416.97	6.23
417.413	6.24
417.856	6.27
418.298	6.26
418.741	6.27
419.184	6.28
419.626	6.28
420.069	6.3
420.511	6.31
420.953	6.34
421.396	6.37
421.838	6.41
422.28	6.42
422.722	6.44
423.164	6.45
423.606	6.46
424.048	6.48
424.49	6.49
424.932	6.49
425.374	6.5
425.816	6.47
426.258	6.47
426.699	6.46
427.141	6.46
427.582	6.47
428.024	6.48
428.465	6.49
428.907	6.47
429.348	6.48
429.789	6.48
430.231	6.51
430.672	6.53
431.113	6.54
431.554	6.55
431.995	6.56
432.436	6.57
432.877	6.57
433.318	6.6
433.759	6.63
434.2	6.65
434.64	6.68
435.081	6.7
435.522	6.72
435.962	6.73
436.403	6.75
436.843	6.77
437.284	6.77
437.724	6.8
438.164	6.8
438.604	6.83
439.045	6.85
439.485	6.87
439.925	6.88
440.365	6.89
440.805	6.91
441.245	6.94
441.685	6.98
442.125	7.02
442.564	7.03
443.004	7.05
443.444	7.07
443.883	7.09
444.323	7.1
444.762	7.13
445.202	7.16
445.641	7.21
446.081	7.24
446.52	7.25
446.959	7.28
447.398	7.31
447.837	7.34
448.276	7.36
448.716	7.38
449.154	7.43
449.593	7.46
450.032	7.48
450.471	7.49
450.91	7.5
451.349	7.53
451.787	7.55
452.226	7.57
452.664	7.59
453.103	7.6
453.541	7.61
453.98	7.62
454.418	7.61
454.856	7.6
455.295	7.6
455.733	7.58
456.171	7.57
456.609	7.56
457.047	7.56
457.485	7.56
457.923	7.57
458.361	7.57
458.798	7.58
459.236	7.59
459.674	7.6
460.111	7.62
460.549	7.64
460.987	7.66
461.424	7.67
461.862	7.68
462.299	7.69
462.736	7.69
463.173	7.7
463.611	7.71
464.048	7.71
464.485	7.72
464.922	7.71
465.359	7.72
465.796	7.71
466.233	7.7
466.67	7.7
467.106	7.7
467.543	7.69
467.98	7.68
468.416	7.68
468.853	7.67
469.29	7.66
469.726	7.65
470.162	7.65
470.599	7.65
471.035	7.63
471.471	7.63
471.907	7.61
472.344	7.62
472.78	7.62
473.216	7.61
473.652	7.6
474.088	7.6
474.523	7.61
474.959	7.61
475.395	7.6
475.831	7.6
476.266	7.61
476.702	7.61
477.138	7.61
477.573	7.61
478.008	7.62
478.444	7.61
478.879	7.61
479.314	7.6
479.75	7.6
480.185	7.6
480.62	7.6
481.055	7.6
481.49	7.6
481.925	7.6
482.36	7.6
482.795	7.61
483.229	7.63
483.664	7.64
484.099	7.66
484.534	7.68
484.968	7.72
485.403	7.74
485.837	7.77
486.271	7.81
486.706	7.84
487.14	7.88
487.574	7.92
488.009	7.97
488.443	8.01
488.877	8.05
489.311	8.11
489.745	8.14
490.179	8.21
490.613	8.27
491.046	8.33
491.48	8.4
491.914	8.47
492.348	8.54
492.781	8.61
493.215	8.69
493.648	8.78
494.082	8.86
494.515	8.95
494.948	9.05
495.382	9.14
495.815	9.24
496.248	9.34
496.681	9.45
497.114	9.57
497.547	9.69
497.98	9.81
498.413	9.94
498.846	10.07
499.279	10.2
499.711	10.33
500.144	10.48
500.577	10.64
501.009	10.79
501.442	10.95
501.874	11.12
502.306	11.28
502.739	11.46
503.171	11.64
503.603	11.82
504.036	12.02
504.468	12.21
504.9	12.39
505.332	12.58
505.764	12.78
506.196	12.98
506.627	13.18
507.059	13.39
507.491	13.6
507.923	13.81
508.354	14.05
508.786	14.28
509.217	14.5
509.649	14.74
510.08	14.97
510.512	15.2
510.943	15.45
511.374	15.7
511.805	15.94
512.237	16.18
512.668	16.42
513.099	16.66
513.53	16.91
513.961	17.16
514.391	17.43
514.822	17.69
515.253	17.94
515.684	18.17
516.114	18.42
516.545	18.67
516.975	18.91
517.406	19.16
517.836	19.41
518.267	19.65
518.697	19.89
519.127	20.11
519.558	20.34
519.988	20.58
520.418	20.83
520.848	21.05
521.278	21.27
521.708	21.64
522.138	21.85
522.567	22.05
522.997	22.24
523.427	22.43
523.857	22.62
524.286	22.8
524.716	22.97
525.145	23.12
525.575	23.3
526.004	23.46
526.433	23.44
526.863	23.58
527.292	23.74
527.721	23.87
528.15	23.99
528.579	24.09
529.008	24.21
529.437	24.32
529.866	24.43
530.295	24.52
530.724	24.62
531.152	24.72
531.581	24.81
532.01	24.88
532.438	24.96
532.867	25.03
533.295	25.11
533.723	25.16
534.152	25.22
534.58	25.29
535.008	25.34
535.436	25.4
535.865	25.45
536.293	25.5
536.721	25.55
537.149	25.61
537.576	25.64
538.004	25.7
538.432	25.75
538.86	25.78
539.287	25.81
539.715	25.87
540.143	25.9
540.57	25.95
540.998	25.96
541.425	26
541.852	26.03
542.28	26.06
542.707	26.1
543.134	26.12
543.561	26.15
543.988	26.18
544.415	26.19
544.842	26.19
545.269	26.19
545.696	26.22
546.123	26.23
546.549	26.24
546.976	26.24
547.403	26.25
547.829	26.27
548.256	26.28
548.682	26.28
549.108	26.3
549.535	26.31
549.961	26.32
550.387	26.33
550.813	26.35
551.24	26.34
551.666	26.34
552.092	26.33
552.518	26.32
552.943	26.31
553.369	26.3
553.795	26.28
554.221	26.27
554.646	26.23
555.072	26.2
555.498	26.16
555.923	26.14
556.349	26.1
556.774	26.06
557.199	26.01
557.625	25.94
558.05	25.89
558.475	25.82
558.9	25.77
559.325	25.72
559.75	25.66
560.175	25.6
560.6	25.52
561.025	25.45
561.449	25.37
561.874	25.29
562.299	25.22
562.723	25.14
563.148	25.05
563.572	24.94
563.997	24.85
564.421	24.73
564.846	24.63
565.27	24.52
565.694	24.43
566.118	24.32
566.542	24.22
566.966	24.11
567.39	24.01
567.814	23.91
568.238	23.8
568.662	23.69
569.086	23.6
569.509	23.5
569.933	23.41
570.357	23.31
570.78	23.21
571.204	23.11
571.627	23.02
572.05	22.91
572.474	22.83
572.897	22.75
573.32	22.65
573.743	22.55
574.166	22.46
574.589	22.36
575.012	22.26
575.435	22.18
575.858	22.1
576.281	22
576.704	21.92
577.126	21.83
577.549	21.75
577.972	21.68
578.394	21.6
578.817	21.52
579.239	21.46
579.661	21.38
580.084	21.3
580.506	21.23
580.928	21.16
581.35	21.1
581.772	21.03
582.194	20.96
582.616	20.89
583.038	20.83
583.46	20.76
583.882	20.7
584.303	20.65
584.725	20.6
585.147	20.55
585.568	20.49
585.99	20.44
586.411	20.37
586.833	20.33
587.254	20.27
587.675	20.22
588.096	20.17
588.518	20.11
588.939	20.08
589.36	20.03
589.781	19.98
590.202	19.94
590.623	19.89
591.043	19.85
591.464	19.8
591.885	19.76
592.305	19.74
592.726	19.71
593.147	19.66
593.567	19.6
593.987	19.56
594.408	19.52
594.828	19.49
595.248	19.46
595.669	19.44
596.089	19.4
596.509	19.38
596.929	19.34
597.349	19.3
597.769	19.27
598.189	19.23
598.608	19.2
599.028	19.17
599.448	19.13
599.867	19.09
600.287	19.06
600.706	19.03
601.126	19
601.545	18.95
601.965	18.93
602.384	18.89
602.803	18.86
603.222	18.81
603.641	18.76
604.061	18.7
604.48	18.64
604.898	18.59
605.317	18.54
605.736	18.48
606.155	18.43
606.574	18.36
606.992	18.32
607.411	18.25
607.829	18.18
608.248	18.13
608.666	18.07
609.085	18.01
609.503	17.95
609.921	17.88
610.339	17.82
610.758	17.75
611.176	17.68
611.594	17.61
612.012	17.55
612.43	17.5
612.847	17.45
613.265	17.39
613.683	17.34
614.101	17.27
614.518	17.21
614.936	17.14
615.353	17.09
615.771	17.05
616.188	16.99
616.606	16.93
617.023	16.89
617.44	16.85
617.857	16.79
618.274	16.74
618.691	16.69
619.108	16.66
619.525	16.62
619.942	16.58
620.359	16.55
620.776	16.51
621.192	16.5
621.609	16.46
622.026	16.42
622.442	16.41
622.859	16.4
623.275	16.38
623.691	16.37
624.108	16.35
624.524	16.34
624.94	16.33
625.356	16.32
625.772	16.32
626.188	16.31
626.604	16.31
627.02	16.3
627.436	16.29
627.852	16.29
628.268	16.27
628.683	16.27
629.099	16.27
629.514	16.27
629.93	16.25
630.345	16.22
630.761	16.19
631.176	16.17
631.591	16.14
632.007	16.08
632.422	16.03
632.837	15.98
633.252	15.91
633.667	15.83
634.082	15.74
634.497	15.67
634.911	15.58
635.326	15.48
635.741	15.38
636.155	15.27
636.57	15.16
636.984	15.05
637.399	14.91
637.813	14.78
638.228	14.65
638.642	14.49
639.056	14.33
639.47	14.18
639.884	14.02
640.298	13.86
640.712	13.72
641.126	13.57
641.54	13.4
641.954	13.25
642.368	13.09
642.781	12.94
643.195	12.8
643.609	12.66
644.022	12.54
644.436	12.4
644.849	12.26
645.262	12.12
645.676	12.01
646.089	11.89
646.502	11.79
646.915	11.71
647.328	11.61
647.741	11.54
648.154	11.47
648.567	11.38
648.98	11.33
649.393	11.28
649.805	11.23
650.218	11.18
650.631	11.14
651.043	11.1
651.456	11.05
651.868	11.02
652.28	10.97
652.693	10.94
653.105	10.91
653.517	10.87
653.929	10.82
654.341	10.78
654.753	10.73
655.165	10.68
655.577	10.63
655.989	10.56
656.401	10.5
656.813	10.44
657.224	10.35
657.636	10.26
658.047	10.18
658.459	10.1
658.87	10
659.282	9.9
659.693	9.81
660.104	9.71
660.515	9.61
660.926	9.52
661.338	9.41
661.749	9.32
662.159	9.23
662.57	9.13
662.981	9.05
663.392	8.96
663.803	8.89
664.213	8.8
664.624	8.72
665.035	8.65
665.445	8.59
665.855	8.53
666.266	8.48
666.676	8.44
667.086	8.37
667.497	8.32
667.907	8.29
668.317	8.25
668.727	8.21
669.137	8.19
669.547	8.17
669.956	8.15
670.366	8.14
670.776	8.12
671.186	8.1
671.595	8.1
672.005	8.1
672.414	8.11
672.824	8.12
673.233	8.14
673.642	8.14
674.052	8.15
674.461	8.16
674.87	8.18
675.279	8.21
675.688	8.27
676.097	8.31
676.506	8.36
676.915	8.39
677.323	8.45
677.732	8.51
678.141	8.6
678.549	8.68
678.958	8.77
679.366	8.88
679.775	8.99
680.183	9.1
680.592	9.22
681	9.36
681.408	9.53
681.816	9.69
682.224	9.88
682.632	10.08
683.04	10.3
683.448	10.53
683.856	10.76
684.264	11.02
684.671	11.31
685.079	11.62
685.487	11.94
685.894	12.3
686.302	12.67
686.709	13.06
687.116	13.46
687.524	13.89
687.931	14.33
688.338	14.8
688.745	15.28
689.152	15.76
689.559	16.27
689.966	16.79
690.373	17.31
690.78	17.83
691.187	18.35
691.593	18.86
692	19.39
692.407	19.9
692.813	20.4
693.22	20.91
693.626	21.41
694.032	21.91
694.439	22.39
694.845	22.87
695.251	23.34
695.657	23.79
696.063	24.26
696.469	24.71
696.875	25.16
697.281	25.62
697.687	26.04
698.093	26.44
698.498	26.84
698.904	27.23
699.31	27.61
699.715	27.97
700.12	28.35
700.526	28.7
700.931	29.04
701.337	29.37
701.742	29.67
702.147	29.98
702.552	30.3
702.957	30.59
703.362	30.86
703.767	31.11
704.172	31.39
704.577	31.64
704.981	31.89
705.386	32.12
705.791	32.35
706.195	32.56
706.6	32.8
707.004	33.02
707.408	33.23
707.813	33.47
708.217	33.71
708.621	33.92
709.025	34.12
709.43	34.31
709.834	34.51
710.237	34.69
710.641	34.88
711.045	35.02
711.449	35.19
711.853	35.37
712.256	35.52
712.66	35.66
713.064	35.8
713.467	35.95
713.87	36.09
714.274	36.23
714.677	36.38
715.08	36.52
715.484	36.67
715.887	36.81
716.29	36.91
716.693	37.04
717.096	37.18
717.499	37.31
717.901	37.42
718.304	37.54
718.707	37.64
719.109	37.76
719.512	37.84
719.915	37.95
720.317	38.02
720.719	38.11
721.122	38.21
721.524	38.28
721.926	38.35
722.328	38.43
722.731	38.49
723.133	38.59
723.535	38.66
723.937	38.78
724.338	38.85
724.74	38.95
725.142	39.07
725.544	39.12
725.945	39.19
726.347	39.26
726.748	39.33
727.15	39.38
727.551	39.44
727.952	39.47
728.354	39.5
728.755	39.52
729.156	39.56
729.557	39.56
729.958	39.61
730.359	39.64
730.76	39.67
731.161	39.71
731.562	39.78
731.962	39.8
732.363	39.84
732.763	39.86
733.164	39.91
733.564	39.93
733.965	39.96
734.365	40
734.766	40.04
735.166	40.06
735.566	40.09
735.966	40.11
736.366	40.11
736.766	40.13
737.166	40.17
737.566	40.2
737.966	40.23
738.365	40.24
738.765	40.27
739.165	40.27
739.564	40.3
739.964	40.32
740.363	40.32
740.763	40.35
741.162	40.37
741.561	40.39
741.96	40.37
742.36	40.37
742.759	40.4
743.158	40.38
743.557	40.37
743.955	40.38
744.354	40.36
744.753	40.41
745.152	40.42
745.55	40.42
745.949	40.43
746.348	40.46
746.746	40.47
747.144	40.47
747.543	40.46
747.941	40.47
748.339	40.46
748.737	40.46
749.136	40.42
749.534	40.39
749.932	40.39
750.33	40.35
750.727	40.34
751.125	40.34
751.523	40.33
751.921	40.34
752.318	40.36
752.716	40.37
753.113	40.41
753.511	40.44
753.908	40.45
754.305	40.45
754.703	40.48
755.1	40.49
755.497	40.49
755.894	40.51
756.291	40.51
756.688	40.48
757.085	40.47
757.482	40.44
757.878	40.43
758.275	40.44
758.672	40.44
759.068	40.43
759.465	40.42
759.861	40.43
760.258	40.42
760.654	40.43
761.05	40.46
761.447	40.46
761.843	40.49
762.239	40.48
762.635	40.47
763.031	40.45
763.427	40.47
763.822	40.47
764.218	40.47
764.614	40.45
765.01	40.43
765.405	40.43
765.801	40.4
766.196	40.41
766.592	40.39
766.987	40.38
767.382	40.4
767.778	40.37
768.173	40.37
768.568	40.37
768.963	40.37
769.358	40.37
769.753	40.37
770.148	40.39
770.542	40.38
770.937	40.39
771.332	40.38
771.726	40.37
772.121	40.37
772.515	40.36
772.91	40.35
773.304	40.36
773.699	40.37
774.093	40.36
774.487	40.37
774.881	40.37
775.275	40.35
775.669	40.36
776.063	40.35
776.457	40.37
776.851	40.37
777.245	40.37
777.638	40.36
778.032	40.37
778.425	40.4
778.819	40.41
779.212	40.41
779.606	40.45
779.999	40.45
780.392	40.46
780.786	40.44
781.179	40.45
