Data from N_1_DEC_OH_4n_Splice17_12-28-40-357.txt Node
Date: Sat Mar 07 12:28:40 EST 2020
User: sa697716
Spectrometer: NQ5500242
Trigger mode: 0
Integration Time (sec): 1.450000E-1
Scans to average: 20
Nonlinearity correction enabled: false
Boxcar width: 5
Storing dark spectrum: false
XAxis mode: Wavelengths
Number of Pixels in Spectrum: 512
>>>>>Begin Spectral Data<<<<<
187.83	137.23
188.298	139.25
188.766	122.22
189.233	97.52
189.701	103.45
190.169	109.31
190.636	88.02
191.104	25.69
191.571	-217.6
192.039	128.06
192.506	-571.03
192.974	132.8
193.441	245.87
193.908	134.12
194.375	71.93
194.842	-10.61
195.31	-21.28
195.777	-356.52
196.244	-7.85
196.711	17.27
197.177	21.58
197.644	20.94
198.111	21.21
198.578	21.66
199.045	21.8
199.511	22.05
199.978	22.43
200.445	22.51
200.911	22.95
201.378	23.13
201.844	23.19
202.31	23.05
202.777	23.34
203.243	23.57
203.709	23.14
204.176	22.86
204.642	22.92
205.108	23.09
205.574	23.09
206.04	23.01
206.506	22.6
206.972	22.43
207.438	22.25
207.903	21.76
208.369	21.18
208.835	20.84
209.301	20.62
209.766	19.97
210.232	19.38
210.697	18.79
211.163	18.32
211.628	18.05
212.094	17.53
212.559	17.31
213.024	16.91
213.49	16.49
213.955	16.34
214.42	16.02
214.885	15.65
215.35	15.18
215.815	14.41
216.28	13.52
216.745	12.6
217.21	11.71
217.675	10.97
218.14	10.29
218.604	9.76
219.069	9.21
219.534	8.78
219.998	8.42
220.463	8.12
220.927	7.87
221.392	7.67
221.856	7.5
222.32	7.36
222.785	7.2
223.249	7.06
223.713	6.93
224.177	6.82
224.642	6.71
225.106	6.56
225.57	6.44
226.034	6.36
226.497	6.27
226.961	6.18
227.425	6.09
227.889	5.99
228.353	5.91
228.816	5.82
229.28	5.73
229.744	5.66
230.207	5.61
230.671	5.54
231.134	5.47
231.597	5.42
232.061	5.35
232.524	5.28
232.987	5.24
233.45	5.2
233.914	5.15
234.377	5.11
234.84	5.06
235.303	5.02
235.766	4.98
236.229	4.94
236.691	4.89
237.154	4.86
237.617	4.82
238.08	4.78
238.542	4.73
239.005	4.69
239.468	4.65
239.93	4.61
240.393	4.58
240.855	4.52
241.317	4.47
241.78	4.43
242.242	4.39
242.704	4.35
243.166	4.31
243.629	4.28
244.091	4.24
244.553	4.21
245.015	4.17
245.477	4.13
245.939	4.11
246.4	4.09
246.862	4.06
247.324	4.03
247.786	3.99
248.247	3.97
248.709	3.93
249.17	3.9
249.632	3.87
250.093	3.85
250.555	3.83
251.016	3.81
251.477	3.78
251.939	3.76
252.4	3.73
252.861	3.71
253.322	3.69
253.783	3.67
254.244	3.67
254.705	3.65
255.166	3.63
255.627	3.62
256.088	3.61
256.549	3.59
257.009	3.58
257.47	3.56
257.931	3.54
258.391	3.52
258.852	3.5
259.312	3.49
259.773	3.47
260.233	3.45
260.694	3.43
261.154	3.41
261.614	3.4
262.074	3.38
262.534	3.36
262.994	3.35
263.455	3.34
263.915	3.33
264.374	3.32
264.834	3.32
265.294	3.31
265.754	3.3
266.214	3.29
266.673	3.28
267.133	3.28
267.593	3.27
268.052	3.27
268.512	3.27
268.971	3.26
269.431	3.25
269.89	3.24
270.349	3.24
270.809	3.23
271.268	3.22
271.727	3.22
272.186	3.21
272.645	3.2
273.104	3.2
273.563	3.19
274.022	3.18
274.481	3.18
274.94	3.18
275.399	3.16
275.857	3.16
276.316	3.15
276.775	3.15
277.233	3.14
277.692	3.12
278.15	3.11
278.609	3.1
279.067	3.09
279.525	3.09
279.984	3.08
280.442	3.07
280.9	3.06
281.358	3.06
281.816	3.05
282.274	3.04
282.732	3.04
283.19	3.03
283.648	3.02
284.106	3.01
284.564	3
285.021	2.99
285.479	2.99
285.937	2.98
286.394	2.98
286.852	2.97
287.309	2.96
287.767	2.94
288.224	2.93
288.682	2.93
289.139	2.91
289.596	2.9
290.053	2.89
290.511	2.88
290.968	2.87
291.425	2.86
291.882	2.86
292.339	2.85
292.796	2.85
293.252	2.84
293.709	2.83
294.166	2.83
294.623	2.82
295.079	2.82
295.536	2.82
295.992	2.8
296.449	2.8
296.905	2.79
297.362	2.78
297.818	2.78
298.274	2.78
298.731	2.77
299.187	2.76
299.643	2.75
300.099	2.75
300.555	2.74
301.011	2.74
301.467	2.73
301.923	2.72
302.379	2.72
302.835	2.72
303.291	2.71
303.746	2.71
304.202	2.71
304.658	2.7
305.113	2.69
305.569	2.69
306.024	2.68
306.479	2.68
306.935	2.67
307.39	2.67
307.845	2.66
308.301	2.66
308.756	2.66
309.211	2.66
309.666	2.66
310.121	2.65
310.576	2.65
311.031	2.65
311.486	2.64
311.94	2.64
312.395	2.64
312.85	2.64
313.305	2.64
313.759	2.63
314.214	2.62
314.668	2.61
315.123	2.61
315.577	2.62
316.032	2.61
316.486	2.62
316.94	2.61
317.394	2.6
317.849	2.6
318.303	2.6
318.757	2.58
319.211	2.58
319.665	2.58
320.119	2.57
320.572	2.56
321.026	2.55
321.48	2.54
321.934	2.54
322.387	2.54
322.841	2.53
323.295	2.53
323.748	2.53
324.202	2.52
324.655	2.52
325.108	2.51
325.562	2.52
326.015	2.52
326.468	2.52
326.921	2.52
327.374	2.51
327.827	2.52
328.28	2.51
328.733	2.51
329.186	2.51
329.639	2.51
330.092	2.51
330.545	2.5
330.997	2.49
331.45	2.49
331.903	2.5
332.355	2.51
332.808	2.5
333.26	2.5
333.713	2.5
334.165	2.49
334.617	2.5
335.069	2.49
335.522	2.49
335.974	2.5
336.426	2.49
336.878	2.48
337.33	2.47
337.782	2.47
338.234	2.47
338.686	2.47
339.137	2.47
339.589	2.46
340.041	2.46
340.493	2.45
340.944	2.44
341.396	2.44
341.847	2.44
342.299	2.43
342.75	2.42
343.201	2.4
343.653	2.4
344.104	2.39
344.555	2.39
345.006	2.38
345.457	2.38
345.908	2.38
346.359	2.38
346.81	2.38
347.261	2.38
347.712	2.37
348.163	2.37
348.613	2.38
349.064	2.38
349.515	2.38
349.965	2.37
350.416	2.38
350.866	2.37
351.317	2.36
351.767	2.35
352.217	2.36
352.668	2.36
353.118	2.37
353.568	2.36
354.018	2.37
354.468	2.38
354.918	2.38
355.368	2.38
355.818	2.39
356.268	2.38
356.718	2.38
357.168	2.38
357.617	2.38
358.067	2.38
358.517	2.38
358.966	2.38
359.416	2.37
359.865	2.37
360.315	2.37
360.764	2.38
361.213	2.38
361.663	2.38
362.112	2.39
362.561	2.39
363.01	2.39
363.459	2.37
363.908	2.36
364.357	2.36
364.806	2.36
365.255	2.36
365.703	2.36
366.152	2.36
366.601	2.36
367.05	2.36
367.498	2.36
367.947	2.35
368.395	2.37
368.844	2.37
369.292	2.37
369.74	2.37
370.189	2.36
370.637	2.36
371.085	2.35
371.533	2.36
371.981	2.35
372.429	2.36
372.877	2.36
373.325	2.35
373.773	2.36
374.221	2.36
374.669	2.36
375.116	2.36
375.564	2.35
376.012	2.36
376.459	2.35
376.907	2.36
377.354	2.36
377.801	2.37
378.249	2.38
378.696	2.38
379.143	2.38
379.591	2.4
380.038	2.41
380.485	2.41
380.932	2.42
381.379	2.42
381.826	2.43
382.273	2.44
382.72	2.43
383.166	2.43
383.613	2.44
384.06	2.45
384.506	2.46
384.953	2.47
385.4	2.48
385.846	2.49
386.292	2.5
386.739	2.5
387.185	2.52
387.631	2.54
388.078	2.55
388.524	2.56
388.97	2.57
389.416	2.57
389.862	2.59
390.308	2.61
390.754	2.63
391.2	2.65
391.645	2.67
392.091	2.69
392.537	2.71
392.983	2.72
393.428	2.75
393.874	2.78
394.319	2.8
394.765	2.81
395.21	2.83
395.655	2.86
396.101	2.89
396.546	2.92
396.991	2.95
397.436	2.98
397.881	3.03
398.326	3.07
398.771	3.1
399.216	3.14
399.661	3.19
400.106	3.23
400.551	3.25
400.995	3.28
401.44	3.3
401.885	3.33
402.329	3.35
402.774	3.37
403.218	3.41
403.663	3.44
404.107	3.47
404.551	3.49
404.995	3.52
405.44	3.54
405.884	3.57
406.328	3.6
406.772	3.63
407.216	3.66
407.66	3.69
408.104	3.7
408.547	3.73
408.991	3.76
409.435	3.78
409.879	3.8
410.322	3.83
410.766	3.86
411.209	3.91
411.653	3.94
412.096	3.97
412.54	4
412.983	4.01
413.426	4.06
413.869	4.07
414.312	4.1
414.756	4.14
415.199	4.16
415.642	4.18
416.085	4.19
416.527	4.18
416.97	4.18
417.413	4.18
417.856	4.21
418.298	4.2
418.741	4.22
419.184	4.23
419.626	4.24
420.069	4.26
420.511	4.26
420.953	4.27
421.396	4.3
421.838	4.32
422.28	4.34
422.722	4.36
423.164	4.37
423.606	4.38
424.048	4.39
424.49	4.4
424.932	4.39
425.374	4.38
425.816	4.33
426.258	4.32
426.699	4.29
427.141	4.28
427.582	4.29
428.024	4.32
428.465	4.33
428.907	4.34
429.348	4.34
429.789	4.36
430.231	4.41
430.672	4.48
431.113	4.54
431.554	4.6
431.995	4.64
432.436	4.66
432.877	4.69
433.318	4.72
433.759	4.76
434.2	4.8
434.64	4.83
435.081	4.87
435.522	4.9
435.962	4.92
436.403	4.96
436.843	5
437.284	5
437.724	5.01
438.164	5.03
438.604	5.04
439.045	5.07
439.485	5.1
439.925	5.11
440.365	5.14
440.805	5.15
441.245	5.14
441.685	5.15
442.125	5.19
442.564	5.21
443.004	5.23
443.444	5.26
443.883	5.29
444.323	5.3
444.762	5.33
445.202	5.34
445.641	5.38
446.081	5.41
446.52	5.44
446.959	5.47
447.398	5.52
447.837	5.52
448.276	5.53
448.716	5.54
449.154	5.56
449.593	5.57
450.032	5.57
450.471	5.56
450.91	5.55
451.349	5.55
451.787	5.54
452.226	5.51
452.664	5.52
453.103	5.52
453.541	5.52
453.98	5.52
454.418	5.49
454.856	5.48
455.295	5.47
455.733	5.45
456.171	5.44
456.609	5.45
457.047	5.45
457.485	5.43
457.923	5.43
458.361	5.42
458.798	5.43
459.236	5.43
459.674	5.43
460.111	5.45
460.549	5.46
460.987	5.47
461.424	5.48
461.862	5.5
462.299	5.52
462.736	5.53
463.173	5.55
463.611	5.55
464.048	5.57
464.485	5.6
464.922	5.62
465.359	5.65
465.796	5.68
466.233	5.68
466.67	5.7
467.106	5.74
467.543	5.76
467.98	5.78
468.416	5.81
468.853	5.83
469.29	5.86
469.726	5.88
470.162	5.89
470.599	5.91
471.035	5.94
471.471	5.96
471.907	5.94
472.344	5.96
472.78	5.97
473.216	5.98
473.652	5.99
474.088	5.99
474.523	6
474.959	6.01
475.395	6
475.831	5.99
476.266	6
476.702	6.01
477.138	6
477.573	6
478.008	6
478.444	5.98
478.879	5.97
479.314	5.95
479.75	5.94
480.185	5.92
480.62	5.89
481.055	5.84
481.49	5.79
481.925	5.74
482.36	5.69
482.795	5.63
483.229	5.6
483.664	5.58
484.099	5.54
484.534	5.52
484.968	5.52
485.403	5.52
485.837	5.55
486.271	5.58
486.706	5.61
487.14	5.63
487.574	5.66
488.009	5.68
488.443	5.7
488.877	5.72
489.311	5.75
489.745	5.77
490.179	5.8
490.613	5.83
491.046	5.86
491.48	5.9
491.914	5.94
492.348	5.99
492.781	6.04
493.215	6.09
493.648	6.15
494.082	6.19
494.515	6.24
494.948	6.3
495.382	6.34
495.815	6.4
496.248	6.45
496.681	6.5
497.114	6.56
497.547	6.62
497.98	6.68
498.413	6.75
498.846	6.84
499.279	6.93
499.711	7.01
500.144	7.11
500.577	7.21
501.009	7.33
501.442	7.45
501.874	7.59
502.306	7.73
502.739	7.87
503.171	8.01
503.603	8.16
504.036	8.31
504.468	8.46
504.9	8.62
505.332	8.79
505.764	8.97
506.196	9.14
506.627	9.32
507.059	9.53
507.491	9.72
507.923	9.93
508.354	10.15
508.786	10.36
509.217	10.58
509.649	10.8
510.08	11.02
510.512	11.26
510.943	11.51
511.374	11.74
511.805	11.95
512.237	12.16
512.668	12.36
513.099	12.56
513.53	12.77
513.961	12.99
514.391	13.24
514.822	13.5
515.253	13.76
515.684	14.04
516.114	14.32
516.545	14.63
516.975	14.97
517.406	15.35
517.836	15.71
518.267	16.07
518.697	16.41
519.127	16.75
519.558	17.1
519.988	17.46
520.418	17.79
520.848	18.12
521.278	18.42
521.708	18.73
522.138	18.96
522.567	19.18
522.997	19.42
523.427	19.68
523.857	19.94
524.286	20.18
524.716	20.42
525.145	20.66
525.575	20.9
526.004	21.16
526.433	21.38
526.863	21.68
527.292	21.96
527.721	22.2
528.15	22.39
528.579	22.56
529.008	22.71
529.437	22.84
529.866	22.95
530.295	23.07
530.724	23.18
531.152	23.31
531.581	23.42
532.01	23.5
532.438	23.59
532.867	23.7
533.295	23.79
533.723	23.88
534.152	23.96
534.58	24.04
535.008	24.08
535.436	24.11
535.865	24.09
536.293	24.08
536.721	24.11
537.149	24.14
537.576	24.19
538.004	24.24
538.432	24.27
538.86	24.31
539.287	24.35
539.715	24.44
540.143	24.52
540.57	24.61
540.998	24.7
541.425	24.78
541.852	24.86
542.28	24.94
542.707	24.99
543.134	25.06
543.561	25.11
543.988	25.17
544.415	25.21
544.842	25.27
545.269	25.34
545.696	25.39
546.123	25.44
546.549	25.49
546.976	25.53
547.403	25.59
547.829	25.64
548.256	25.69
548.682	25.72
549.108	25.77
549.535	25.78
549.961	25.79
550.387	25.81
550.813	25.82
551.24	25.83
551.666	25.8
552.092	25.77
552.518	25.75
552.943	25.7
553.369	25.66
553.795	25.6
554.221	25.52
554.646	25.42
555.072	25.31
555.498	25.2
555.923	25.1
556.349	25
556.774	24.9
557.199	24.81
557.625	24.7
558.05	24.59
558.475	24.48
558.9	24.4
559.325	24.3
559.75	24.19
560.175	24.07
560.6	23.92
561.025	23.78
561.449	23.62
561.874	23.44
562.299	23.28
562.723	23.11
563.148	22.93
563.572	22.73
563.997	22.54
564.421	22.35
564.846	22.16
565.27	21.97
565.694	21.78
566.118	21.58
566.542	21.39
566.966	21.18
567.39	20.98
567.814	20.79
568.238	20.63
568.662	20.47
569.086	20.33
569.509	20.18
569.933	20.03
570.357	19.89
570.78	19.74
571.204	19.6
571.627	19.47
572.05	19.33
572.474	19.19
572.897	19.04
573.32	18.87
573.743	18.71
574.166	18.55
574.589	18.4
575.012	18.27
575.435	18.16
575.858	18.04
576.281	17.93
576.704	17.82
577.126	17.73
577.549	17.65
577.972	17.56
578.394	17.47
578.817	17.4
579.239	17.34
579.661	17.26
580.084	17.19
580.506	17.12
580.928	17.03
581.35	16.94
581.772	16.84
582.194	16.74
582.616	16.65
583.038	16.57
583.46	16.48
583.882	16.37
584.303	16.24
584.725	16.09
585.147	15.94
585.568	15.82
585.99	15.7
586.411	15.6
586.833	15.51
587.254	15.41
587.675	15.33
588.096	15.23
588.518	15.17
588.939	15.13
589.36	15.1
589.781	15.09
590.202	15.07
590.623	15.04
591.043	14.98
591.464	14.93
591.885	14.88
592.305	14.82
592.726	14.78
593.147	14.73
593.567	14.69
593.987	14.64
594.408	14.58
594.828	14.53
595.248	14.48
595.669	14.45
596.089	14.4
596.509	14.35
596.929	14.28
597.349	14.22
597.769	14.16
598.189	14.08
598.608	14.04
599.028	14
599.448	13.96
599.867	13.91
600.287	13.87
600.706	13.82
601.126	13.77
601.545	13.74
601.965	13.69
602.384	13.64
602.803	13.59
603.222	13.53
603.641	13.47
604.061	13.39
604.48	13.31
604.898	13.22
605.317	13.16
605.736	13.08
606.155	13
606.574	12.92
606.992	12.83
607.411	12.75
607.829	12.64
608.248	12.54
608.666	12.46
609.085	12.38
609.503	12.3
609.921	12.21
610.339	12.13
610.758	12.04
611.176	11.96
611.594	11.88
612.012	11.79
612.43	11.72
612.847	11.65
613.265	11.57
613.683	11.5
614.101	11.43
614.518	11.35
614.936	11.28
615.353	11.2
615.771	11.14
616.188	11.08
616.606	11.04
617.023	10.99
617.44	10.95
617.857	10.9
618.274	10.83
618.691	10.76
619.108	10.71
619.525	10.66
619.942	10.61
620.359	10.56
620.776	10.51
621.192	10.46
621.609	10.42
622.026	10.37
622.442	10.34
622.859	10.3
623.275	10.27
623.691	10.24
624.108	10.21
624.524	10.18
624.94	10.16
625.356	10.15
625.772	10.12
626.188	10.11
626.604	10.09
627.02	10.06
627.436	10.05
627.852	10.03
628.268	10.01
628.683	10
629.099	9.99
629.514	9.96
629.93	9.94
630.345	9.91
630.761	9.87
631.176	9.84
631.591	9.82
632.007	9.78
632.422	9.73
632.837	9.69
633.252	9.64
633.667	9.57
634.082	9.51
634.497	9.44
634.911	9.36
635.326	9.28
635.741	9.21
636.155	9.12
636.57	9.02
636.984	8.94
637.399	8.84
637.813	8.74
638.228	8.63
638.642	8.52
639.056	8.41
639.47	8.32
639.884	8.22
640.298	8.1
640.712	7.99
641.126	7.89
641.54	7.77
641.954	7.67
642.368	7.57
642.781	7.49
643.195	7.39
643.609	7.3
644.022	7.21
644.436	7.14
644.849	7.05
645.262	6.97
645.676	6.9
646.089	6.83
646.502	6.77
646.915	6.72
647.328	6.66
647.741	6.62
648.154	6.57
648.567	6.53
648.98	6.47
649.393	6.45
649.805	6.43
650.218	6.4
650.631	6.37
651.043	6.33
651.456	6.29
651.868	6.24
652.28	6.18
652.693	6.14
653.105	6.1
653.517	6.06
653.929	6.02
654.341	5.97
654.753	5.94
655.165	5.91
655.577	5.87
655.989	5.84
656.401	5.82
656.813	5.81
657.224	5.78
657.636	5.74
658.047	5.7
658.459	5.65
658.87	5.6
659.282	5.54
659.693	5.47
660.104	5.42
660.515	5.37
660.926	5.32
661.338	5.26
661.749	5.21
662.159	5.15
662.57	5.11
662.981	5.07
663.392	5.02
663.803	4.99
664.213	4.96
664.624	4.92
665.035	4.88
665.445	4.85
665.855	4.83
666.266	4.8
666.676	4.78
667.086	4.75
667.497	4.74
667.907	4.73
668.317	4.72
668.727	4.7
669.137	4.7
669.547	4.69
669.956	4.67
670.366	4.66
670.776	4.65
671.186	4.66
671.595	4.66
672.005	4.66
672.414	4.67
672.824	4.67
673.233	4.69
673.642	4.7
674.052	4.71
674.461	4.72
674.87	4.74
675.279	4.77
675.688	4.78
676.097	4.8
676.506	4.84
676.915	4.86
677.323	4.88
677.732	4.9
678.141	4.94
678.549	4.97
678.958	5.02
679.366	5.07
679.775	5.1
680.183	5.15
680.592	5.21
681	5.26
681.408	5.32
681.816	5.38
682.224	5.45
682.632	5.5
683.04	5.56
683.448	5.64
683.856	5.71
684.264	5.81
684.671	5.92
685.079	6.02
685.487	6.17
685.894	6.32
686.302	6.5
686.709	6.7
687.116	6.94
687.524	7.19
687.931	7.46
688.338	7.77
688.745	8.07
689.152	8.41
689.559	8.77
689.966	9.13
690.373	9.51
690.78	9.89
691.187	10.29
691.593	10.7
692	11.12
692.407	11.55
692.813	11.98
693.22	12.42
693.626	12.88
694.032	13.33
694.439	13.77
694.845	14.23
695.251	14.7
695.657	15.15
696.063	15.61
696.469	16.07
696.875	16.53
697.281	16.97
697.687	17.43
698.093	17.86
698.498	18.3
698.904	18.72
699.31	19.16
699.715	19.58
700.12	20.01
700.526	20.43
700.931	20.84
701.337	21.26
701.742	21.67
702.147	22.06
702.552	22.47
702.957	22.84
703.362	23.25
703.767	23.61
704.172	23.96
704.577	24.32
704.981	24.69
705.386	25.06
705.791	25.39
706.195	25.75
706.6	26.09
707.004	26.41
707.408	26.74
707.813	27.06
708.217	27.37
708.621	27.7
709.025	27.99
709.43	28.27
709.834	28.57
710.237	28.87
710.641	29.13
711.045	29.4
711.449	29.7
711.853	29.98
712.256	30.21
712.66	30.44
713.064	30.64
713.467	30.86
713.87	31.05
714.274	31.19
714.677	31.32
715.08	31.44
715.484	31.57
715.887	31.71
716.29	31.83
716.693	32.01
717.096	32.22
717.499	32.44
717.901	32.68
718.304	32.91
718.707	33.17
719.109	33.43
719.512	33.68
719.915	33.92
720.317	34.1
720.719	34.29
721.122	34.47
721.524	34.62
721.926	34.77
722.328	34.91
722.731	35.04
723.133	35.18
723.535	35.3
723.937	35.44
724.338	35.55
724.74	35.69
725.142	35.87
725.544	35.99
725.945	36.13
726.347	36.24
726.748	36.32
727.15	36.41
727.551	36.54
727.952	36.66
728.354	36.79
728.755	36.91
729.156	37.06
729.557	37.16
729.958	37.28
730.359	37.4
730.76	37.53
731.161	37.65
731.562	37.79
731.962	37.88
732.363	37.97
732.763	38.06
733.164	38.12
733.564	38.19
733.965	38.24
734.365	38.3
734.766	38.31
735.166	38.35
735.566	38.4
735.966	38.44
736.366	38.45
736.766	38.5
737.166	38.53
737.566	38.56
737.966	38.57
738.365	38.61
738.765	38.64
739.165	38.71
739.564	38.74
739.964	38.76
740.363	38.76
740.763	38.79
741.162	38.8
741.561	38.83
741.96	38.85
742.36	38.88
742.759	38.91
743.158	38.93
743.557	38.93
743.955	38.95
744.354	38.94
744.753	38.98
745.152	39.01
745.55	39.01
745.949	39.01
746.348	39.04
746.746	39.05
747.144	39.03
747.543	39.02
747.941	39
748.339	38.97
748.737	38.98
749.136	38.94
749.534	38.9
749.932	38.91
750.33	38.89
750.727	38.86
751.125	38.85
751.523	38.84
751.921	38.82
752.318	38.83
752.716	38.82
753.113	38.81
753.511	38.81
753.908	38.81
754.305	38.76
754.703	38.67
755.1	38.48
755.497	38.17
755.894	37.75
756.291	37.27
756.688	36.75
757.085	36.27
757.482	35.82
757.878	35.4
758.275	34.98
758.672	34.54
759.068	34.18
759.465	33.92
759.861	33.81
760.258	33.86
760.654	33.98
761.05	34.17
761.447	34.39
761.843	34.56
762.239	34.76
762.635	34.98
763.031	35.27
763.427	35.58
763.822	35.9
764.218	36.2
764.614	36.48
765.01	36.76
765.405	36.98
765.801	37.19
766.196	37.39
766.592	37.54
766.987	37.67
767.382	37.76
767.778	37.81
768.173	37.87
768.568	37.89
768.963	37.9
769.358	37.92
769.753	37.96
770.148	37.95
770.542	37.95
770.937	37.93
771.332	37.92
771.726	37.93
772.121	37.92
772.515	37.9
772.91	37.9
773.304	37.9
773.699	37.87
774.093	37.83
774.487	37.81
774.881	37.8
775.275	37.78
775.669	37.74
776.063	37.68
776.457	37.65
776.851	37.61
777.245	37.57
777.638	37.53
778.032	37.5
778.425	37.5
778.819	37.48
779.212	37.45
779.606	37.41
779.999	37.4
780.392	37.41
780.786	37.37
781.179	37.38
781.572	37.37
781.965	37.36
782.358	37.34
782.751	37.3
783.143	37.25
783.536	37.2
783.929	37.18
784.322	37.15
