Data from N_1_DEC_NC_4n_Splice17_12-17-32-494.txt Node
Date: Sat Mar 07 12:17:32 EST 2020
User: sa697716
Spectrometer: NQ5500242
Trigger mode: 0
Integration Time (sec): 1.450000E-1
Scans to average: 20
Nonlinearity correction enabled: false
Boxcar width: 5
Storing dark spectrum: false
XAxis mode: Wavelengths
Number of Pixels in Spectrum: 512
>>>>>Begin Spectral Data<<<<<
187.83	87.53
188.298	107.07
188.766	82.73
189.233	68.76
189.701	57.32
190.169	78.24
190.636	42.28
191.104	-19.49
191.571	-192.87
192.039	-49.22
192.506	-60.96
192.974	208.4
193.441	314.56
193.908	180.33
194.375	89.4
194.842	-6.4
195.31	38.23
195.777	-69.01
196.244	17.47
196.711	25.75
197.177	28.1
197.644	27.39
198.111	26.08
198.578	26.24
199.045	26.27
199.511	26.71
199.978	27.14
200.445	27.12
200.911	26.99
201.378	27.03
201.844	26.73
202.31	26.49
202.777	26.51
203.243	26.66
203.709	26.57
204.176	26.41
204.642	26.05
205.108	26.13
205.574	26.17
206.04	26.01
206.506	25.91
206.972	26.1
207.438	25.8
207.903	25.39
208.369	24.78
208.835	24.33
209.301	23.79
209.766	23.07
210.232	22.18
210.697	21.51
211.163	20.94
211.628	20.34
212.094	19.55
212.559	19.35
213.024	18.93
213.49	18.8
213.955	18.36
214.42	17.91
214.885	17.55
215.35	16.93
215.815	15.99
216.28	14.82
216.745	13.53
217.21	12.35
217.675	11.18
218.14	10.31
218.604	9.41
219.069	8.77
219.534	8.22
219.998	7.75
220.463	7.36
220.927	6.99
221.392	6.72
221.856	6.53
222.32	6.34
222.785	6.15
223.249	5.97
223.713	5.82
224.177	5.7
224.642	5.57
225.106	5.44
225.57	5.31
226.034	5.22
226.497	5.13
226.961	5.03
227.425	4.95
227.889	4.87
228.353	4.79
228.816	4.72
229.28	4.63
229.744	4.57
230.207	4.49
230.671	4.43
231.134	4.37
231.597	4.33
232.061	4.27
232.524	4.2
232.987	4.15
233.45	4.12
233.914	4.08
234.377	4.04
234.84	3.99
235.303	3.96
235.766	3.92
236.229	3.87
236.691	3.82
237.154	3.79
237.617	3.75
238.08	3.72
238.542	3.67
239.005	3.63
239.468	3.6
239.93	3.56
240.393	3.53
240.855	3.5
241.317	3.48
241.78	3.44
242.242	3.42
242.704	3.39
243.166	3.37
243.629	3.36
244.091	3.32
244.553	3.28
245.015	3.25
245.477	3.22
245.939	3.19
246.4	3.16
246.862	3.13
247.324	3.1
247.786	3.08
248.247	3.05
248.709	3.01
249.17	2.98
249.632	2.97
250.093	2.95
250.555	2.92
251.016	2.91
251.477	2.88
251.939	2.86
252.4	2.84
252.861	2.81
253.322	2.8
253.783	2.78
254.244	2.78
254.705	2.76
255.166	2.75
255.627	2.73
256.088	2.72
256.549	2.71
257.009	2.69
257.47	2.68
257.931	2.66
258.391	2.64
258.852	2.62
259.312	2.6
259.773	2.58
260.233	2.57
260.694	2.56
261.154	2.55
261.614	2.53
262.074	2.52
262.534	2.5
262.994	2.49
263.455	2.48
263.915	2.47
264.374	2.45
264.834	2.44
265.294	2.42
265.754	2.41
266.214	2.4
266.673	2.39
267.133	2.39
267.593	2.38
268.052	2.38
268.512	2.37
268.971	2.36
269.431	2.36
269.89	2.35
270.349	2.35
270.809	2.34
271.268	2.34
271.727	2.33
272.186	2.33
272.645	2.33
273.104	2.32
273.563	2.31
274.022	2.3
274.481	2.3
274.94	2.3
275.399	2.29
275.857	2.28
276.316	2.28
276.775	2.27
277.233	2.27
277.692	2.26
278.15	2.26
278.609	2.26
279.067	2.25
279.525	2.25
279.984	2.24
280.442	2.24
280.9	2.24
281.358	2.23
281.816	2.23
282.274	2.23
282.732	2.22
283.19	2.22
283.648	2.21
284.106	2.2
284.564	2.2
285.021	2.21
285.479	2.2
285.937	2.19
286.394	2.19
286.852	2.18
287.309	2.17
287.767	2.16
288.224	2.16
288.682	2.14
289.139	2.14
289.596	2.13
290.053	2.11
290.511	2.1
290.968	2.1
291.425	2.09
291.882	2.08
292.339	2.08
292.796	2.08
293.252	2.07
293.709	2.07
294.166	2.07
294.623	2.06
295.079	2.06
295.536	2.06
295.992	2.05
296.449	2.05
296.905	2.05
297.362	2.03
297.818	2.03
298.274	2.02
298.731	2.01
299.187	2
299.643	2
300.099	2
300.555	1.99
301.011	1.98
301.467	1.98
301.923	1.97
302.379	1.97
302.835	1.97
303.291	1.97
303.746	1.97
304.202	1.97
304.658	1.97
305.113	1.97
305.569	1.97
306.024	1.97
306.479	1.96
306.935	1.97
307.39	1.97
307.845	1.97
308.301	1.97
308.756	1.97
309.211	1.96
309.666	1.97
310.121	1.97
310.576	1.96
311.031	1.96
311.486	1.97
311.94	1.97
312.395	1.97
312.85	1.96
313.305	1.96
313.759	1.96
314.214	1.95
314.668	1.94
315.123	1.94
315.577	1.94
316.032	1.94
316.486	1.94
316.94	1.94
317.394	1.93
317.849	1.93
318.303	1.93
318.757	1.92
319.211	1.91
319.665	1.91
320.119	1.9
320.572	1.89
321.026	1.89
321.48	1.89
321.934	1.87
322.387	1.87
322.841	1.87
323.295	1.87
323.748	1.87
324.202	1.87
324.655	1.87
325.108	1.88
325.562	1.88
326.015	1.88
326.468	1.88
326.921	1.88
327.374	1.88
327.827	1.88
328.28	1.88
328.733	1.88
329.186	1.88
329.639	1.88
330.092	1.87
330.545	1.87
330.997	1.87
331.45	1.88
331.903	1.88
332.355	1.89
332.808	1.88
333.26	1.88
333.713	1.87
334.165	1.87
334.617	1.88
335.069	1.87
335.522	1.88
335.974	1.88
336.426	1.87
336.878	1.86
337.33	1.85
337.782	1.86
338.234	1.86
338.686	1.87
339.137	1.88
339.589	1.86
340.041	1.87
340.493	1.86
340.944	1.85
341.396	1.85
341.847	1.85
342.299	1.85
342.75	1.84
343.201	1.84
343.653	1.83
344.104	1.82
344.555	1.82
345.006	1.81
345.457	1.81
345.908	1.81
346.359	1.81
346.81	1.8
347.261	1.8
347.712	1.79
348.163	1.79
348.613	1.79
349.064	1.79
349.515	1.79
349.965	1.79
350.416	1.79
350.866	1.79
351.317	1.78
351.767	1.78
352.217	1.78
352.668	1.78
353.118	1.78
353.568	1.77
354.018	1.78
354.468	1.78
354.918	1.78
355.368	1.78
355.818	1.78
356.268	1.79
356.718	1.79
357.168	1.79
357.617	1.79
358.067	1.8
358.517	1.81
358.966	1.81
359.416	1.81
359.865	1.81
360.315	1.82
360.764	1.81
361.213	1.81
361.663	1.81
362.112	1.82
362.561	1.83
363.01	1.82
363.459	1.8
363.908	1.8
364.357	1.81
364.806	1.8
365.255	1.81
365.703	1.81
366.152	1.82
366.601	1.82
367.05	1.82
367.498	1.81
367.947	1.82
368.395	1.84
368.844	1.85
369.292	1.85
369.74	1.87
370.189	1.86
370.637	1.86
371.085	1.87
371.533	1.87
371.981	1.87
372.429	1.87
372.877	1.88
373.325	1.88
373.773	1.88
374.221	1.89
374.669	1.89
375.116	1.89
375.564	1.9
376.012	1.9
376.459	1.91
376.907	1.92
377.354	1.93
377.801	1.95
378.249	1.95
378.696	1.96
379.143	1.97
379.591	1.99
380.038	2.01
380.485	2.02
380.932	2.03
381.379	2.05
381.826	2.06
382.273	2.08
382.72	2.09
383.166	2.11
383.613	2.13
384.06	2.14
384.506	2.15
384.953	2.17
385.4	2.2
385.846	2.23
386.292	2.25
386.739	2.27
387.185	2.29
387.631	2.32
388.078	2.35
388.524	2.37
388.97	2.4
389.416	2.44
389.862	2.47
390.308	2.51
390.754	2.53
391.2	2.56
391.645	2.59
392.091	2.63
392.537	2.67
392.983	2.7
393.428	2.73
393.874	2.76
394.319	2.79
394.765	2.83
395.21	2.84
395.655	2.89
396.101	2.93
396.546	2.97
396.991	2.99
397.436	3.02
397.881	3.06
398.326	3.09
398.771	3.13
399.216	3.15
399.661	3.19
400.106	3.22
400.551	3.22
400.995	3.24
401.44	3.27
401.885	3.29
402.329	3.32
402.774	3.33
403.218	3.37
403.663	3.4
404.107	3.41
404.551	3.43
404.995	3.45
405.44	3.47
405.884	3.47
406.328	3.49
406.772	3.49
407.216	3.5
407.66	3.51
408.104	3.5
408.547	3.51
408.991	3.52
409.435	3.52
409.879	3.53
410.322	3.54
410.766	3.56
411.209	3.58
411.653	3.59
412.096	3.61
412.54	3.63
412.983	3.64
413.426	3.66
413.869	3.68
414.312	3.71
414.756	3.72
415.199	3.72
415.642	3.74
416.085	3.73
416.527	3.74
416.97	3.74
417.413	3.74
417.856	3.74
418.298	3.73
418.741	3.73
419.184	3.73
419.626	3.72
420.069	3.74
420.511	3.73
420.953	3.73
421.396	3.73
421.838	3.74
422.28	3.74
422.722	3.76
423.164	3.77
423.606	3.76
424.048	3.76
424.49	3.78
424.932	3.78
425.374	3.77
425.816	3.75
426.258	3.73
426.699	3.72
427.141	3.72
427.582	3.71
428.024	3.71
428.465	3.71
428.907	3.7
429.348	3.68
429.789	3.68
430.231	3.71
430.672	3.72
431.113	3.74
431.554	3.75
431.995	3.76
432.436	3.77
432.877	3.78
433.318	3.8
433.759	3.83
434.2	3.85
434.64	3.86
435.081	3.86
435.522	3.87
435.962	3.89
436.403	3.92
436.843	3.94
437.284	3.94
437.724	3.95
438.164	3.96
438.604	3.97
439.045	3.98
439.485	4.01
439.925	4.03
440.365	4.04
440.805	4.07
441.245	4.09
441.685	4.11
442.125	4.14
442.564	4.18
443.004	4.19
443.444	4.22
443.883	4.25
444.323	4.27
444.762	4.3
445.202	4.33
445.641	4.37
446.081	4.4
446.52	4.43
446.959	4.47
447.398	4.49
447.837	4.52
448.276	4.56
448.716	4.59
449.154	4.63
449.593	4.66
450.032	4.7
450.471	4.72
450.91	4.74
451.349	4.77
451.787	4.78
452.226	4.8
452.664	4.83
453.103	4.84
453.541	4.85
453.98	4.88
454.418	4.88
454.856	4.88
455.295	4.87
455.733	4.86
456.171	4.86
456.609	4.86
457.047	4.86
457.485	4.85
457.923	4.85
458.361	4.84
458.798	4.83
459.236	4.82
459.674	4.83
460.111	4.84
460.549	4.85
460.987	4.86
461.424	4.88
461.862	4.88
462.299	4.88
462.736	4.88
463.173	4.89
463.611	4.9
464.048	4.9
464.485	4.9
464.922	4.9
465.359	4.9
465.796	4.91
466.233	4.91
466.67	4.91
467.106	4.93
467.543	4.93
467.98	4.93
468.416	4.93
468.853	4.94
469.29	4.95
469.726	4.96
470.162	4.97
470.599	4.98
471.035	4.97
471.471	4.98
471.907	4.98
472.344	4.99
472.78	5
473.216	5
473.652	5.01
474.088	5.02
474.523	5.02
474.959	5.02
475.395	5.01
475.831	5.02
476.266	5.03
476.702	5.03
477.138	5.03
477.573	5.04
478.008	5.05
478.444	5.05
478.879	5.06
479.314	5.06
479.75	5.07
480.185	5.08
480.62	5.08
481.055	5.09
481.49	5.1
481.925	5.11
482.36	5.12
482.795	5.13
483.229	5.13
483.664	5.15
484.099	5.16
484.534	5.17
484.968	5.19
485.403	5.21
485.837	5.23
486.271	5.25
486.706	5.27
487.14	5.29
487.574	5.32
488.009	5.35
488.443	5.39
488.877	5.43
489.311	5.48
489.745	5.52
490.179	5.57
490.613	5.62
491.046	5.67
491.48	5.72
491.914	5.77
492.348	5.83
492.781	5.9
493.215	5.96
493.648	6.03
494.082	6.09
494.515	6.16
494.948	6.24
495.382	6.32
495.815	6.41
496.248	6.5
496.681	6.6
497.114	6.69
497.547	6.78
497.98	6.89
498.413	6.98
498.846	7.09
499.279	7.21
499.711	7.31
500.144	7.43
500.577	7.55
501.009	7.65
501.442	7.77
501.874	7.9
502.306	8.03
502.739	8.18
503.171	8.32
503.603	8.47
504.036	8.62
504.468	8.76
504.9	8.9
505.332	9.06
505.764	9.23
506.196	9.39
506.627	9.56
507.059	9.74
507.491	9.9
507.923	10.07
508.354	10.25
508.786	10.43
509.217	10.62
509.649	10.81
510.08	11
510.512	11.19
510.943	11.39
511.374	11.58
511.805	11.78
512.237	11.97
512.668	12.16
513.099	12.37
513.53	12.57
513.961	12.76
514.391	12.97
514.822	13.18
515.253	13.37
515.684	13.56
516.114	13.75
516.545	13.95
516.975	14.16
517.406	14.36
517.836	14.54
518.267	14.74
518.697	14.92
519.127	15.09
519.558	15.28
519.988	15.47
520.418	15.65
520.848	15.83
521.278	16
521.708	16.31
522.138	16.48
522.567	16.63
522.997	16.79
523.427	16.94
523.857	17.08
524.286	17.21
524.716	17.34
525.145	17.47
525.575	17.59
526.004	17.71
526.433	17.66
526.863	17.78
527.292	17.88
527.721	17.97
528.15	18.07
528.579	18.17
529.008	18.26
529.437	18.33
529.866	18.4
530.295	18.48
530.724	18.56
531.152	18.64
531.581	18.7
532.01	18.75
532.438	18.83
532.867	18.88
533.295	18.92
533.723	18.96
534.152	19.01
534.58	19.07
535.008	19.1
535.436	19.14
535.865	19.17
536.293	19.19
536.721	19.23
537.149	19.26
537.576	19.29
538.004	19.33
538.432	19.37
538.86	19.4
539.287	19.42
539.715	19.45
540.143	19.49
540.57	19.52
540.998	19.54
541.425	19.57
541.852	19.6
542.28	19.61
542.707	19.62
543.134	19.63
543.561	19.66
543.988	19.69
544.415	19.7
544.842	19.7
545.269	19.72
545.696	19.74
546.123	19.75
546.549	19.76
546.976	19.78
547.403	19.79
547.829	19.81
548.256	19.8
548.682	19.8
549.108	19.81
549.535	19.83
549.961	19.84
550.387	19.83
550.813	19.84
551.24	19.84
551.666	19.83
552.092	19.83
552.518	19.83
552.943	19.83
553.369	19.81
553.795	19.79
554.221	19.78
554.646	19.75
555.072	19.73
555.498	19.72
555.923	19.68
556.349	19.65
556.774	19.62
557.199	19.58
557.625	19.54
558.05	19.51
558.475	19.46
558.9	19.41
559.325	19.38
559.75	19.34
560.175	19.28
560.6	19.24
561.025	19.19
561.449	19.13
561.874	19.07
562.299	19
562.723	18.95
563.148	18.9
563.572	18.84
563.997	18.77
564.421	18.68
564.846	18.62
565.27	18.54
565.694	18.47
566.118	18.39
566.542	18.32
566.966	18.25
567.39	18.17
567.814	18.09
568.238	18.01
568.662	17.93
569.086	17.87
569.509	17.81
569.933	17.74
570.357	17.69
570.78	17.62
571.204	17.56
571.627	17.5
572.05	17.42
572.474	17.36
572.897	17.29
573.32	17.22
573.743	17.15
574.166	17.08
574.589	17
575.012	16.94
575.435	16.87
575.858	16.8
576.281	16.73
576.704	16.67
577.126	16.61
577.549	16.54
577.972	16.48
578.394	16.42
578.817	16.36
579.239	16.3
579.661	16.22
580.084	16.18
580.506	16.14
580.928	16.08
581.35	16.03
581.772	15.98
582.194	15.94
582.616	15.9
583.038	15.86
583.46	15.81
583.882	15.77
584.303	15.73
584.725	15.68
585.147	15.64
585.568	15.6
585.99	15.54
586.411	15.49
586.833	15.45
587.254	15.4
587.675	15.37
588.096	15.31
588.518	15.28
588.939	15.25
589.36	15.2
589.781	15.17
590.202	15.15
590.623	15.14
591.043	15.11
591.464	15.07
591.885	15.05
592.305	15.01
592.726	15
593.147	14.98
593.567	14.94
593.987	14.92
594.408	14.88
594.828	14.85
595.248	14.82
595.669	14.8
596.089	14.78
596.509	14.75
596.929	14.73
597.349	14.69
597.769	14.67
598.189	14.65
598.608	14.63
599.028	14.62
599.448	14.58
599.867	14.55
600.287	14.53
600.706	14.5
601.126	14.48
601.545	14.46
601.965	14.45
602.384	14.42
602.803	14.39
603.222	14.35
603.641	14.3
604.061	14.27
604.48	14.24
604.898	14.18
605.317	14.14
605.736	14.09
606.155	14.05
606.574	14.01
606.992	13.96
607.411	13.92
607.829	13.85
608.248	13.8
608.666	13.76
609.085	13.72
609.503	13.68
609.921	13.64
610.339	13.6
610.758	13.55
611.176	13.49
611.594	13.44
612.012	13.38
612.43	13.35
612.847	13.3
613.265	13.25
613.683	13.2
614.101	13.15
614.518	13.09
614.936	13.05
615.353	12.99
615.771	12.95
616.188	12.92
616.606	12.89
617.023	12.84
617.44	12.81
617.857	12.77
618.274	12.72
618.691	12.69
619.108	12.66
619.525	12.61
619.942	12.59
620.359	12.56
620.776	12.52
621.192	12.5
621.609	12.48
622.026	12.46
622.442	12.44
622.859	12.42
623.275	12.4
623.691	12.39
624.108	12.39
624.524	12.37
624.94	12.35
625.356	12.35
625.772	12.33
626.188	12.33
626.604	12.32
627.02	12.31
627.436	12.31
627.852	12.32
628.268	12.3
628.683	12.29
629.099	12.28
629.514	12.27
629.93	12.26
630.345	12.24
630.761	12.21
631.176	12.19
631.591	12.16
632.007	12.12
632.422	12.07
632.837	12.02
633.252	11.98
633.667	11.93
634.082	11.87
634.497	11.8
634.911	11.74
635.326	11.67
635.741	11.59
636.155	11.52
636.57	11.43
636.984	11.35
637.399	11.26
637.813	11.17
638.228	11.05
638.642	10.94
639.056	10.83
639.47	10.73
639.884	10.63
640.298	10.51
640.712	10.39
641.126	10.28
641.54	10.15
641.954	10.04
642.368	9.93
642.781	9.84
643.195	9.73
643.609	9.62
644.022	9.5
644.436	9.39
644.849	9.29
645.262	9.2
645.676	9.11
646.089	9.02
646.502	8.94
646.915	8.87
647.328	8.79
647.741	8.72
648.154	8.67
648.567	8.62
648.98	8.58
649.393	8.54
649.805	8.49
650.218	8.45
650.631	8.42
651.043	8.38
651.456	8.34
651.868	8.3
652.28	8.27
652.693	8.24
653.105	8.2
653.517	8.16
653.929	8.12
654.341	8.07
654.753	8.02
655.165	7.97
655.577	7.91
655.989	7.85
656.401	7.79
656.813	7.73
657.224	7.66
657.636	7.57
658.047	7.49
658.459	7.4
658.87	7.32
659.282	7.22
659.693	7.13
660.104	7.02
660.515	6.93
660.926	6.84
661.338	6.74
661.749	6.64
662.159	6.56
662.57	6.47
662.981	6.38
663.392	6.29
663.803	6.21
664.213	6.13
664.624	6.05
665.035	5.97
665.445	5.89
665.855	5.83
666.266	5.77
666.676	5.7
667.086	5.64
667.497	5.59
667.907	5.54
668.317	5.5
668.727	5.46
669.137	5.42
669.547	5.4
669.956	5.38
670.366	5.35
670.776	5.33
671.186	5.31
671.595	5.3
672.005	5.28
672.414	5.27
672.824	5.27
673.233	5.27
673.642	5.27
674.052	5.28
674.461	5.28
674.87	5.29
675.279	5.31
675.688	5.33
676.097	5.35
676.506	5.38
676.915	5.41
677.323	5.46
677.732	5.5
678.141	5.55
678.549	5.59
678.958	5.66
679.366	5.74
679.775	5.82
680.183	5.92
680.592	6.03
681	6.15
681.408	6.27
681.816	6.41
682.224	6.57
682.632	6.74
683.04	6.93
683.448	7.14
683.856	7.33
684.264	7.55
684.671	7.79
685.079	8.04
685.487	8.31
685.894	8.61
686.302	8.92
686.709	9.23
687.116	9.57
687.524	9.92
687.931	10.28
688.338	10.65
688.745	11.05
689.152	11.42
689.559	11.82
689.966	12.22
690.373	12.6
690.78	13.01
691.187	13.41
691.593	13.81
692	14.19
692.407	14.57
692.813	14.95
693.22	15.31
693.626	15.69
694.032	16.04
694.439	16.38
694.845	16.74
695.251	17.07
695.657	17.39
696.063	17.7
696.469	18.03
696.875	18.34
697.281	18.64
697.687	18.95
698.093	19.23
698.498	19.51
698.904	19.78
699.31	20.02
699.715	20.28
700.12	20.53
700.526	20.77
700.931	21
701.337	21.21
701.742	21.42
702.147	21.61
702.552	21.81
702.957	22.01
703.362	22.21
703.767	22.4
704.172	22.56
704.577	22.72
704.981	22.89
705.386	23.05
705.791	23.22
706.195	23.38
706.6	23.55
707.004	23.69
707.408	23.85
707.813	24
708.217	24.12
708.621	24.28
709.025	24.39
709.43	24.5
709.834	24.62
710.237	24.72
710.641	24.82
711.045	24.93
711.449	25.05
711.853	25.15
712.256	25.24
712.66	25.37
713.064	25.45
713.467	25.56
713.87	25.67
714.274	25.75
714.677	25.85
715.08	25.94
715.484	26.02
715.887	26.09
716.29	26.16
716.693	26.24
717.096	26.31
717.499	26.4
717.901	26.48
718.304	26.56
718.707	26.65
719.109	26.73
719.512	26.8
719.915	26.88
720.317	26.93
720.719	26.98
721.122	27.02
721.524	27.07
721.926	27.12
722.328	27.17
722.731	27.19
723.133	27.25
723.535	27.28
723.937	27.34
724.338	27.37
724.74	27.41
725.142	27.5
725.544	27.54
725.945	27.61
726.347	27.65
726.748	27.69
727.15	27.72
727.551	27.75
727.952	27.78
728.354	27.81
728.755	27.82
729.156	27.83
729.557	27.81
729.958	27.83
730.359	27.82
730.76	27.84
731.161	27.86
731.562	27.9
731.962	27.9
732.363	27.92
732.763	27.93
733.164	27.95
733.564	28.01
733.965	28.03
734.365	28.06
734.766	28.09
735.166	28.1
735.566	28.12
735.966	28.13
736.366	28.15
736.766	28.15
737.166	28.17
737.566	28.19
737.966	28.2
738.365	28.2
738.765	28.22
739.165	28.22
739.564	28.23
739.964	28.24
740.363	28.23
740.763	28.23
741.162	28.23
741.561	28.23
741.96	28.24
742.36	28.24
742.759	28.25
743.158	28.24
743.557	28.24
743.955	28.24
744.354	28.26
744.753	28.27
745.152	28.29
745.55	28.31
745.949	28.32
746.348	28.31
746.746	28.31
747.144	28.33
747.543	28.32
747.941	28.33
748.339	28.33
748.737	28.32
749.136	28.33
749.534	28.32
749.932	28.32
750.33	28.31
750.727	28.33
751.125	28.33
751.523	28.31
751.921	28.33
752.318	28.34
752.716	28.33
753.113	28.32
753.511	28.32
753.908	28.33
754.305	28.33
754.703	28.34
755.1	28.33
755.497	28.33
755.894	28.3
756.291	28.28
756.688	28.25
757.085	28.24
757.482	28.21
757.878	28.21
758.275	28.2
758.672	28.19
759.068	28.18
759.465	28.17
759.861	28.17
760.258	28.19
760.654	28.19
761.05	28.22
761.447	28.25
761.843	28.26
762.239	28.25
762.635	28.26
763.031	28.26
763.427	28.26
763.822	28.27
764.218	28.28
764.614	28.27
765.01	28.26
765.405	28.24
765.801	28.23
766.196	28.23
766.592	28.23
766.987	28.22
767.382	28.22
767.778	28.22
768.173	28.22
768.568	28.22
768.963	28.24
769.358	28.25
769.753	28.26
770.148	28.26
770.542	28.28
770.937	28.3
771.332	28.3
771.726	28.3
772.121	28.29
772.515	28.29
772.91	28.27
773.304	28.27
773.699	28.29
774.093	28.29
774.487	28.28
774.881	28.28
775.275	28.27
775.669	28.26
776.063	28.26
776.457	28.27
776.851	28.26
777.245	28.24
777.638	28.22
778.032	28.22
778.425	28.24
778.819	28.22
779.212	28.21
779.606	28.19
779.999	28.19
780.392	28.2
780.786	28.18
781.179	28.19
781.572	28.21
781.965	28.23
782.358	28.22
