Data from N_1_DEC_VA_2n_Splice17_12-30-24-244.txt Node
Date: Sat Mar 07 12:30:24 EST 2020
User: sa697716
Spectrometer: NQ5500242
Trigger mode: 0
Integration Time (sec): 1.450000E-1
Scans to average: 20
Nonlinearity correction enabled: false
Boxcar width: 5
Storing dark spectrum: false
XAxis mode: Wavelengths
Number of Pixels in Spectrum: 512
>>>>>Begin Spectral Data<<<<<
187.83	3.18
188.298	11.15
188.766	1.84
189.233	12.53
189.701	-1.33
190.169	8.89
190.636	-12.91
191.104	-116.16
191.571	-309.56
192.039	-89.45
192.506	-185.59
192.974	-31.15
193.441	46.47
193.908	7.92
194.375	37.84
194.842	-44.55
195.31	7.32
195.777	-195.98
196.244	-0.44
196.711	18.39
197.177	23.43
197.644	23.46
198.111	23.39
198.578	23.29
199.045	23.72
199.511	23.62
199.978	23.8
200.445	23.84
200.911	24.09
201.378	24.03
201.844	23.98
202.31	23.95
202.777	24.32
203.243	24.64
203.709	24.57
204.176	24.37
204.642	24.65
205.108	24.63
205.574	24.81
206.04	24.64
206.506	24.82
206.972	24.83
207.438	24.3
207.903	23.97
208.369	23.44
208.835	23.34
209.301	22.93
209.766	22.1
210.232	21.79
210.697	21.12
211.163	20.83
211.628	20.33
212.094	19.95
212.559	19.69
213.024	19.39
213.49	19.16
213.955	18.76
214.42	18.51
214.885	18.3
215.35	17.91
215.815	17.34
216.28	16.63
216.745	15.9
217.21	15.05
217.675	14.29
218.14	13.63
218.604	12.98
219.069	12.48
219.534	12.04
219.998	11.64
220.463	11.33
220.927	11.02
221.392	10.79
221.856	10.56
222.32	10.39
222.785	10.26
223.249	10.1
223.713	9.97
224.177	9.84
224.642	9.72
225.106	9.6
225.57	9.47
226.034	9.38
226.497	9.27
226.961	9.18
227.425	9.08
227.889	8.98
228.353	8.88
228.816	8.78
229.28	8.68
229.744	8.59
230.207	8.51
230.671	8.42
231.134	8.32
231.597	8.25
232.061	8.17
232.524	8.08
232.987	8.01
233.45	7.96
233.914	7.88
234.377	7.81
234.84	7.75
235.303	7.68
235.766	7.62
236.229	7.57
236.691	7.51
237.154	7.44
237.617	7.39
238.08	7.33
238.542	7.26
239.005	7.21
239.468	7.15
239.93	7.1
240.393	7.05
240.855	6.98
241.317	6.92
241.78	6.86
242.242	6.81
242.704	6.76
243.166	6.7
243.629	6.67
244.091	6.62
244.553	6.58
245.015	6.53
245.477	6.49
245.939	6.45
246.4	6.41
246.862	6.38
247.324	6.35
247.786	6.31
248.247	6.27
248.709	6.21
249.17	6.17
249.632	6.14
250.093	6.11
250.555	6.07
251.016	6.04
251.477	6
251.939	5.96
252.4	5.93
252.861	5.9
253.322	5.88
253.783	5.86
254.244	5.83
254.705	5.79
255.166	5.75
255.627	5.73
256.088	5.71
256.549	5.7
257.009	5.68
257.47	5.65
257.931	5.62
258.391	5.59
258.852	5.56
259.312	5.54
259.773	5.52
260.233	5.51
260.694	5.49
261.154	5.46
261.614	5.43
262.074	5.4
262.534	5.39
262.994	5.37
263.455	5.36
263.915	5.34
264.374	5.33
264.834	5.31
265.294	5.29
265.754	5.29
266.214	5.27
266.673	5.26
267.133	5.26
267.593	5.24
268.052	5.23
268.512	5.22
268.971	5.22
269.431	5.2
269.89	5.18
270.349	5.17
270.809	5.15
271.268	5.14
271.727	5.12
272.186	5.11
272.645	5.1
273.104	5.08
273.563	5.06
274.022	5.04
274.481	5.03
274.94	5.02
275.399	5
275.857	4.99
276.316	4.97
276.775	4.96
277.233	4.94
277.692	4.93
278.15	4.91
278.609	4.9
279.067	4.88
279.525	4.86
279.984	4.84
280.442	4.83
280.9	4.81
281.358	4.8
281.816	4.79
282.274	4.78
282.732	4.76
283.19	4.74
283.648	4.72
284.106	4.71
284.564	4.7
285.021	4.69
285.479	4.68
285.937	4.66
286.394	4.65
286.852	4.63
287.309	4.61
287.767	4.6
288.224	4.59
288.682	4.59
289.139	4.57
289.596	4.56
290.053	4.55
290.511	4.53
290.968	4.52
291.425	4.5
291.882	4.5
292.339	4.49
292.796	4.48
293.252	4.47
293.709	4.45
294.166	4.44
294.623	4.43
295.079	4.42
295.536	4.41
295.992	4.39
296.449	4.39
296.905	4.37
297.362	4.37
297.818	4.35
298.274	4.35
298.731	4.33
299.187	4.32
299.643	4.31
300.099	4.3
300.555	4.29
301.011	4.29
301.467	4.28
301.923	4.26
302.379	4.25
302.835	4.25
303.291	4.24
303.746	4.23
304.202	4.23
304.658	4.22
305.113	4.21
305.569	4.2
306.024	4.18
306.479	4.17
306.935	4.16
307.39	4.15
307.845	4.14
308.301	4.13
308.756	4.13
309.211	4.12
309.666	4.12
310.121	4.12
310.576	4.12
311.031	4.12
311.486	4.12
311.94	4.12
312.395	4.12
312.85	4.12
313.305	4.12
313.759	4.11
314.214	4.1
314.668	4.09
315.123	4.1
315.577	4.09
316.032	4.09
316.486	4.08
316.94	4.08
317.394	4.07
317.849	4.06
318.303	4.05
318.757	4.04
319.211	4.03
319.665	4.03
320.119	4.01
320.572	4
321.026	3.99
321.48	3.98
321.934	3.96
322.387	3.95
322.841	3.95
323.295	3.95
323.748	3.94
324.202	3.94
324.655	3.93
325.108	3.94
325.562	3.94
326.015	3.94
326.468	3.95
326.921	3.95
327.374	3.95
327.827	3.94
328.28	3.93
328.733	3.93
329.186	3.93
329.639	3.92
330.092	3.91
330.545	3.89
330.997	3.88
331.45	3.87
331.903	3.86
332.355	3.87
332.808	3.87
333.26	3.87
333.713	3.87
334.165	3.86
334.617	3.86
335.069	3.85
335.522	3.86
335.974	3.86
336.426	3.86
336.878	3.86
337.33	3.85
337.782	3.85
338.234	3.85
338.686	3.86
339.137	3.86
339.589	3.85
340.041	3.86
340.493	3.86
340.944	3.84
341.396	3.84
341.847	3.83
342.299	3.82
342.75	3.81
343.201	3.8
343.653	3.78
344.104	3.77
344.555	3.76
345.006	3.76
345.457	3.75
345.908	3.75
346.359	3.74
346.81	3.74
347.261	3.74
347.712	3.74
348.163	3.73
348.613	3.74
349.064	3.73
349.515	3.73
349.965	3.72
350.416	3.72
350.866	3.72
351.317	3.72
351.767	3.72
352.217	3.72
352.668	3.71
353.118	3.71
353.568	3.71
354.018	3.71
354.468	3.71
354.918	3.71
355.368	3.71
355.818	3.71
356.268	3.71
356.718	3.71
357.168	3.71
357.617	3.7
358.067	3.7
358.517	3.71
358.966	3.72
359.416	3.72
359.865	3.72
360.315	3.72
360.764	3.72
361.213	3.72
361.663	3.72
362.112	3.73
362.561	3.73
363.01	3.74
363.459	3.72
363.908	3.71
364.357	3.72
364.806	3.71
365.255	3.72
365.703	3.73
366.152	3.73
366.601	3.74
367.05	3.75
367.498	3.74
367.947	3.75
368.395	3.76
368.844	3.78
369.292	3.78
369.74	3.8
370.189	3.81
370.637	3.82
371.085	3.83
371.533	3.83
371.981	3.84
372.429	3.85
372.877	3.85
373.325	3.86
373.773	3.87
374.221	3.87
374.669	3.87
375.116	3.87
375.564	3.88
376.012	3.88
376.459	3.89
376.907	3.91
377.354	3.92
377.801	3.94
378.249	3.95
378.696	3.95
379.143	3.96
379.591	3.97
380.038	3.98
380.485	4
380.932	4.01
381.379	4.03
381.826	4.05
382.273	4.07
382.72	4.07
383.166	4.09
383.613	4.1
384.06	4.12
384.506	4.14
384.953	4.15
385.4	4.16
385.846	4.19
386.292	4.2
386.739	4.2
387.185	4.2
387.631	4.23
388.078	4.23
388.524	4.25
388.97	4.27
389.416	4.28
389.862	4.3
390.308	4.32
390.754	4.34
391.2	4.36
391.645	4.38
392.091	4.41
392.537	4.42
392.983	4.45
393.428	4.47
393.874	4.48
394.319	4.5
394.765	4.51
395.21	4.52
395.655	4.54
396.101	4.56
396.546	4.58
396.991	4.59
397.436	4.63
397.881	4.65
398.326	4.68
398.771	4.7
399.216	4.74
399.661	4.77
400.106	4.78
400.551	4.79
400.995	4.79
401.44	4.81
401.885	4.83
402.329	4.83
402.774	4.84
403.218	4.85
403.663	4.87
404.107	4.87
404.551	4.88
404.995	4.88
405.44	4.89
405.884	4.9
406.328	4.91
406.772	4.9
407.216	4.92
407.66	4.92
408.104	4.92
408.547	4.93
408.991	4.94
409.435	4.94
409.879	4.95
410.322	4.95
410.766	4.96
411.209	4.97
411.653	4.99
412.096	4.99
412.54	5
412.983	4.98
413.426	5
413.869	5
414.312	5.01
414.756	5.03
415.199	5.03
415.642	5.03
416.085	5.05
416.527	5.03
416.97	5.04
417.413	5.04
417.856	5.06
418.298	5.07
418.741	5.07
419.184	5.07
419.626	5.07
420.069	5.1
420.511	5.1
420.953	5.11
421.396	5.13
421.838	5.13
422.28	5.13
422.722	5.14
423.164	5.13
423.606	5.13
424.048	5.14
424.49	5.13
424.932	5.12
425.374	5.11
425.816	5.08
426.258	5.06
426.699	5.04
427.141	5.04
427.582	5.03
428.024	5.04
428.465	5.03
428.907	5
429.348	4.99
429.789	4.97
430.231	4.97
430.672	4.98
431.113	4.99
431.554	4.99
431.995	4.99
432.436	4.99
432.877	4.99
433.318	5.01
433.759	5.03
434.2	5.03
434.64	5.05
435.081	5.06
435.522	5.06
435.962	5.06
436.403	5.08
436.843	5.07
437.284	5.07
437.724	5.07
438.164	5.05
438.604	5.05
439.045	5.07
439.485	5.07
439.925	5.07
440.365	5.08
440.805	5.09
441.245	5.1
441.685	5.12
442.125	5.14
442.564	5.15
443.004	5.16
443.444	5.16
443.883	5.16
444.323	5.16
444.762	5.16
445.202	5.16
445.641	5.18
446.081	5.19
446.52	5.18
446.959	5.19
447.398	5.2
447.837	5.21
448.276	5.22
448.716	5.22
449.154	5.25
449.593	5.28
450.032	5.28
450.471	5.27
450.91	5.28
451.349	5.29
451.787	5.28
452.226	5.27
452.664	5.28
453.103	5.27
453.541	5.27
453.98	5.27
454.418	5.26
454.856	5.26
455.295	5.26
455.733	5.25
456.171	5.25
456.609	5.24
457.047	5.24
457.485	5.23
457.923	5.23
458.361	5.23
458.798	5.23
459.236	5.23
459.674	5.23
460.111	5.22
460.549	5.23
460.987	5.22
461.424	5.23
461.862	5.23
462.299	5.23
462.736	5.24
463.173	5.24
463.611	5.24
464.048	5.25
464.485	5.26
464.922	5.27
465.359	5.26
465.796	5.26
466.233	5.27
466.67	5.28
467.106	5.3
467.543	5.31
467.98	5.3
468.416	5.3
468.853	5.31
469.29	5.3
469.726	5.3
470.162	5.3
470.599	5.3
471.035	5.28
471.471	5.28
471.907	5.26
472.344	5.26
472.78	5.27
473.216	5.26
473.652	5.27
474.088	5.26
474.523	5.27
474.959	5.26
475.395	5.24
475.831	5.23
476.266	5.24
476.702	5.23
477.138	5.23
477.573	5.23
478.008	5.23
478.444	5.21
478.879	5.22
479.314	5.21
479.75	5.22
480.185	5.22
480.62	5.22
481.055	5.22
481.49	5.22
481.925	5.22
482.36	5.21
482.795	5.22
483.229	5.22
483.664	5.24
484.099	5.25
484.534	5.25
484.968	5.25
485.403	5.27
485.837	5.28
486.271	5.3
486.706	5.32
487.14	5.33
487.574	5.35
488.009	5.37
488.443	5.37
488.877	5.4
489.311	5.42
489.745	5.46
490.179	5.49
490.613	5.51
491.046	5.54
491.48	5.58
491.914	5.62
492.348	5.66
492.781	5.71
493.215	5.77
493.648	5.81
494.082	5.85
494.515	5.89
494.948	5.93
495.382	5.99
495.815	6.04
496.248	6.11
496.681	6.17
497.114	6.23
497.547	6.29
497.98	6.35
498.413	6.42
498.846	6.5
499.279	6.6
499.711	6.68
500.144	6.78
500.577	6.87
501.009	6.96
501.442	7.06
501.874	7.17
502.306	7.27
502.739	7.39
503.171	7.52
503.603	7.64
504.036	7.76
504.468	7.89
504.9	8.01
505.332	8.15
505.764	8.29
506.196	8.43
506.627	8.59
507.059	8.75
507.491	8.9
507.923	9.07
508.354	9.25
508.786	9.43
509.217	9.61
509.649	9.79
510.08	9.97
510.512	10.16
510.943	10.35
511.374	10.53
511.805	10.72
512.237	10.91
512.668	11.11
513.099	11.31
513.53	11.5
513.961	11.71
514.391	11.92
514.822	12.14
515.253	12.34
515.684	12.55
516.114	12.76
516.545	12.97
516.975	13.2
517.406	13.41
517.836	13.62
518.267	13.83
518.697	14.02
519.127	14.22
519.558	14.43
519.988	14.64
520.418	14.84
520.848	15.03
521.278	15.23
521.708	15.54
522.138	15.72
522.567	15.89
522.997	16.07
523.427	16.26
523.857	16.44
524.286	16.6
524.716	16.75
525.145	16.91
525.575	17.06
526.004	17.21
526.433	17.22
526.863	17.34
527.292	17.47
527.721	17.59
528.15	17.71
528.579	17.81
529.008	17.92
529.437	18.02
529.866	18.12
530.295	18.21
530.724	18.29
531.152	18.38
531.581	18.48
532.01	18.56
532.438	18.64
532.867	18.72
533.295	18.79
533.723	18.84
534.152	18.89
534.58	18.95
535.008	18.99
535.436	19.04
535.865	19.09
536.293	19.13
536.721	19.17
537.149	19.21
537.576	19.24
538.004	19.29
538.432	19.33
538.86	19.37
539.287	19.38
539.715	19.42
540.143	19.45
540.57	19.47
540.998	19.49
541.425	19.51
541.852	19.53
542.28	19.55
542.707	19.56
543.134	19.58
543.561	19.59
543.988	19.63
544.415	19.64
544.842	19.65
545.269	19.66
545.696	19.68
546.123	19.7
546.549	19.72
546.976	19.73
547.403	19.74
547.829	19.73
548.256	19.74
548.682	19.75
549.108	19.77
549.535	19.79
549.961	19.79
550.387	19.78
550.813	19.77
551.24	19.75
551.666	19.75
552.092	19.74
552.518	19.76
552.943	19.75
553.369	19.72
553.795	19.69
554.221	19.65
554.646	19.63
555.072	19.61
555.498	19.59
555.923	19.57
556.349	19.51
556.774	19.47
557.199	19.41
557.625	19.38
558.05	19.34
558.475	19.29
558.9	19.25
559.325	19.2
559.75	19.14
560.175	19.06
560.6	18.99
561.025	18.93
561.449	18.85
561.874	18.78
562.299	18.68
562.723	18.6
563.148	18.52
563.572	18.42
563.997	18.32
564.421	18.23
564.846	18.14
565.27	18.04
565.694	17.94
566.118	17.84
566.542	17.74
566.966	17.65
567.39	17.54
567.814	17.44
568.238	17.33
568.662	17.23
569.086	17.14
569.509	17.04
569.933	16.94
570.357	16.84
570.78	16.74
571.204	16.63
571.627	16.53
572.05	16.44
572.474	16.35
572.897	16.27
573.32	16.18
573.743	16.08
574.166	15.99
574.589	15.91
575.012	15.82
575.435	15.75
575.858	15.67
576.281	15.58
576.704	15.5
577.126	15.44
577.549	15.36
577.972	15.28
578.394	15.21
578.817	15.14
579.239	15.07
579.661	15.02
580.084	14.94
580.506	14.89
580.928	14.83
581.35	14.77
581.772	14.69
582.194	14.64
582.616	14.58
583.038	14.52
583.46	14.46
583.882	14.42
584.303	14.35
584.725	14.3
585.147	14.25
585.568	14.21
585.99	14.15
586.411	14.11
586.833	14.06
587.254	14
587.675	13.96
588.096	13.91
588.518	13.87
588.939	13.83
589.36	13.79
589.781	13.75
590.202	13.71
590.623	13.68
591.043	13.65
591.464	13.61
591.885	13.58
592.305	13.55
592.726	13.52
593.147	13.49
593.567	13.46
593.987	13.44
594.408	13.4
594.828	13.37
595.248	13.35
595.669	13.32
596.089	13.3
596.509	13.27
596.929	13.25
597.349	13.22
597.769	13.2
598.189	13.16
598.608	13.14
599.028	13.12
599.448	13.09
599.867	13.05
600.287	13.04
600.706	13.01
601.126	12.98
601.545	12.96
601.965	12.94
602.384	12.91
602.803	12.88
603.222	12.84
603.641	12.8
604.061	12.76
604.48	12.73
604.898	12.67
605.317	12.63
605.736	12.59
606.155	12.54
606.574	12.5
606.992	12.45
607.411	12.41
607.829	12.34
608.248	12.28
608.666	12.23
609.085	12.18
609.503	12.13
609.921	12.08
610.339	12.02
610.758	11.96
611.176	11.9
611.594	11.84
612.012	11.77
612.43	11.74
612.847	11.69
613.265	11.63
613.683	11.57
614.101	11.53
614.518	11.47
614.936	11.42
615.353	11.36
615.771	11.31
616.188	11.25
616.606	11.22
617.023	11.16
617.44	11.13
617.857	11.1
618.274	11.07
618.691	11.03
619.108	11
619.525	10.96
619.942	10.94
620.359	10.92
620.776	10.9
621.192	10.87
621.609	10.86
622.026	10.83
622.442	10.82
622.859	10.8
623.275	10.78
623.691	10.77
624.108	10.77
624.524	10.76
624.94	10.74
625.356	10.74
625.772	10.73
626.188	10.72
626.604	10.71
627.02	10.7
627.436	10.7
627.852	10.69
628.268	10.67
628.683	10.66
629.099	10.66
629.514	10.64
629.93	10.63
630.345	10.61
630.761	10.58
631.176	10.55
631.591	10.52
632.007	10.48
632.422	10.43
632.837	10.39
633.252	10.34
633.667	10.28
634.082	10.22
634.497	10.16
634.911	10.09
635.326	10.02
635.741	9.96
636.155	9.87
636.57	9.8
636.984	9.72
637.399	9.64
637.813	9.55
638.228	9.45
638.642	9.35
639.056	9.25
639.47	9.16
639.884	9.06
640.298	8.96
640.712	8.87
641.126	8.77
641.54	8.67
641.954	8.56
642.368	8.47
642.781	8.38
643.195	8.29
643.609	8.2
644.022	8.12
644.436	8.03
644.849	7.94
645.262	7.86
645.676	7.79
646.089	7.72
646.502	7.66
646.915	7.6
647.328	7.55
647.741	7.49
648.154	7.44
648.567	7.39
648.98	7.35
649.393	7.33
649.805	7.3
650.218	7.27
650.631	7.24
651.043	7.22
651.456	7.2
651.868	7.17
652.28	7.15
652.693	7.13
653.105	7.1
653.517	7.07
653.929	7.05
654.341	7.01
654.753	6.97
655.165	6.94
655.577	6.9
655.989	6.84
656.401	6.8
656.813	6.75
657.224	6.7
657.636	6.64
658.047	6.59
658.459	6.52
658.87	6.47
659.282	6.41
659.693	6.35
660.104	6.3
660.515	6.25
660.926	6.18
661.338	6.12
661.749	6.08
662.159	6.03
662.57	5.98
662.981	5.93
663.392	5.89
663.803	5.84
664.213	5.8
664.624	5.75
665.035	5.71
665.445	5.67
665.855	5.64
666.266	5.61
666.676	5.58
667.086	5.55
667.497	5.53
667.907	5.51
668.317	5.5
668.727	5.48
669.137	5.47
669.547	5.48
669.956	5.48
670.366	5.47
670.776	5.46
671.186	5.46
671.595	5.46
672.005	5.46
672.414	5.46
672.824	5.46
673.233	5.48
673.642	5.49
674.052	5.5
674.461	5.51
674.87	5.52
675.279	5.55
675.688	5.58
676.097	5.61
676.506	5.62
676.915	5.65
677.323	5.68
677.732	5.7
678.141	5.74
678.549	5.77
678.958	5.81
679.366	5.87
679.775	5.91
680.183	5.96
680.592	6.03
681	6.11
681.408	6.19
681.816	6.27
682.224	6.36
682.632	6.46
683.04	6.57
683.448	6.69
683.856	6.82
684.264	6.97
684.671	7.13
685.079	7.29
685.487	7.48
685.894	7.69
686.302	7.9
686.709	8.14
687.116	8.39
687.524	8.67
687.931	8.97
688.338	9.3
688.745	9.61
689.152	9.95
689.559	10.32
689.966	10.68
690.373	11.06
690.78	11.46
691.187	11.87
691.593	12.29
692	12.73
692.407	13.13
692.813	13.55
693.22	13.98
693.626	14.4
694.032	14.82
694.439	15.25
694.845	15.68
695.251	16.1
695.657	16.49
696.063	16.9
696.469	17.31
696.875	17.71
697.281	18.11
697.687	18.5
698.093	18.9
698.498	19.27
698.904	19.65
699.31	20.01
699.715	20.38
700.12	20.74
700.526	21.09
700.931	21.42
701.337	21.76
701.742	22.08
702.147	22.41
702.552	22.72
702.957	23.03
703.362	23.32
703.767	23.59
704.172	23.87
704.577	24.15
704.981	24.43
705.386	24.7
705.791	24.96
706.195	25.24
706.6	25.5
707.004	25.75
707.408	26
707.813	26.25
708.217	26.49
708.621	26.73
709.025	26.98
709.43	27.19
709.834	27.43
710.237	27.64
710.641	27.83
711.045	28.01
711.449	28.21
711.853	28.42
712.256	28.61
712.66	28.81
713.064	28.99
713.467	29.17
713.87	29.35
714.274	29.51
714.677	29.7
715.08	29.89
715.484	30.07
715.887	30.23
716.29	30.39
716.693	30.57
717.096	30.72
717.499	30.89
717.901	31.02
718.304	31.17
718.707	31.32
719.109	31.44
719.512	31.56
719.915	31.7
720.317	31.81
720.719	31.91
721.122	31.99
721.524	32.12
721.926	32.24
722.328	32.37
722.731	32.47
723.133	32.58
723.535	32.7
723.937	32.8
724.338	32.85
724.74	32.95
725.142	33.08
725.544	33.16
725.945	33.25
726.347	33.29
726.748	33.36
727.15	33.43
727.551	33.49
727.952	33.54
728.354	33.62
728.755	33.7
729.156	33.77
729.557	33.78
729.958	33.86
730.359	33.9
730.76	33.96
731.161	34
731.562	34.07
731.962	34.09
732.363	34.18
732.763	34.21
733.164	34.25
733.564	34.32
733.965	34.37
734.365	34.41
734.766	34.46
735.166	34.51
735.566	34.55
735.966	34.6
736.366	34.64
736.766	34.63
737.166	34.65
737.566	34.7
737.966	34.72
738.365	34.75
738.765	34.79
739.165	34.8
739.564	34.82
739.964	34.84
740.363	34.84
740.763	34.87
741.162	34.88
741.561	34.88
741.96	34.88
742.36	34.9
742.759	34.91
743.158	34.92
743.557	34.92
743.955	34.93
744.354	34.93
744.753	34.95
745.152	34.96
745.55	34.99
745.949	35.02
746.348	35.05
746.746	35.03
747.144	35.04
747.543	35.03
747.941	35.06
748.339	35.06
748.737	35.06
749.136	35.05
749.534	35.03
749.932	35.03
750.33	35.02
750.727	35.02
751.125	35.04
751.523	35.03
751.921	35.04
752.318	35.04
752.716	35.05
753.113	35.07
753.511	35.09
753.908	35.12
754.305	35.11
754.703	35.11
755.1	35.1
755.497	35.1
755.894	35.08
756.291	35.07
756.688	35.05
757.085	35.06
757.482	35.05
757.878	35.04
758.275	35.01
758.672	35.01
759.068	35.03
759.465	35.02
759.861	35.02
760.258	35.04
760.654	35.05
761.05	35.03
761.447	35.03
761.843	35
762.239	34.99
762.635	34.99
763.031	35
763.427	35
763.822	35.01
764.218	35.01
764.614	35.01
765.01	34.98
765.405	34.99
765.801	34.97
766.196	34.99
766.592	35
766.987	35.01
767.382	35.02
767.778	35.01
768.173	35
768.568	35
768.963	34.99
769.358	34.99
769.753	35
770.148	35.01
770.542	35.01
770.937	35.02
771.332	35.02
771.726	35.01
772.121	34.98
772.515	34.99
772.91	34.98
773.304	34.95
773.699	34.93
774.093	34.89
774.487	34.89
774.881	34.88
775.275	34.88
775.669	34.84
776.063	34.79
776.457	34.82
776.851	34.8
777.245	34.77
777.638	34.78
778.032	34.78
778.425	34.79
778.819	34.78
779.212	34.78
779.606	34.76
779.999	34.77
780.392	34.79
780.786	34.76
781.179	34.75
781.572	34.8
781.965	34.79
782.358	34.8
782.751	34.81
783.143	34.8
783.536	34.81
