Data from N_1_DEC_NC_4n_Splice17_12-17-14-683.txt Node
Date: Sat Mar 07 12:17:14 EST 2020
User: sa697716
Spectrometer: NQ5500242
Trigger mode: 0
Integration Time (sec): 1.450000E-1
Scans to average: 20
Nonlinearity correction enabled: false
Boxcar width: 5
Storing dark spectrum: false
XAxis mode: Wavelengths
Number of Pixels in Spectrum: 512
>>>>>Begin Spectral Data<<<<<
187.83	68.83
188.298	82.52
188.766	83.06
189.233	88.65
189.701	81.88
190.169	94.36
190.636	83.95
191.104	1.64
191.571	-214.19
192.039	-164.5
192.506	-266.52
192.974	209.15
193.441	333.39
193.908	180.63
194.375	166.77
194.842	72.08
195.31	71.56
195.777	40.39
196.244	12.77
196.711	22.14
197.177	24.61
197.644	25.61
198.111	24.5
198.578	25.33
199.045	26.05
199.511	26.11
199.978	26.74
200.445	26.88
200.911	26.72
201.378	26.93
201.844	26.92
202.31	26.87
202.777	26.7
203.243	27.13
203.709	26.68
204.176	26.3
204.642	26.34
205.108	26.3
205.574	26.17
206.04	26.1
206.506	25.89
206.972	25.79
207.438	25.47
207.903	25.36
208.369	24.75
208.835	24.38
209.301	23.95
209.766	23.04
210.232	22.13
210.697	21.44
211.163	20.66
211.628	20.06
212.094	19.54
212.559	19.21
213.024	18.53
213.49	18.11
213.955	17.64
214.42	17.24
214.885	16.75
215.35	16.27
215.815	15.43
216.28	14.48
216.745	13.19
217.21	11.98
217.675	10.76
218.14	9.77
218.604	8.88
219.069	8.2
219.534	7.58
219.998	7.1
220.463	6.69
220.927	6.31
221.392	6.02
221.856	5.79
222.32	5.58
222.785	5.43
223.249	5.29
223.713	5.18
224.177	5.07
224.642	4.96
225.106	4.86
225.57	4.74
226.034	4.67
226.497	4.57
226.961	4.47
227.425	4.4
227.889	4.35
228.353	4.28
228.816	4.2
229.28	4.13
229.744	4.07
230.207	4
230.671	3.94
231.134	3.87
231.597	3.83
232.061	3.79
232.524	3.73
232.987	3.66
233.45	3.64
233.914	3.59
234.377	3.55
234.84	3.51
235.303	3.48
235.766	3.45
236.229	3.43
236.691	3.39
237.154	3.37
237.617	3.34
238.08	3.31
238.542	3.27
239.005	3.25
239.468	3.22
239.93	3.2
240.393	3.18
240.855	3.15
241.317	3.12
241.78	3.09
242.242	3.06
242.704	3.05
243.166	3.02
243.629	2.99
244.091	2.96
244.553	2.93
245.015	2.9
245.477	2.87
245.939	2.86
246.4	2.84
246.862	2.82
247.324	2.8
247.786	2.77
248.247	2.75
248.709	2.73
249.17	2.71
249.632	2.7
250.093	2.68
250.555	2.66
251.016	2.65
251.477	2.63
251.939	2.62
252.4	2.6
252.861	2.59
253.322	2.58
253.783	2.56
254.244	2.56
254.705	2.54
255.166	2.52
255.627	2.51
256.088	2.5
256.549	2.49
257.009	2.48
257.47	2.47
257.931	2.45
258.391	2.43
258.852	2.41
259.312	2.4
259.773	2.39
260.233	2.39
260.694	2.38
261.154	2.36
261.614	2.35
262.074	2.34
262.534	2.33
262.994	2.32
263.455	2.31
263.915	2.31
264.374	2.3
264.834	2.29
265.294	2.28
265.754	2.27
266.214	2.27
266.673	2.26
267.133	2.25
267.593	2.25
268.052	2.24
268.512	2.24
268.971	2.23
269.431	2.22
269.89	2.21
270.349	2.22
270.809	2.2
271.268	2.2
271.727	2.19
272.186	2.19
272.645	2.2
273.104	2.19
273.563	2.18
274.022	2.18
274.481	2.18
274.94	2.18
275.399	2.18
275.857	2.17
276.316	2.16
276.775	2.16
277.233	2.15
277.692	2.14
278.15	2.14
278.609	2.13
279.067	2.13
279.525	2.13
279.984	2.12
280.442	2.11
280.9	2.11
281.358	2.11
281.816	2.11
282.274	2.1
282.732	2.09
283.19	2.09
283.648	2.08
284.106	2.07
284.564	2.06
285.021	2.06
285.479	2.06
285.937	2.06
286.394	2.05
286.852	2.04
287.309	2.05
287.767	2.04
288.224	2.03
288.682	2.03
289.139	2.03
289.596	2.02
290.053	2.01
290.511	1.99
290.968	1.99
291.425	1.98
291.882	1.98
292.339	1.97
292.796	1.97
293.252	1.97
293.709	1.96
294.166	1.96
294.623	1.96
295.079	1.96
295.536	1.96
295.992	1.95
296.449	1.95
296.905	1.95
297.362	1.94
297.818	1.93
298.274	1.93
298.731	1.93
299.187	1.92
299.643	1.91
300.099	1.91
300.555	1.9
301.011	1.9
301.467	1.89
301.923	1.89
302.379	1.9
302.835	1.9
303.291	1.89
303.746	1.89
304.202	1.89
304.658	1.89
305.113	1.89
305.569	1.89
306.024	1.89
306.479	1.88
306.935	1.87
307.39	1.87
307.845	1.87
308.301	1.88
308.756	1.88
309.211	1.87
309.666	1.87
310.121	1.87
310.576	1.87
311.031	1.87
311.486	1.87
311.94	1.88
312.395	1.87
312.85	1.86
313.305	1.87
313.759	1.87
314.214	1.87
314.668	1.86
315.123	1.86
315.577	1.85
316.032	1.86
316.486	1.86
316.94	1.86
317.394	1.86
317.849	1.86
318.303	1.85
318.757	1.84
319.211	1.84
319.665	1.83
320.119	1.82
320.572	1.82
321.026	1.81
321.48	1.81
321.934	1.8
322.387	1.8
322.841	1.79
323.295	1.8
323.748	1.8
324.202	1.8
324.655	1.8
325.108	1.81
325.562	1.81
326.015	1.81
326.468	1.81
326.921	1.8
327.374	1.8
327.827	1.81
328.28	1.81
328.733	1.81
329.186	1.81
329.639	1.81
330.092	1.8
330.545	1.8
330.997	1.8
331.45	1.8
331.903	1.8
332.355	1.8
332.808	1.8
333.26	1.8
333.713	1.79
334.165	1.77
334.617	1.78
335.069	1.77
335.522	1.77
335.974	1.77
336.426	1.76
336.878	1.76
337.33	1.75
337.782	1.75
338.234	1.76
338.686	1.76
339.137	1.78
339.589	1.77
340.041	1.78
340.493	1.77
340.944	1.76
341.396	1.76
341.847	1.76
342.299	1.75
342.75	1.74
343.201	1.73
343.653	1.73
344.104	1.72
344.555	1.71
345.006	1.7
345.457	1.71
345.908	1.72
346.359	1.72
346.81	1.72
347.261	1.72
347.712	1.72
348.163	1.71
348.613	1.71
349.064	1.71
349.515	1.71
349.965	1.72
350.416	1.71
350.866	1.7
351.317	1.68
351.767	1.69
352.217	1.68
352.668	1.68
353.118	1.69
353.568	1.68
354.018	1.68
354.468	1.68
354.918	1.68
355.368	1.69
355.818	1.69
356.268	1.68
356.718	1.69
357.168	1.68
357.617	1.68
358.067	1.68
358.517	1.7
358.966	1.7
359.416	1.7
359.865	1.69
360.315	1.7
360.764	1.7
361.213	1.7
361.663	1.7
362.112	1.71
362.561	1.72
363.01	1.72
363.459	1.7
363.908	1.7
364.357	1.7
364.806	1.7
365.255	1.7
365.703	1.71
366.152	1.71
366.601	1.71
367.05	1.72
367.498	1.71
367.947	1.72
368.395	1.73
368.844	1.74
369.292	1.74
369.74	1.75
370.189	1.75
370.637	1.75
371.085	1.76
371.533	1.76
371.981	1.76
372.429	1.76
372.877	1.76
373.325	1.76
373.773	1.77
374.221	1.77
374.669	1.77
375.116	1.76
375.564	1.77
376.012	1.77
376.459	1.78
376.907	1.78
377.354	1.79
377.801	1.8
378.249	1.81
378.696	1.81
379.143	1.82
379.591	1.83
380.038	1.85
380.485	1.87
380.932	1.88
381.379	1.9
381.826	1.91
382.273	1.92
382.72	1.93
383.166	1.95
383.613	1.97
384.06	1.99
384.506	2.02
384.953	2.05
385.4	2.08
385.846	2.12
386.292	2.16
386.739	2.21
387.185	2.26
387.631	2.32
388.078	2.37
388.524	2.42
388.97	2.46
389.416	2.51
389.862	2.57
390.308	2.65
390.754	2.73
391.2	2.81
391.645	2.87
392.091	2.93
392.537	3
392.983	3.08
393.428	3.2
393.874	3.34
394.319	3.5
394.765	3.66
395.21	3.82
395.655	3.98
396.101	4.16
396.546	4.35
396.991	4.58
397.436	4.83
397.881	5.08
398.326	5.31
398.771	5.52
399.216	5.71
399.661	5.9
400.106	6.05
400.551	6.19
400.995	6.31
401.44	6.43
401.885	6.54
402.329	6.65
402.774	6.77
403.218	6.92
403.663	7.08
404.107	7.24
404.551	7.4
404.995	7.56
405.44	7.71
405.884	7.88
406.328	8.07
406.772	8.28
407.216	8.5
407.66	8.69
408.104	8.86
408.547	9.02
408.991	9.18
409.435	9.34
409.879	9.53
410.322	9.77
410.766	10
411.209	10.2
411.653	10.4
412.096	10.57
412.54	10.73
412.983	10.89
413.426	11.08
413.869	11.26
414.312	11.44
414.756	11.6
415.199	11.7
415.642	11.81
416.085	11.9
416.527	11.96
416.97	12
417.413	12.01
417.856	12.02
418.298	11.99
418.741	12
419.184	12.02
419.626	12.06
420.069	12.14
420.511	12.21
420.953	12.29
421.396	12.41
421.838	12.54
422.28	12.7
422.722	12.85
423.164	13.01
423.606	13.13
424.048	13.24
424.49	13.27
424.932	13.19
425.374	13.01
425.816	12.76
426.258	12.5
426.699	12.32
427.141	12.3
427.582	12.41
428.024	12.57
428.465	12.74
428.907	12.87
429.348	13
429.789	13.24
430.231	13.62
430.672	14.12
431.113	14.69
431.554	15.2
431.995	15.61
432.436	15.88
432.877	16.1
433.318	16.27
433.759	16.49
434.2	16.77
434.64	17.06
435.081	17.33
435.522	17.56
435.962	17.73
436.403	17.89
436.843	17.99
437.284	18.11
437.724	18.28
438.164	18.47
438.604	18.7
439.045	18.93
439.485	19.14
439.925	19.31
440.365	19.47
440.805	19.59
441.245	19.7
441.685	19.8
442.125	19.9
442.564	20
443.004	20.14
443.444	20.32
443.883	20.49
444.323	20.68
444.762	20.86
445.202	21.04
445.641	21.3
446.081	21.6
446.52	21.9
446.959	22.18
447.398	22.39
447.837	22.51
448.276	22.51
448.716	22.52
449.154	22.53
449.593	22.53
450.032	22.52
450.471	22.42
450.91	22.3
451.349	22.19
451.787	22.1
452.226	22.04
452.664	22
453.103	22.02
453.541	22.01
453.98	21.95
454.418	21.86
454.856	21.77
455.295	21.7
455.733	21.62
456.171	21.57
456.609	21.53
457.047	21.48
457.485	21.46
457.923	21.46
458.361	21.5
458.798	21.54
459.236	21.62
459.674	21.67
460.111	21.73
460.549	21.82
460.987	21.89
461.424	21.96
461.862	22.05
462.299	22.14
462.736	22.19
463.173	22.29
463.611	22.43
464.048	22.59
464.485	22.81
464.922	23.03
465.359	23.22
465.796	23.4
466.233	23.58
466.67	23.77
467.106	24.01
467.543	24.29
467.98	24.55
468.416	24.77
468.853	24.97
469.29	25.16
469.726	25.35
470.162	25.58
470.599	25.82
471.035	26.01
471.471	26.17
471.907	26.27
472.344	26.33
472.78	26.41
473.216	26.5
473.652	26.58
474.088	26.64
474.523	26.7
474.959	26.71
475.395	26.7
475.831	26.72
476.266	26.75
476.702	26.78
477.138	26.78
477.573	26.77
478.008	26.72
478.444	26.64
478.879	26.54
479.314	26.39
479.75	26.23
480.185	26.04
480.62	25.79
481.055	25.42
481.49	24.94
481.925	24.44
482.36	23.97
482.795	23.56
483.229	23.25
483.664	23.01
484.099	22.81
484.534	22.65
484.968	22.53
485.403	22.51
485.837	22.6
486.271	22.81
486.706	23.01
487.14	23.17
487.574	23.25
488.009	23.3
488.443	23.33
488.877	23.37
489.311	23.41
489.745	23.47
490.179	23.54
490.613	23.6
491.046	23.65
491.48	23.73
491.914	23.87
492.348	24.06
492.781	24.24
493.215	24.4
493.648	24.52
494.082	24.62
494.515	24.71
494.948	24.79
495.382	24.9
495.815	24.97
496.248	25.05
496.681	25.09
497.114	25.12
497.547	25.17
497.98	25.25
498.413	25.41
498.846	25.59
499.279	25.78
499.711	25.95
500.144	26.14
500.577	26.4
501.009	26.71
501.442	27.1
501.874	27.51
502.306	27.91
502.739	28.29
503.171	28.62
503.603	28.93
504.036	29.29
504.468	29.67
504.9	30.05
505.332	30.43
505.764	30.77
506.196	31.09
506.627	31.45
507.059	31.86
507.491	32.28
507.923	32.73
508.354	33.19
508.786	33.61
509.217	34
509.649	34.39
510.08	34.79
510.512	35.21
510.943	35.66
511.374	36.07
511.805	36.38
512.237	36.58
512.668	36.75
513.099	36.92
513.53	37.17
513.961	37.47
514.391	37.8
514.822	38.22
515.253	38.68
515.684	39.16
516.114	39.67
516.545	40.3
516.975	41.09
517.406	41.92
517.836	42.73
518.267	43.48
518.697	44.17
519.127	44.88
519.558	45.55
519.988	46.21
520.418	46.8
520.848	47.36
521.278	47.84
521.708	48.3
522.138	48.59
522.567	48.82
522.997	49.08
523.427	49.41
523.857	49.74
524.286	50.06
524.716	50.35
525.145	50.63
525.575	50.9
526.004	51.21
526.433	51.5
526.863	51.97
527.292	52.45
527.721	52.83
528.15	53.08
528.579	53.22
529.008	53.34
529.437	53.41
529.866	53.49
530.295	53.58
530.724	53.7
531.152	53.8
531.581	53.88
532.01	53.95
532.438	54.02
532.867	54.15
533.295	54.28
533.723	54.42
534.152	54.54
534.58	54.62
535.008	54.63
535.436	54.58
535.865	54.48
536.293	54.36
536.721	54.31
537.149	54.34
537.576	54.4
538.004	54.49
538.432	54.51
538.86	54.57
539.287	54.64
539.715	54.8
540.143	54.99
540.57	55.22
540.998	55.47
541.425	55.68
541.852	55.9
542.28	56.09
542.707	56.27
543.134	56.45
543.561	56.59
543.988	56.77
544.415	56.91
544.842	57.06
545.269	57.23
545.696	57.38
546.123	57.56
546.549	57.67
546.976	57.79
547.403	57.93
547.829	58.08
548.256	58.24
548.682	58.35
549.108	58.5
549.535	58.62
549.961	58.7
550.387	58.81
550.813	58.9
551.24	58.99
551.666	59.02
552.092	59.02
552.518	59
552.943	58.95
553.369	58.92
553.795	58.82
554.221	58.67
554.646	58.48
555.072	58.24
555.498	58.01
555.923	57.81
556.349	57.63
556.774	57.46
557.199	57.28
557.625	57.13
558.05	56.95
558.475	56.77
558.9	56.62
559.325	56.5
559.75	56.36
560.175	56.19
560.6	55.96
561.025	55.7
561.449	55.39
561.874	55.06
562.299	54.72
562.723	54.4
563.148	54.07
563.572	53.7
563.997	53.31
564.421	52.91
564.846	52.52
565.27	52.14
565.694	51.76
566.118	51.38
566.542	50.98
566.966	50.58
567.39	50.22
567.814	49.88
568.238	49.61
568.662	49.38
569.086	49.18
569.509	48.97
569.933	48.79
570.357	48.61
570.78	48.44
571.204	48.3
571.627	48.18
572.05	48.03
572.474	47.88
572.897	47.72
573.32	47.5
573.743	47.28
574.166	47.08
574.589	46.88
575.012	46.72
575.435	46.61
575.858	46.5
576.281	46.41
576.704	46.31
577.126	46.21
577.549	46.12
577.972	46.08
578.394	46.04
578.817	46.01
579.239	46
579.661	45.97
580.084	45.9
580.506	45.84
580.928	45.72
581.35	45.59
581.772	45.41
582.194	45.23
582.616	45.07
583.038	44.92
583.46	44.75
583.882	44.48
584.303	44.14
584.725	43.72
585.147	43.29
585.568	42.93
585.99	42.63
586.411	42.4
586.833	42.19
587.254	41.98
587.675	41.75
588.096	41.54
588.518	41.41
588.939	41.34
589.36	41.38
589.781	41.43
590.202	41.42
590.623	41.36
591.043	41.26
591.464	41.11
591.885	40.97
592.305	40.83
592.726	40.68
593.147	40.53
593.567	40.37
593.987	40.18
594.408	39.99
594.828	39.82
595.248	39.67
595.669	39.52
596.089	39.34
596.509	39.15
596.929	38.94
597.349	38.71
597.769	38.48
598.189	38.26
598.608	38.1
599.028	37.96
599.448	37.83
599.867	37.69
600.287	37.57
600.706	37.45
601.126	37.31
601.545	37.19
601.965	37.11
602.384	37
602.803	36.91
603.222	36.78
603.641	36.62
604.061	36.43
604.48	36.23
604.898	36.02
605.317	35.81
605.736	35.58
606.155	35.36
606.574	35.14
606.992	34.93
607.411	34.71
607.829	34.46
608.248	34.24
608.666	34
609.085	33.78
609.503	33.55
609.921	33.33
610.339	33.15
610.758	32.98
611.176	32.76
611.594	32.53
612.012	32.26
612.43	32.04
612.847	31.82
613.265	31.63
613.683	31.48
614.101	31.34
614.518	31.18
614.936	31.02
615.353	30.84
615.771	30.72
616.188	30.64
616.606	30.58
617.023	30.51
617.44	30.43
617.857	30.3
618.274	30.16
618.691	30
619.108	29.83
619.525	29.68
619.942	29.52
620.359	29.34
620.776	29.14
621.192	28.94
621.609	28.77
622.026	28.6
622.442	28.49
622.859	28.37
623.275	28.24
623.691	28.12
624.108	27.99
624.524	27.87
624.94	27.77
625.356	27.67
625.772	27.59
626.188	27.52
626.604	27.43
627.02	27.3
627.436	27.2
627.852	27.13
628.268	27.07
628.683	27.04
629.099	27
629.514	26.94
629.93	26.9
630.345	26.85
630.761	26.78
631.176	26.73
631.591	26.66
632.007	26.58
632.422	26.51
632.837	26.43
633.252	26.33
633.667	26.22
634.082	26.11
634.497	26
634.911	25.87
635.326	25.72
635.741	25.55
636.155	25.39
636.57	25.21
636.984	25.02
637.399	24.8
637.813	24.59
638.228	24.36
638.642	24.12
639.056	23.88
639.47	23.66
639.884	23.44
640.298	23.22
640.712	23.01
641.126	22.79
641.54	22.57
641.954	22.34
642.368	22.12
642.781	21.93
643.195	21.74
643.609	21.53
644.022	21.32
644.436	21.12
644.849	20.91
645.262	20.7
645.676	20.52
646.089	20.35
646.502	20.21
646.915	20.11
647.328	19.97
647.741	19.85
648.154	19.75
648.567	19.66
648.98	19.57
649.393	19.51
649.805	19.47
650.218	19.4
650.631	19.32
651.043	19.19
651.456	18.97
651.868	18.73
652.28	18.47
652.693	18.23
653.105	18.02
653.517	17.85
653.929	17.72
654.341	17.59
654.753	17.46
655.165	17.38
655.577	17.33
655.989	17.34
656.401	17.4
656.813	17.48
657.224	17.52
657.636	17.52
658.047	17.5
658.459	17.44
658.87	17.34
659.282	17.25
659.693	17.12
660.104	17
660.515	16.87
660.926	16.74
661.338	16.59
661.749	16.46
662.159	16.33
662.57	16.2
662.981	16.07
663.392	15.93
663.803	15.8
664.213	15.7
664.624	15.59
665.035	15.47
665.445	15.37
665.855	15.27
666.266	15.17
666.676	15.08
667.086	14.95
667.497	14.85
667.907	14.76
668.317	14.68
668.727	14.59
669.137	14.5
669.547	14.44
669.956	14.37
670.366	14.31
670.776	14.23
671.186	14.17
671.595	14.11
672.005	14.08
672.414	14.05
672.824	14.01
673.233	13.98
673.642	13.96
674.052	13.94
674.461	13.91
674.87	13.9
675.279	13.91
675.688	13.91
676.097	13.92
676.506	13.92
676.915	13.93
677.323	13.95
677.732	13.97
678.141	14
678.549	14.02
678.958	14.05
679.366	14.1
679.775	14.14
680.183	14.2
680.592	14.28
681	14.38
681.408	14.48
681.816	14.56
682.224	14.62
682.632	14.63
683.04	14.6
683.448	14.61
683.856	14.62
684.264	14.69
684.671	14.78
685.079	14.87
685.487	15.01
685.894	15.19
686.302	15.43
686.709	15.75
687.116	16.18
687.524	16.7
687.931	17.24
688.338	17.82
688.745	18.39
689.152	18.98
689.559	19.59
689.966	20.2
690.373	20.81
690.78	21.41
691.187	22.01
691.593	22.61
692	23.21
692.407	23.8
692.813	24.4
693.22	24.97
693.626	25.54
694.032	26.11
694.439	26.68
694.845	27.23
695.251	27.79
695.657	28.32
696.063	28.82
696.469	29.31
696.875	29.78
697.281	30.21
697.687	30.66
698.093	31.12
698.498	31.54
698.904	31.95
699.31	32.36
699.715	32.78
700.12	33.21
700.526	33.65
700.931	34.07
701.337	34.48
701.742	34.89
702.147	35.3
702.552	35.7
702.957	36.1
703.362	36.48
703.767	36.85
704.172	37.2
704.577	37.51
704.981	37.82
705.386	38.13
705.791	38.43
706.195	38.74
706.6	39.05
707.004	39.31
707.408	39.58
707.813	39.83
708.217	40.06
708.621	40.31
709.025	40.54
709.43	40.76
709.834	40.99
710.237	41.2
710.641	41.36
711.045	41.53
711.449	41.71
711.853	41.86
712.256	41.97
712.66	42.02
713.064	42.01
713.467	41.95
713.87	41.83
714.274	41.65
714.677	41.46
715.08	41.26
715.484	41.05
715.887	40.87
716.29	40.71
716.693	40.67
717.096	40.72
717.499	40.87
717.901	41.1
718.304	41.4
718.707	41.7
719.109	42
719.512	42.26
719.915	42.53
720.317	42.72
720.719	42.89
721.122	43.02
721.524	43.11
721.926	43.13
722.328	43.14
722.731	43.13
723.133	43.14
723.535	43.17
723.937	43.23
724.338	43.29
724.74	43.37
725.142	43.47
725.544	43.51
725.945	43.59
726.347	43.62
726.748	43.65
727.15	43.71
727.551	43.8
727.952	43.89
728.354	44.03
728.755	44.17
729.156	44.33
729.557	44.49
729.958	44.66
730.359	44.85
730.76	45.05
731.161	45.2
731.562	45.34
731.962	45.43
732.363	45.52
732.763	45.6
733.164	45.67
733.564	45.71
733.965	45.71
734.365	45.7
734.766	45.63
735.166	45.57
735.566	45.56
735.966	45.53
736.366	45.47
736.766	45.42
737.166	45.35
737.566	45.25
737.966	45.17
738.365	45.14
738.765	45.14
739.165	45.16
739.564	45.17
739.964	45.14
740.363	45.11
740.763	45.14
741.162	45.13
741.561	45.14
741.96	45.18
742.36	45.17
742.759	45.17
743.158	45.13
743.557	45.07
743.955	45.04
744.354	45.02
744.753	45.01
745.152	44.96
745.55	44.93
745.949	44.88
746.348	44.83
746.746	44.77
747.144	44.69
747.543	44.62
747.941	44.58
748.339	44.48
748.737	44.39
749.136	44.31
749.534	44.25
749.932	44.21
750.33	44.16
750.727	44.1
751.125	44.04
751.523	43.96
751.921	43.92
752.318	43.87
752.716	43.82
753.113	43.77
753.511	43.73
753.908	43.66
754.305	43.52
754.703	43.27
755.1	42.77
755.497	41.9
755.894	40.67
756.291	39.15
756.688	37.54
757.085	36.02
757.482	34.62
757.878	33.32
758.275	32.03
758.672	30.77
759.068	29.61
759.465	28.71
759.861	28.3
760.258	28.35
760.654	28.75
761.05	29.34
761.447	29.98
761.843	30.56
762.239	31.12
762.635	31.79
763.031	32.6
763.427	33.5
763.822	34.47
764.218	35.38
764.614	36.24
765.01	37.02
765.405	37.75
765.801	38.36
766.196	38.96
766.592	39.45
766.987	39.83
767.382	40.11
767.778	40.3
768.173	40.42
768.568	40.51
768.963	40.6
769.358	40.69
769.753	40.71
770.148	40.72
770.542	40.68
770.937	40.64
771.332	40.61
771.726	40.54
772.121	40.5
772.515	40.44
772.91	40.39
773.304	40.32
773.699	40.23
774.093	40.15
774.487	40.07
774.881	40.02
775.275	39.94
775.669	39.86
