Data from N_1_HIR_WI_4n_Splice17_12-15-18-910.txt Node
Date: Sat Mar 07 12:15:18 EST 2020
User: sa697716
Spectrometer: NQ5500242
Trigger mode: 0
Integration Time (sec): 1.450000E-1
Scans to average: 20
Nonlinearity correction enabled: false
Boxcar width: 5
Storing dark spectrum: false
XAxis mode: Wavelengths
Number of Pixels in Spectrum: 512
>>>>>Begin Spectral Data<<<<<
187.83	171.03
188.298	186.61
188.766	158.04
189.233	125.02
189.701	123.76
190.169	141.42
190.636	152.96
191.104	155.18
191.571	80.74
192.039	99.22
192.506	-492.56
192.974	115.35
193.441	186.1
193.908	55.82
194.375	16.79
194.842	-32.21
195.31	-67.78
195.777	-359.82
196.244	-0.93
196.711	29.51
197.177	35.83
197.644	36.42
198.111	37.07
198.578	38.03
199.045	38.71
199.511	39.21
199.978	39.46
200.445	39.78
200.911	39.84
201.378	39.97
201.844	40.55
202.31	39.9
202.777	40.32
203.243	40.56
203.709	40.23
204.176	39.75
204.642	39.55
205.108	39.51
205.574	39.7
206.04	39.56
206.506	39.45
206.972	39.38
207.438	39.24
207.903	38.65
208.369	38.1
208.835	37.76
209.301	37.4
209.766	36.43
210.232	35.64
210.697	34.6
211.163	34.06
211.628	33.58
212.094	32.61
212.559	32.45
213.024	31.89
213.49	31.31
213.955	30.76
214.42	30.2
214.885	29.75
215.35	28.98
215.815	27.96
216.28	26.64
216.745	25.16
217.21	23.77
217.675	22.39
218.14	21.24
218.604	20.21
219.069	19.32
219.534	18.58
219.998	17.95
220.463	17.47
220.927	16.98
221.392	16.62
221.856	16.28
222.32	15.98
222.785	15.72
223.249	15.48
223.713	15.27
224.177	15.09
224.642	14.9
225.106	14.69
225.57	14.49
226.034	14.33
226.497	14.16
226.961	14
227.425	13.84
227.889	13.69
228.353	13.56
228.816	13.41
229.28	13.25
229.744	13.1
230.207	12.96
230.671	12.81
231.134	12.68
231.597	12.56
232.061	12.43
232.524	12.3
232.987	12.15
233.45	12.02
233.914	11.9
234.377	11.78
234.84	11.68
235.303	11.58
235.766	11.49
236.229	11.39
236.691	11.28
237.154	11.18
237.617	11.1
238.08	11.03
238.542	10.92
239.005	10.83
239.468	10.74
239.93	10.65
240.393	10.56
240.855	10.46
241.317	10.37
241.78	10.28
242.242	10.19
242.704	10.12
243.166	10.03
243.629	9.97
244.091	9.88
244.553	9.82
245.015	9.75
245.477	9.66
245.939	9.59
246.4	9.52
246.862	9.46
247.324	9.39
247.786	9.32
248.247	9.25
248.709	9.17
249.17	9.11
249.632	9.05
250.093	9.01
250.555	8.96
251.016	8.91
251.477	8.86
251.939	8.81
252.4	8.77
252.861	8.72
253.322	8.69
253.783	8.65
254.244	8.62
254.705	8.57
255.166	8.52
255.627	8.48
256.088	8.45
256.549	8.42
257.009	8.38
257.47	8.35
257.931	8.31
258.391	8.27
258.852	8.23
259.312	8.19
259.773	8.16
260.233	8.13
260.694	8.1
261.154	8.07
261.614	8.03
262.074	8.01
262.534	7.97
262.994	7.95
263.455	7.93
263.915	7.92
264.374	7.9
264.834	7.89
265.294	7.87
265.754	7.86
266.214	7.85
266.673	7.85
267.133	7.84
267.593	7.83
268.052	7.83
268.512	7.82
268.971	7.81
269.431	7.8
269.89	7.78
270.349	7.78
270.809	7.76
271.268	7.75
271.727	7.73
272.186	7.72
272.645	7.71
273.104	7.7
273.563	7.69
274.022	7.67
274.481	7.66
274.94	7.65
275.399	7.63
275.857	7.62
276.316	7.61
276.775	7.59
277.233	7.58
277.692	7.56
278.15	7.55
278.609	7.54
279.067	7.53
279.525	7.51
279.984	7.5
280.442	7.49
280.9	7.48
281.358	7.47
281.816	7.46
282.274	7.45
282.732	7.44
283.19	7.42
283.648	7.4
284.106	7.39
284.564	7.38
285.021	7.38
285.479	7.36
285.937	7.34
286.394	7.34
286.852	7.32
287.309	7.31
287.767	7.3
288.224	7.29
288.682	7.28
289.139	7.26
289.596	7.25
290.053	7.23
290.511	7.21
290.968	7.2
291.425	7.18
291.882	7.17
292.339	7.16
292.796	7.16
293.252	7.15
293.709	7.14
294.166	7.14
294.623	7.13
295.079	7.13
295.536	7.12
295.992	7.12
296.449	7.12
296.905	7.11
297.362	7.11
297.818	7.1
298.274	7.1
298.731	7.09
299.187	7.09
299.643	7.08
300.099	7.08
300.555	7.07
301.011	7.06
301.467	7.06
301.923	7.05
302.379	7.05
302.835	7.05
303.291	7.03
303.746	7.02
304.202	7.01
304.658	7.01
305.113	7
305.569	7
306.024	6.98
306.479	6.98
306.935	6.97
307.39	6.97
307.845	6.97
308.301	6.97
308.756	6.98
309.211	6.97
309.666	6.98
310.121	6.97
310.576	6.97
311.031	6.98
311.486	6.98
311.94	6.98
312.395	6.97
312.85	6.96
313.305	6.95
313.759	6.96
314.214	6.95
314.668	6.94
315.123	6.94
315.577	6.93
316.032	6.93
316.486	6.92
316.94	6.91
317.394	6.9
317.849	6.9
318.303	6.88
318.757	6.86
319.211	6.86
319.665	6.84
320.119	6.82
320.572	6.81
321.026	6.8
321.48	6.79
321.934	6.77
322.387	6.75
322.841	6.74
323.295	6.73
323.748	6.74
324.202	6.73
324.655	6.73
325.108	6.73
325.562	6.73
326.015	6.72
326.468	6.72
326.921	6.73
327.374	6.73
327.827	6.72
328.28	6.72
328.733	6.71
329.186	6.7
329.639	6.7
330.092	6.69
330.545	6.69
330.997	6.68
331.45	6.68
331.903	6.67
332.355	6.67
332.808	6.66
333.26	6.66
333.713	6.66
334.165	6.65
334.617	6.65
335.069	6.64
335.522	6.64
335.974	6.64
336.426	6.63
336.878	6.63
337.33	6.62
337.782	6.62
338.234	6.62
338.686	6.61
339.137	6.62
339.589	6.62
340.041	6.61
340.493	6.6
340.944	6.58
341.396	6.57
341.847	6.56
342.299	6.54
342.75	6.53
343.201	6.51
343.653	6.5
344.104	6.46
344.555	6.45
345.006	6.43
345.457	6.42
345.908	6.41
346.359	6.39
346.81	6.37
347.261	6.36
347.712	6.35
348.163	6.34
348.613	6.34
349.064	6.34
349.515	6.34
349.965	6.34
350.416	6.34
350.866	6.33
351.317	6.33
351.767	6.33
352.217	6.32
352.668	6.32
353.118	6.32
353.568	6.3
354.018	6.31
354.468	6.3
354.918	6.3
355.368	6.3
355.818	6.3
356.268	6.28
356.718	6.29
357.168	6.28
357.617	6.26
358.067	6.25
358.517	6.26
358.966	6.26
359.416	6.25
359.865	6.23
360.315	6.23
360.764	6.22
361.213	6.22
361.663	6.21
362.112	6.21
362.561	6.22
363.01	6.22
363.459	6.2
363.908	6.19
364.357	6.19
364.806	6.19
365.255	6.2
365.703	6.21
366.152	6.2
366.601	6.21
367.05	6.2
367.498	6.19
367.947	6.19
368.395	6.19
368.844	6.19
369.292	6.19
369.74	6.18
370.189	6.17
370.637	6.15
371.085	6.15
371.533	6.14
371.981	6.15
372.429	6.14
372.877	6.15
373.325	6.14
373.773	6.14
374.221	6.15
374.669	6.14
375.116	6.15
375.564	6.16
376.012	6.17
376.459	6.18
376.907	6.19
377.354	6.2
377.801	6.21
378.249	6.23
378.696	6.24
379.143	6.24
379.591	6.26
380.038	6.28
380.485	6.28
380.932	6.29
381.379	6.31
381.826	6.31
382.273	6.32
382.72	6.33
383.166	6.33
383.613	6.34
384.06	6.35
384.506	6.37
384.953	6.39
385.4	6.4
385.846	6.43
386.292	6.43
386.739	6.46
387.185	6.47
387.631	6.49
388.078	6.52
388.524	6.53
388.97	6.54
389.416	6.55
389.862	6.57
390.308	6.6
390.754	6.63
391.2	6.67
391.645	6.69
392.091	6.73
392.537	6.76
392.983	6.8
393.428	6.84
393.874	6.88
394.319	6.94
394.765	6.99
395.21	7.04
395.655	7.09
396.101	7.15
396.546	7.2
396.991	7.26
397.436	7.33
397.881	7.41
398.326	7.48
398.771	7.56
399.216	7.62
399.661	7.69
400.106	7.76
400.551	7.8
400.995	7.84
401.44	7.9
401.885	7.94
402.329	7.99
402.774	8.05
403.218	8.12
403.663	8.19
404.107	8.25
404.551	8.31
404.995	8.36
405.44	8.43
405.884	8.5
406.328	8.58
406.772	8.65
407.216	8.74
407.66	8.81
408.104	8.87
408.547	8.92
408.991	8.98
409.435	9.04
409.879	9.13
410.322	9.22
410.766	9.3
411.209	9.39
411.653	9.47
412.096	9.54
412.54	9.6
412.983	9.67
413.426	9.75
413.869	9.84
414.312	9.91
414.756	9.97
415.199	10
415.642	10.05
416.085	10.07
416.527	10.09
416.97	10.09
417.413	10.1
417.856	10.1
418.298	10.1
418.741	10.08
419.184	10.1
419.626	10.11
420.069	10.13
420.511	10.16
420.953	10.17
421.396	10.22
421.838	10.27
422.28	10.31
422.722	10.37
423.164	10.41
423.606	10.46
424.048	10.49
424.49	10.49
424.932	10.47
425.374	10.42
425.816	10.34
426.258	10.25
426.699	10.19
427.141	10.19
427.582	10.22
428.024	10.28
428.465	10.33
428.907	10.37
429.348	10.41
429.789	10.48
430.231	10.61
430.672	10.78
431.113	10.98
431.554	11.15
431.995	11.28
432.436	11.37
432.877	11.45
433.318	11.54
433.759	11.62
434.2	11.72
434.64	11.82
435.081	11.9
435.522	11.96
435.962	12.02
436.403	12.08
436.843	12.12
437.284	12.17
437.724	12.22
438.164	12.26
438.604	12.35
439.045	12.42
439.485	12.49
439.925	12.54
440.365	12.59
440.805	12.62
441.245	12.65
441.685	12.68
442.125	12.72
442.564	12.74
443.004	12.78
443.444	12.81
443.883	12.85
444.323	12.9
444.762	12.96
445.202	13.02
445.641	13.1
446.081	13.16
446.52	13.24
446.959	13.32
447.398	13.38
447.837	13.4
448.276	13.39
448.716	13.38
449.154	13.36
449.593	13.36
450.032	13.34
450.471	13.28
450.91	13.24
451.349	13.17
451.787	13.12
452.226	13.08
452.664	13.06
453.103	13.04
453.541	13.02
453.98	12.99
454.418	12.94
454.856	12.9
455.295	12.87
455.733	12.81
456.171	12.81
456.609	12.78
457.047	12.75
457.485	12.73
457.923	12.74
458.361	12.74
458.798	12.76
459.236	12.77
459.674	12.78
460.111	12.79
460.549	12.83
460.987	12.84
461.424	12.87
461.862	12.89
462.299	12.91
462.736	12.93
463.173	12.95
463.611	12.99
464.048	13.04
464.485	13.11
464.922	13.18
465.359	13.24
465.796	13.29
466.233	13.34
466.67	13.41
467.106	13.49
467.543	13.56
467.98	13.62
468.416	13.68
468.853	13.74
469.29	13.8
469.726	13.85
470.162	13.91
470.599	13.98
471.035	14.02
471.471	14.04
471.907	14.06
472.344	14.07
472.78	14.1
473.216	14.11
473.652	14.13
474.088	14.12
474.523	14.13
474.959	14.12
475.395	14.09
475.831	14.07
476.266	14.07
476.702	14.05
477.138	14.04
477.573	14.01
478.008	14
478.444	13.95
478.879	13.9
479.314	13.83
479.75	13.78
480.185	13.71
480.62	13.63
481.055	13.51
481.49	13.36
481.925	13.19
482.36	13.04
482.795	12.9
483.229	12.79
483.664	12.71
484.099	12.62
484.534	12.55
484.968	12.52
485.403	12.49
485.837	12.51
486.271	12.56
486.706	12.62
487.14	12.64
487.574	12.65
488.009	12.64
488.443	12.64
488.877	12.65
489.311	12.67
489.745	12.67
490.179	12.68
490.613	12.69
491.046	12.69
491.48	12.7
491.914	12.74
492.348	12.8
492.781	12.85
493.215	12.88
493.648	12.91
494.082	12.91
494.515	12.91
494.948	12.92
495.382	12.92
495.815	12.93
496.248	12.94
496.681	12.92
497.114	12.9
497.547	12.89
497.98	12.89
498.413	12.92
498.846	12.95
499.279	12.99
499.711	13.01
500.144	13.06
500.577	13.12
501.009	13.18
501.442	13.27
501.874	13.37
502.306	13.47
502.739	13.56
503.171	13.63
503.603	13.7
504.036	13.79
504.468	13.88
504.9	13.96
505.332	14.05
505.764	14.13
506.196	14.2
506.627	14.28
507.059	14.37
507.491	14.47
507.923	14.57
508.354	14.7
508.786	14.81
509.217	14.91
509.649	15.01
510.08	15.11
510.512	15.23
510.943	15.36
511.374	15.47
511.805	15.57
512.237	15.65
512.668	15.73
513.099	15.81
513.53	15.91
513.961	16.02
514.391	16.15
514.822	16.32
515.253	16.48
515.684	16.66
516.114	16.85
516.545	17.06
516.975	17.31
517.406	17.59
517.836	17.87
518.267	18.13
518.697	18.41
519.127	18.68
519.558	18.93
519.988	19.19
520.418	19.43
520.848	19.68
521.278	19.91
521.708	20.26
522.138	20.42
522.567	20.58
522.997	20.75
523.427	20.93
523.857	21.13
524.286	21.32
524.716	21.5
525.145	21.69
525.575	21.87
526.004	22.06
526.433	22.14
526.863	22.38
527.292	22.61
527.721	22.8
528.15	22.96
528.579	23.1
529.008	23.22
529.437	23.32
529.866	23.41
530.295	23.52
530.724	23.62
531.152	23.72
531.581	23.8
532.01	23.89
532.438	23.99
532.867	24.1
533.295	24.2
533.723	24.28
534.152	24.37
534.58	24.44
535.008	24.48
535.436	24.5
535.865	24.49
536.293	24.48
536.721	24.49
537.149	24.51
537.576	24.53
538.004	24.56
538.432	24.62
538.86	24.65
539.287	24.66
539.715	24.73
540.143	24.8
540.57	24.89
540.998	24.97
541.425	25.05
541.852	25.13
542.28	25.18
542.707	25.24
543.134	25.28
543.561	25.33
543.988	25.4
544.415	25.44
544.842	25.48
545.269	25.53
545.696	25.57
546.123	25.61
546.549	25.64
546.976	25.71
547.403	25.75
547.829	25.8
548.256	25.83
548.682	25.86
549.108	25.89
549.535	25.92
549.961	25.95
550.387	25.98
550.813	25.99
551.24	26
551.666	25.98
552.092	25.96
552.518	25.94
552.943	25.91
553.369	25.88
553.795	25.83
554.221	25.77
554.646	25.68
555.072	25.58
555.498	25.48
555.923	25.38
556.349	25.28
556.774	25.21
557.199	25.11
557.625	25.02
558.05	24.94
558.475	24.85
558.9	24.75
559.325	24.67
559.75	24.59
560.175	24.5
560.6	24.38
561.025	24.24
561.449	24.1
561.874	23.95
562.299	23.8
562.723	23.66
563.148	23.5
563.572	23.33
563.997	23.16
564.421	22.98
564.846	22.79
565.27	22.64
565.694	22.49
566.118	22.31
566.542	22.13
566.966	21.97
567.39	21.78
567.814	21.64
568.238	21.5
568.662	21.36
569.086	21.24
569.509	21.13
569.933	21.01
570.357	20.89
570.78	20.77
571.204	20.67
571.627	20.56
572.05	20.44
572.474	20.33
572.897	20.23
573.32	20.12
573.743	20
574.166	19.87
574.589	19.74
575.012	19.63
575.435	19.52
575.858	19.44
576.281	19.35
576.704	19.27
577.126	19.18
577.549	19.09
577.972	19.01
578.394	18.96
578.817	18.91
579.239	18.85
579.661	18.81
580.084	18.76
580.506	18.71
580.928	18.65
581.35	18.59
581.772	18.52
582.194	18.45
582.616	18.39
583.038	18.32
583.46	18.23
583.882	18.15
584.303	18.05
584.725	17.92
585.147	17.79
585.568	17.69
585.99	17.6
586.411	17.51
586.833	17.43
587.254	17.36
587.675	17.29
588.096	17.24
588.518	17.19
588.939	17.17
589.36	17.16
589.781	17.17
590.202	17.16
590.623	17.13
591.043	17.1
591.464	17.07
591.885	17.02
592.305	16.99
592.726	16.95
593.147	16.91
593.567	16.86
593.987	16.82
594.408	16.76
594.828	16.71
595.248	16.67
595.669	16.62
596.089	16.57
596.509	16.53
596.929	16.48
597.349	16.42
597.769	16.36
598.189	16.31
598.608	16.27
599.028	16.24
599.448	16.2
599.867	16.15
600.287	16.12
600.706	16.09
601.126	16.06
601.545	16.01
601.965	15.98
602.384	15.94
602.803	15.89
603.222	15.84
603.641	15.77
604.061	15.73
604.48	15.66
604.898	15.59
605.317	15.52
605.736	15.44
606.155	15.39
606.574	15.32
606.992	15.25
607.411	15.19
607.829	15.1
608.248	15.01
608.666	14.95
609.085	14.87
609.503	14.8
609.921	14.73
610.339	14.67
610.758	14.59
611.176	14.52
611.594	14.44
612.012	14.35
612.43	14.3
612.847	14.24
613.265	14.17
613.683	14.12
614.101	14.07
614.518	14
614.936	13.94
615.353	13.88
615.771	13.83
616.188	13.79
616.606	13.76
617.023	13.74
617.44	13.71
617.857	13.67
618.274	13.62
618.691	13.56
619.108	13.52
619.525	13.47
619.942	13.42
620.359	13.38
620.776	13.33
621.192	13.28
621.609	13.23
622.026	13.19
622.442	13.14
622.859	13.1
623.275	13.07
623.691	13.04
624.108	13
624.524	12.99
624.94	12.95
625.356	12.93
625.772	12.91
626.188	12.89
626.604	12.85
627.02	12.84
627.436	12.81
627.852	12.81
628.268	12.8
628.683	12.79
629.099	12.77
629.514	12.75
629.93	12.73
630.345	12.71
630.761	12.69
631.176	12.68
631.591	12.65
632.007	12.63
632.422	12.6
632.837	12.57
633.252	12.55
633.667	12.51
634.082	12.49
634.497	12.47
634.911	12.43
635.326	12.38
635.741	12.34
636.155	12.29
636.57	12.24
636.984	12.18
637.399	12.12
637.813	12.06
638.228	11.98
638.642	11.92
639.056	11.84
639.47	11.8
639.884	11.74
640.298	11.68
640.712	11.62
641.126	11.56
641.54	11.5
641.954	11.44
642.368	11.38
642.781	11.33
643.195	11.27
643.609	11.21
644.022	11.16
644.436	11.1
644.849	11.04
645.262	10.99
645.676	10.95
646.089	10.9
646.502	10.87
646.915	10.85
647.328	10.82
647.741	10.78
648.154	10.76
648.567	10.74
648.98	10.71
649.393	10.69
649.805	10.69
650.218	10.66
650.631	10.64
651.043	10.59
651.456	10.54
651.868	10.48
652.28	10.41
652.693	10.35
653.105	10.29
653.517	10.25
653.929	10.22
654.341	10.18
654.753	10.16
655.165	10.13
655.577	10.12
655.989	10.13
656.401	10.15
656.813	10.18
657.224	10.2
657.636	10.2
658.047	10.21
658.459	10.19
658.87	10.18
659.282	10.15
659.693	10.13
660.104	10.09
660.515	10.07
660.926	10.04
661.338	10.01
661.749	9.98
662.159	9.96
662.57	9.94
662.981	9.91
663.392	9.89
663.803	9.88
664.213	9.86
664.624	9.84
665.035	9.82
665.445	9.81
665.855	9.79
666.266	9.78
666.676	9.77
667.086	9.74
667.497	9.73
667.907	9.71
668.317	9.71
668.727	9.7
669.137	9.69
669.547	9.69
669.956	9.68
670.366	9.67
670.776	9.66
671.186	9.65
671.595	9.65
672.005	9.64
672.414	9.65
672.824	9.64
673.233	9.64
673.642	9.63
674.052	9.64
674.461	9.64
674.87	9.64
675.279	9.65
675.688	9.67
676.097	9.69
676.506	9.7
676.915	9.7
677.323	9.73
677.732	9.75
678.141	9.78
678.549	9.79
678.958	9.81
679.366	9.84
679.775	9.85
680.183	9.86
680.592	9.87
681	9.91
681.408	9.92
681.816	9.93
682.224	9.92
682.632	9.9
683.04	9.87
683.448	9.85
683.856	9.82
684.264	9.81
684.671	9.81
685.079	9.8
685.487	9.81
685.894	9.84
686.302	9.89
686.709	9.97
687.116	10.09
687.524	10.24
687.931	10.41
688.338	10.59
688.745	10.78
689.152	10.97
689.559	11.21
689.966	11.45
690.373	11.71
690.78	11.97
691.187	12.24
691.593	12.54
692	12.85
692.407	13.15
692.813	13.5
693.22	13.84
693.626	14.22
694.032	14.59
694.439	14.98
694.845	15.39
695.251	15.79
695.657	16.2
696.063	16.62
696.469	17.06
696.875	17.5
697.281	17.94
697.687	18.39
698.093	18.85
698.498	19.3
698.904	19.78
699.31	20.25
699.715	20.74
700.12	21.25
700.526	21.75
700.931	22.24
701.337	22.75
701.742	23.26
702.147	23.75
702.552	24.25
702.957	24.74
703.362	25.22
703.767	25.67
704.172	26.14
704.577	26.61
704.981	27.06
705.386	27.53
705.791	28
706.195	28.44
706.6	28.92
707.004	29.36
707.408	29.82
707.813	30.3
708.217	30.77
708.621	31.24
709.025	31.68
709.43	32.14
709.834	32.59
710.237	33.01
710.641	33.46
711.045	33.88
711.449	34.32
711.853	34.78
712.256	35.16
712.66	35.56
713.064	35.94
713.467	36.31
713.87	36.69
714.274	37.03
714.677	37.37
715.08	37.71
715.484	38.08
715.887	38.43
716.29	38.73
716.693	39.1
717.096	39.48
717.499	39.88
717.901	40.29
718.304	40.69
718.707	41.1
719.109	41.49
719.512	41.87
719.915	42.24
720.317	42.58
720.719	42.92
721.122	43.26
721.524	43.58
721.926	43.9
722.328	44.2
722.731	44.48
723.133	44.78
723.535	45.05
723.937	45.35
724.338	45.61
724.74	45.89
725.142	46.22
725.544	46.45
725.945	46.71
726.347	46.91
726.748	47.12
727.15	47.34
727.551	47.54
727.952	47.77
728.354	47.98
728.755	48.19
729.156	48.42
729.557	48.58
729.958	48.81
730.359	49.01
730.76	49.24
731.161	49.44
731.562	49.64
731.962	49.81
732.363	49.96
732.763	50.11
733.164	50.28
733.564	50.39
733.965	50.51
734.365	50.63
734.766	50.77
735.166	50.87
735.566	50.98
735.966	51.09
736.366	51.22
736.766	51.34
737.166	51.46
737.566	51.56
737.966	51.66
738.365	51.75
738.765	51.86
739.165	51.92
739.564	52.03
739.964	52.14
740.363	52.19
740.763	52.26
741.162	52.31
741.561	52.36
741.96	52.41
742.36	52.5
742.759	52.58
743.158	52.64
743.557	52.7
743.955	52.75
744.354	52.76
744.753	52.85
745.152	52.9
745.55	52.95
745.949	53.02
746.348	53.09
746.746	53.08
747.144	53.14
747.543	53.15
747.941	53.15
748.339	53.14
748.737	53.16
749.136	53.15
749.534	53.14
749.932	53.19
750.33	53.21
750.727	53.22
751.125	53.24
751.523	53.18
751.921	53.19
752.318	53.23
752.716	53.25
753.113	53.26
753.511	53.29
753.908	53.33
754.305	53.32
754.703	53.25
755.1	53.16
755.497	53.01
755.894	52.82
756.291	52.56
756.688	52.23
757.085	51.95
757.482	51.68
757.878	51.44
758.275	51.19
758.672	50.93
759.068	50.75
759.465	50.59
759.861	50.54
760.258	50.57
760.654	50.64
761.05	50.77
761.447	50.91
761.843	51.02
762.239	51.13
762.635	51.27
763.031	51.43
763.427	51.58
763.822	51.78
764.218	51.96
764.614	52.13
765.01	52.29
765.405	52.45
765.801	52.58
766.196	52.73
766.592	52.85
766.987	52.93
767.382	53
767.778	53.05
768.173	53.09
768.568	53.11
768.963	53.13
769.358	53.17
769.753	53.19
770.148	53.19
770.542	53.19
770.937	53.18
771.332	53.19
771.726	53.2
772.121	53.2
772.515	53.21
772.91	53.21
773.304	53.23
773.699	53.21
774.093	53.19
