Data from N_1_DEC_ON_6n_Splice17_12-27-02-407.txt Node
Date: Sat Mar 07 12:27:02 EST 2020
User: sa697716
Spectrometer: NQ5500242
Trigger mode: 0
Integration Time (sec): 1.450000E-1
Scans to average: 20
Nonlinearity correction enabled: false
Boxcar width: 5
Storing dark spectrum: false
XAxis mode: Wavelengths
Number of Pixels in Spectrum: 512
>>>>>Begin Spectral Data<<<<<
187.83	94.93
188.298	98.12
188.766	72.11
189.233	67.22
189.701	56.22
190.169	64.28
190.636	65.61
191.104	42.06
191.571	-63.22
192.039	-8.19
192.506	-174.55
192.974	93.19
193.441	72.15
193.908	-11.06
194.375	-18.48
194.842	-55.54
195.31	-115.24
195.777	-382.52
196.244	3.72
196.711	27.8
197.177	29.57
197.644	30.05
198.111	30.07
198.578	30.79
199.045	31.3
199.511	31.73
199.978	31.66
200.445	32.3
200.911	32.75
201.378	32.65
201.844	32.35
202.31	32.37
202.777	32.67
203.243	32.91
203.709	32.88
204.176	32.43
204.642	32.14
205.108	32.02
205.574	31.96
206.04	31.55
206.506	31.69
206.972	31.74
207.438	31.46
207.903	30.75
208.369	30.2
208.835	29.62
209.301	29.33
209.766	28.58
210.232	28.11
210.697	27.39
211.163	26.94
211.628	26.32
212.094	25.84
212.559	25.45
213.024	25.19
213.49	24.85
213.955	24.48
214.42	24.13
214.885	23.84
215.35	23.09
215.815	22.1
216.28	21.02
216.745	19.76
217.21	18.46
217.675	17.24
218.14	16.2
218.604	15.36
219.069	14.63
219.534	13.98
219.998	13.47
220.463	13.06
220.927	12.66
221.392	12.34
221.856	12.07
222.32	11.82
222.785	11.65
223.249	11.47
223.713	11.27
224.177	11.11
224.642	10.96
225.106	10.8
225.57	10.65
226.034	10.54
226.497	10.39
226.961	10.25
227.425	10.14
227.889	10
228.353	9.88
228.816	9.77
229.28	9.64
229.744	9.54
230.207	9.43
230.671	9.33
231.134	9.22
231.597	9.14
232.061	9.05
232.524	8.96
232.987	8.87
233.45	8.8
233.914	8.71
234.377	8.63
234.84	8.53
235.303	8.46
235.766	8.38
236.229	8.31
236.691	8.23
237.154	8.17
237.617	8.1
238.08	8.02
238.542	7.94
239.005	7.88
239.468	7.81
239.93	7.76
240.393	7.7
240.855	7.61
241.317	7.53
241.78	7.46
242.242	7.38
242.704	7.33
243.166	7.27
243.629	7.22
244.091	7.16
244.553	7.1
245.015	7.04
245.477	6.97
245.939	6.93
246.4	6.88
246.862	6.83
247.324	6.79
247.786	6.74
248.247	6.68
248.709	6.62
249.17	6.57
249.632	6.54
250.093	6.49
250.555	6.45
251.016	6.42
251.477	6.37
251.939	6.34
252.4	6.3
252.861	6.26
253.322	6.24
253.783	6.21
254.244	6.2
254.705	6.15
255.166	6.13
255.627	6.1
256.088	6.07
256.549	6.05
257.009	6.01
257.47	5.98
257.931	5.94
258.391	5.9
258.852	5.87
259.312	5.84
259.773	5.81
260.233	5.79
260.694	5.76
261.154	5.73
261.614	5.71
262.074	5.68
262.534	5.66
262.994	5.64
263.455	5.63
263.915	5.61
264.374	5.59
264.834	5.58
265.294	5.56
265.754	5.54
266.214	5.53
266.673	5.51
267.133	5.51
267.593	5.5
268.052	5.48
268.512	5.47
268.971	5.46
269.431	5.45
269.89	5.44
270.349	5.43
270.809	5.41
271.268	5.4
271.727	5.39
272.186	5.37
272.645	5.36
273.104	5.35
273.563	5.33
274.022	5.32
274.481	5.31
274.94	5.3
275.399	5.28
275.857	5.27
276.316	5.25
276.775	5.24
277.233	5.23
277.692	5.22
278.15	5.2
278.609	5.19
279.067	5.18
279.525	5.16
279.984	5.15
280.442	5.14
280.9	5.13
281.358	5.12
281.816	5.12
282.274	5.11
282.732	5.09
283.19	5.08
283.648	5.06
284.106	5.04
284.564	5.03
285.021	5.03
285.479	5.02
285.937	5
286.394	4.99
286.852	4.96
287.309	4.95
287.767	4.93
288.224	4.91
288.682	4.89
289.139	4.88
289.596	4.86
290.053	4.84
290.511	4.82
290.968	4.81
291.425	4.8
291.882	4.8
292.339	4.79
292.796	4.79
293.252	4.78
293.709	4.77
294.166	4.77
294.623	4.76
295.079	4.76
295.536	4.75
295.992	4.74
296.449	4.73
296.905	4.72
297.362	4.7
297.818	4.69
298.274	4.69
298.731	4.68
299.187	4.67
299.643	4.66
300.099	4.65
300.555	4.64
301.011	4.63
301.467	4.62
301.923	4.61
302.379	4.61
302.835	4.61
303.291	4.6
303.746	4.6
304.202	4.6
304.658	4.59
305.113	4.6
305.569	4.6
306.024	4.6
306.479	4.6
306.935	4.59
307.39	4.59
307.845	4.58
308.301	4.57
308.756	4.57
309.211	4.57
309.666	4.57
310.121	4.56
310.576	4.55
311.031	4.55
311.486	4.54
311.94	4.54
312.395	4.54
312.85	4.54
313.305	4.53
313.759	4.53
314.214	4.52
314.668	4.51
315.123	4.51
315.577	4.5
316.032	4.49
316.486	4.49
316.94	4.48
317.394	4.48
317.849	4.46
318.303	4.45
318.757	4.44
319.211	4.43
319.665	4.42
320.119	4.4
320.572	4.39
321.026	4.38
321.48	4.37
321.934	4.36
322.387	4.35
322.841	4.35
323.295	4.35
323.748	4.34
324.202	4.33
324.655	4.33
325.108	4.33
325.562	4.33
326.015	4.32
326.468	4.32
326.921	4.32
327.374	4.31
327.827	4.3
328.28	4.28
328.733	4.28
329.186	4.26
329.639	4.26
330.092	4.25
330.545	4.25
330.997	4.23
331.45	4.23
331.903	4.22
332.355	4.23
332.808	4.23
333.26	4.22
333.713	4.21
334.165	4.21
334.617	4.21
335.069	4.2
335.522	4.21
335.974	4.2
336.426	4.19
336.878	4.19
337.33	4.17
337.782	4.17
338.234	4.17
338.686	4.18
339.137	4.18
339.589	4.16
340.041	4.16
340.493	4.14
340.944	4.13
341.396	4.12
341.847	4.12
342.299	4.1
342.75	4.09
343.201	4.08
343.653	4.06
344.104	4.04
344.555	4.03
345.006	4.02
345.457	4.02
345.908	4.02
346.359	4.01
346.81	4
347.261	4
347.712	3.99
348.163	3.99
348.613	3.99
349.064	3.98
349.515	3.98
349.965	3.98
350.416	3.96
350.866	3.95
351.317	3.94
351.767	3.95
352.217	3.95
352.668	3.94
353.118	3.94
353.568	3.93
354.018	3.94
354.468	3.94
354.918	3.94
355.368	3.94
355.818	3.94
356.268	3.94
356.718	3.93
357.168	3.92
357.617	3.92
358.067	3.91
358.517	3.92
358.966	3.91
359.416	3.92
359.865	3.91
360.315	3.91
360.764	3.92
361.213	3.91
361.663	3.91
362.112	3.91
362.561	3.92
363.01	3.92
363.459	3.9
363.908	3.9
364.357	3.89
364.806	3.89
365.255	3.88
365.703	3.88
366.152	3.89
366.601	3.89
367.05	3.89
367.498	3.89
367.947	3.89
368.395	3.9
368.844	3.91
369.292	3.9
369.74	3.9
370.189	3.91
370.637	3.9
371.085	3.9
371.533	3.9
371.981	3.9
372.429	3.9
372.877	3.9
373.325	3.9
373.773	3.89
374.221	3.9
374.669	3.9
375.116	3.9
375.564	3.91
376.012	3.92
376.459	3.92
376.907	3.94
377.354	3.95
377.801	3.97
378.249	3.97
378.696	3.99
379.143	4.01
379.591	4.03
380.038	4.03
380.485	4.04
380.932	4.05
381.379	4.07
381.826	4.07
382.273	4.08
382.72	4.08
383.166	4.09
383.613	4.1
384.06	4.1
384.506	4.11
384.953	4.11
385.4	4.12
385.846	4.13
386.292	4.13
386.739	4.14
387.185	4.15
387.631	4.16
388.078	4.18
388.524	4.19
388.97	4.2
389.416	4.22
389.862	4.24
390.308	4.27
390.754	4.29
391.2	4.3
391.645	4.31
392.091	4.35
392.537	4.36
392.983	4.37
393.428	4.38
393.874	4.4
394.319	4.42
394.765	4.43
395.21	4.42
395.655	4.44
396.101	4.45
396.546	4.46
396.991	4.46
397.436	4.48
397.881	4.51
398.326	4.52
398.771	4.53
399.216	4.53
399.661	4.54
400.106	4.56
400.551	4.55
400.995	4.55
401.44	4.56
401.885	4.57
402.329	4.57
402.774	4.57
403.218	4.58
403.663	4.59
404.107	4.59
404.551	4.6
404.995	4.6
405.44	4.6
405.884	4.61
406.328	4.62
406.772	4.61
407.216	4.61
407.66	4.6
408.104	4.59
408.547	4.6
408.991	4.6
409.435	4.6
409.879	4.6
410.322	4.61
410.766	4.62
411.209	4.63
411.653	4.65
412.096	4.65
412.54	4.67
412.983	4.67
413.426	4.69
413.869	4.7
414.312	4.7
414.756	4.72
415.199	4.71
415.642	4.71
416.085	4.71
416.527	4.68
416.97	4.68
417.413	4.67
417.856	4.66
418.298	4.62
418.741	4.62
419.184	4.61
419.626	4.6
420.069	4.6
420.511	4.6
420.953	4.61
421.396	4.61
421.838	4.61
422.28	4.61
422.722	4.63
423.164	4.65
423.606	4.65
424.048	4.65
424.49	4.65
424.932	4.65
425.374	4.62
425.816	4.6
426.258	4.59
426.699	4.58
427.141	4.57
427.582	4.57
428.024	4.56
428.465	4.55
428.907	4.55
429.348	4.55
429.789	4.55
430.231	4.57
430.672	4.59
431.113	4.6
431.554	4.61
431.995	4.62
432.436	4.61
432.877	4.61
433.318	4.62
433.759	4.63
434.2	4.64
434.64	4.64
435.081	4.64
435.522	4.64
435.962	4.64
436.403	4.64
436.843	4.66
437.284	4.65
437.724	4.66
438.164	4.65
438.604	4.66
439.045	4.66
439.485	4.66
439.925	4.65
440.365	4.66
440.805	4.65
441.245	4.66
441.685	4.64
442.125	4.66
442.564	4.67
443.004	4.67
443.444	4.66
443.883	4.66
444.323	4.66
444.762	4.66
445.202	4.65
445.641	4.67
446.081	4.68
446.52	4.69
446.959	4.69
447.398	4.68
447.837	4.69
448.276	4.7
448.716	4.71
449.154	4.73
449.593	4.74
450.032	4.73
450.471	4.72
450.91	4.71
451.349	4.7
451.787	4.68
452.226	4.67
452.664	4.67
453.103	4.65
453.541	4.65
453.98	4.64
454.418	4.62
454.856	4.62
455.295	4.61
455.733	4.59
456.171	4.58
456.609	4.58
457.047	4.57
457.485	4.55
457.923	4.54
458.361	4.52
458.798	4.51
459.236	4.52
459.674	4.52
460.111	4.5
460.549	4.52
460.987	4.52
461.424	4.53
461.862	4.53
462.299	4.54
462.736	4.55
463.173	4.56
463.611	4.56
464.048	4.56
464.485	4.56
464.922	4.57
465.359	4.57
465.796	4.57
466.233	4.57
466.67	4.58
467.106	4.58
467.543	4.57
467.98	4.57
468.416	4.56
468.853	4.57
469.29	4.57
469.726	4.57
470.162	4.57
470.599	4.56
471.035	4.55
471.471	4.53
471.907	4.51
472.344	4.51
472.78	4.51
473.216	4.5
473.652	4.49
474.088	4.48
474.523	4.47
474.959	4.45
475.395	4.43
475.831	4.42
476.266	4.42
476.702	4.41
477.138	4.42
477.573	4.42
478.008	4.41
478.444	4.4
478.879	4.39
479.314	4.39
479.75	4.39
480.185	4.39
480.62	4.38
481.055	4.37
481.49	4.36
481.925	4.36
482.36	4.35
482.795	4.35
483.229	4.35
483.664	4.34
484.099	4.34
484.534	4.34
484.968	4.35
485.403	4.35
485.837	4.35
486.271	4.35
486.706	4.34
487.14	4.34
487.574	4.35
488.009	4.35
488.443	4.35
488.877	4.37
489.311	4.37
489.745	4.39
490.179	4.41
490.613	4.42
491.046	4.43
491.48	4.45
491.914	4.48
492.348	4.5
492.781	4.53
493.215	4.56
493.648	4.59
494.082	4.61
494.515	4.64
494.948	4.67
495.382	4.7
495.815	4.74
496.248	4.79
496.681	4.83
497.114	4.87
497.547	4.92
497.98	4.96
498.413	5.01
498.846	5.07
499.279	5.13
499.711	5.18
500.144	5.25
500.577	5.32
501.009	5.38
501.442	5.44
501.874	5.52
502.306	5.6
502.739	5.68
503.171	5.78
503.603	5.85
504.036	5.95
504.468	6.05
504.9	6.14
505.332	6.24
505.764	6.35
506.196	6.48
506.627	6.6
507.059	6.73
507.491	6.86
507.923	7
508.354	7.15
508.786	7.31
509.217	7.48
509.649	7.64
510.08	7.82
510.512	7.99
510.943	8.17
511.374	8.35
511.805	8.53
512.237	8.72
512.668	8.91
513.099	9.11
513.53	9.31
513.961	9.52
514.391	9.74
514.822	9.97
515.253	10.2
515.684	10.42
516.114	10.65
516.545	10.88
516.975	11.13
517.406	11.37
517.836	11.61
518.267	11.85
518.697	12.09
519.127	12.32
519.558	12.55
519.988	12.79
520.418	13.03
520.848	13.26
521.278	13.51
521.708	13.77
522.138	14.01
522.567	14.23
522.997	14.44
523.427	14.66
523.857	14.88
524.286	15.08
524.716	15.29
525.145	15.49
525.575	15.68
526.004	15.87
526.433	16.02
526.863	16.2
527.292	16.37
527.721	16.54
528.15	16.69
528.579	16.85
529.008	16.99
529.437	17.12
529.866	17.25
530.295	17.38
530.724	17.48
531.152	17.6
531.581	17.7
532.01	17.8
532.438	17.9
532.867	18
533.295	18.08
533.723	18.17
534.152	18.23
534.58	18.31
535.008	18.36
535.436	18.44
535.865	18.48
536.293	18.54
536.721	18.59
537.149	18.64
537.576	18.68
538.004	18.74
538.432	18.78
538.86	18.83
539.287	18.85
539.715	18.89
540.143	18.92
540.57	18.96
540.998	18.99
541.425	19.03
541.852	19.06
542.28	19.09
542.707	19.12
543.134	19.14
543.561	19.17
543.988	19.22
544.415	19.23
544.842	19.26
545.269	19.28
545.696	19.3
546.123	19.32
546.549	19.33
546.976	19.35
547.403	19.36
547.829	19.37
548.256	19.38
548.682	19.37
549.108	19.4
549.535	19.41
549.961	19.42
550.387	19.42
550.813	19.41
551.24	19.4
551.666	19.39
552.092	19.39
552.518	19.37
552.943	19.34
553.369	19.33
553.795	19.29
554.221	19.26
554.646	19.22
555.072	19.18
555.498	19.14
555.923	19.08
556.349	19.02
556.774	18.94
557.199	18.89
557.625	18.81
558.05	18.74
558.475	18.66
558.9	18.58
559.325	18.49
559.75	18.39
560.175	18.3
560.6	18.2
561.025	18.1
561.449	18
561.874	17.89
562.299	17.78
562.723	17.65
563.148	17.53
563.572	17.39
563.997	17.24
564.421	17.12
564.846	16.98
565.27	16.83
565.694	16.71
566.118	16.57
566.542	16.43
566.966	16.3
567.39	16.16
567.814	16.02
568.238	15.89
568.662	15.76
569.086	15.63
569.509	15.5
569.933	15.37
570.357	15.24
570.78	15.1
571.204	14.98
571.627	14.84
572.05	14.72
572.474	14.6
572.897	14.48
573.32	14.37
573.743	14.25
574.166	14.14
574.589	14.03
575.012	13.92
575.435	13.82
575.858	13.71
576.281	13.61
576.704	13.52
577.126	13.42
577.549	13.33
577.972	13.22
578.394	13.15
578.817	13.06
579.239	12.99
579.661	12.9
580.084	12.83
580.506	12.76
580.928	12.68
581.35	12.6
581.772	12.53
582.194	12.46
582.616	12.41
583.038	12.34
583.46	12.27
583.882	12.21
584.303	12.14
584.725	12.07
585.147	12
585.568	11.95
585.99	11.89
586.411	11.83
586.833	11.78
587.254	11.72
587.675	11.66
588.096	11.6
588.518	11.55
588.939	11.51
589.36	11.46
589.781	11.43
590.202	11.39
590.623	11.36
591.043	11.32
591.464	11.28
591.885	11.24
592.305	11.19
592.726	11.17
593.147	11.14
593.567	11.11
593.987	11.09
594.408	11.05
594.828	11.01
595.248	10.98
595.669	10.96
596.089	10.93
596.509	10.91
596.929	10.88
597.349	10.85
597.769	10.83
598.189	10.79
598.608	10.77
599.028	10.74
599.448	10.71
599.867	10.67
600.287	10.63
600.706	10.61
601.126	10.56
601.545	10.54
601.965	10.51
602.384	10.47
602.803	10.43
603.222	10.38
603.641	10.34
604.061	10.31
604.48	10.26
604.898	10.23
605.317	10.18
605.736	10.15
606.155	10.1
606.574	10.04
606.992	9.98
607.411	9.93
607.829	9.85
608.248	9.77
608.666	9.71
609.085	9.66
609.503	9.61
609.921	9.55
610.339	9.49
610.758	9.43
611.176	9.36
611.594	9.3
612.012	9.25
612.43	9.22
612.847	9.18
613.265	9.12
613.683	9.07
614.101	9.01
614.518	8.95
614.936	8.91
615.353	8.85
615.771	8.81
616.188	8.77
616.606	8.73
617.023	8.68
617.44	8.64
617.857	8.61
618.274	8.57
618.691	8.52
619.108	8.48
619.525	8.44
619.942	8.41
620.359	8.39
620.776	8.36
621.192	8.33
621.609	8.32
622.026	8.29
622.442	8.27
622.859	8.25
623.275	8.23
623.691	8.22
624.108	8.22
624.524	8.2
624.94	8.2
625.356	8.19
625.772	8.19
626.188	8.18
626.604	8.17
627.02	8.17
627.436	8.17
627.852	8.17
628.268	8.15
628.683	8.14
629.099	8.13
629.514	8.11
629.93	8.09
630.345	8.06
630.761	8.03
631.176	8
631.591	7.98
632.007	7.95
632.422	7.91
632.837	7.87
633.252	7.83
633.667	7.77
634.082	7.72
634.497	7.67
634.911	7.62
635.326	7.56
635.741	7.49
636.155	7.42
636.57	7.35
636.984	7.29
637.399	7.22
637.813	7.14
638.228	7.06
638.642	6.97
639.056	6.89
639.47	6.82
639.884	6.75
640.298	6.68
640.712	6.59
641.126	6.51
641.54	6.42
641.954	6.35
642.368	6.27
642.781	6.21
643.195	6.14
643.609	6.08
644.022	6.01
644.436	5.95
644.849	5.88
645.262	5.83
645.676	5.78
646.089	5.73
646.502	5.68
646.915	5.65
647.328	5.6
647.741	5.57
648.154	5.54
648.567	5.51
648.98	5.48
649.393	5.46
649.805	5.44
650.218	5.42
650.631	5.41
651.043	5.39
651.456	5.38
651.868	5.36
652.28	5.34
652.693	5.33
653.105	5.32
653.517	5.29
653.929	5.27
654.341	5.25
654.753	5.22
655.165	5.2
655.577	5.18
655.989	5.14
656.401	5.11
656.813	5.09
657.224	5.05
657.636	5.02
658.047	4.98
658.459	4.95
658.87	4.91
659.282	4.87
659.693	4.85
660.104	4.8
660.515	4.78
660.926	4.75
661.338	4.72
661.749	4.68
662.159	4.65
662.57	4.64
662.981	4.61
663.392	4.59
663.803	4.57
664.213	4.55
664.624	4.53
665.035	4.52
665.445	4.51
665.855	4.5
666.266	4.5
666.676	4.51
667.086	4.49
667.497	4.49
667.907	4.49
668.317	4.5
668.727	4.51
669.137	4.52
669.547	4.53
669.956	4.53
670.366	4.55
670.776	4.56
671.186	4.56
671.595	4.58
672.005	4.6
672.414	4.62
672.824	4.63
673.233	4.66
673.642	4.69
674.052	4.71
674.461	4.74
674.87	4.76
675.279	4.79
675.688	4.83
676.097	4.87
676.506	4.91
676.915	4.95
677.323	4.99
677.732	5.02
678.141	5.06
678.549	5.09
678.958	5.13
679.366	5.18
679.775	5.23
680.183	5.28
680.592	5.32
681	5.36
681.408	5.41
681.816	5.47
682.224	5.52
682.632	5.58
683.04	5.64
683.448	5.71
683.856	5.77
684.264	5.84
684.671	5.93
685.079	6.03
685.487	6.15
685.894	6.27
686.302	6.42
686.709	6.58
687.116	6.75
687.524	6.95
687.931	7.17
688.338	7.42
688.745	7.68
689.152	7.95
689.559	8.26
689.966	8.57
690.373	8.93
690.78	9.29
691.187	9.67
691.593	10.08
692	10.5
692.407	10.93
692.813	11.38
693.22	11.84
693.626	12.33
694.032	12.81
694.439	13.31
694.845	13.81
695.251	14.33
695.657	14.85
696.063	15.38
696.469	15.91
696.875	16.46
697.281	17.01
697.687	17.58
698.093	18.12
698.498	18.67
698.904	19.22
699.31	19.76
699.715	20.3
700.12	20.83
700.526	21.36
700.931	21.88
701.337	22.4
701.742	22.9
702.147	23.4
702.552	23.91
702.957	24.4
703.362	24.88
703.767	25.37
704.172	25.85
704.577	26.34
704.981	26.81
705.386	27.28
705.791	27.73
706.195	28.21
706.6	28.68
707.004	29.13
707.408	29.57
707.813	30.03
708.217	30.46
708.621	30.89
709.025	31.31
709.43	31.73
709.834	32.15
710.237	32.55
710.641	32.93
711.045	33.31
711.449	33.72
711.853	34.15
712.256	34.51
712.66	34.9
713.064	35.28
713.467	35.65
713.87	36.03
714.274	36.38
714.677	36.78
715.08	37.14
715.484	37.51
715.887	37.84
716.29	38.13
716.693	38.48
717.096	38.8
717.499	39.12
717.901	39.43
718.304	39.74
718.707	40.08
719.109	40.33
719.512	40.6
719.915	40.88
720.317	41.17
720.719	41.45
721.122	41.7
721.524	41.96
721.926	42.21
722.328	42.47
722.731	42.69
723.133	42.94
723.535	43.19
723.937	43.45
724.338	43.64
724.74	43.85
725.142	44.12
725.544	44.31
725.945	44.54
726.347	44.69
726.748	44.85
727.15	45.02
727.551	45.16
727.952	45.3
728.354	45.44
728.755	45.6
729.156	45.76
729.557	45.82
729.958	45.97
730.359	46.09
730.76	46.24
731.161	46.36
731.562	46.49
731.962	46.61
732.363	46.73
732.763	46.84
733.164	46.96
733.564	47.07
733.965	47.19
734.365	47.29
734.766	47.39
735.166	47.5
735.566	47.62
735.966	47.71
736.366	47.81
736.766	47.88
737.166	47.97
737.566	48.03
737.966	48.09
738.365	48.17
738.765	48.25
739.165	48.29
739.564	48.34
739.964	48.38
740.363	48.41
740.763	48.47
741.162	48.53
741.561	48.57
741.96	48.61
742.36	48.65
742.759	48.65
743.158	48.66
743.557	48.69
743.955	48.73
744.354	48.75
744.753	48.81
745.152	48.86
745.55	48.91
745.949	48.94
746.348	48.98
746.746	49.01
747.144	49.07
747.543	49.1
747.941	49.15
748.339	49.15
748.737	49.19
749.136	49.2
749.534	49.18
749.932	49.17
750.33	49.17
750.727	49.19
751.125	49.19
751.523	49.18
751.921	49.2
752.318	49.22
752.716	49.27
753.113	49.29
753.511	49.33
753.908	49.36
754.305	49.39
754.703	49.41
755.1	49.39
755.497	49.41
755.894	49.43
756.291	49.43
756.688	49.4
757.085	49.39
757.482	49.38
757.878	49.38
758.275	49.35
758.672	49.34
759.068	49.38
759.465	49.41
759.861	49.41
760.258	49.41
760.654	49.42
761.05	49.45
761.447	49.46
761.843	49.45
762.239	49.46
762.635	49.46
763.031	49.47
763.427	49.44
763.822	49.44
764.218	49.44
764.614	49.44
765.01	49.43
765.405	49.42
765.801	49.38
766.196	49.38
766.592	49.35
766.987	49.36
767.382	49.34
767.778	49.35
768.173	49.35
768.568	49.33
768.963	49.34
769.358	49.35
769.753	49.34
770.148	49.38
770.542	49.36
770.937	49.38
771.332	49.37
771.726	49.39
772.121	49.38
772.515	49.38
772.91	49.4
773.304	49.42
773.699	49.4
774.093	49.39
774.487	49.39
774.881	49.44
775.275	49.42
775.669	49.41
776.063	49.39
776.457	49.39
776.851	49.37
777.245	49.32
777.638	49.3
778.032	49.3
778.425	49.34
778.819	49.33
779.212	49.31
779.606	49.32
779.999	49.31
780.392	49.33
780.786	49.34
781.179	49.36
781.572	49.42
781.965	49.44
782.358	49.46
782.751	49.41
783.143	49.4
783.536	49.39
783.929	49.35
784.322	49.38
784.714	49.36
785.107	49.37
