Data from N_1_DEC_ON_6n_Splice17_12-27-29-127.txt Node
Date: Sat Mar 07 12:27:29 EST 2020
User: sa697716
Spectrometer: NQ5500242
Trigger mode: 0
Integration Time (sec): 1.450000E-1
Scans to average: 20
Nonlinearity correction enabled: false
Boxcar width: 5
Storing dark spectrum: false
XAxis mode: Wavelengths
Number of Pixels in Spectrum: 512
>>>>>Begin Spectral Data<<<<<
187.83	56.3
188.298	70.24
188.766	46.78
189.233	46.46
189.701	53.45
190.169	64.12
190.636	18.45
191.104	-49.35
191.571	-342.11
192.039	-142.68
192.506	-631.44
192.974	152.39
193.441	178.93
193.908	35.04
194.375	18.47
194.842	3.02
195.31	36.95
195.777	-143.79
196.244	23.37
196.711	27.86
197.177	32.92
197.644	33.25
198.111	32.57
198.578	33.24
199.045	33.39
199.511	33.27
199.978	33.53
200.445	33.47
200.911	33.41
201.378	33.34
201.844	33.62
202.31	33.11
202.777	33.2
203.243	33.64
203.709	33.29
204.176	32.99
204.642	32.99
205.108	32.99
205.574	32.98
206.04	32.6
206.506	32.54
206.972	32.56
207.438	32.22
207.903	31.92
208.369	31.25
208.835	31.16
209.301	30.68
209.766	30.07
210.232	29.16
210.697	28.48
211.163	28.05
211.628	27.38
212.094	26.53
212.559	26.43
213.024	25.87
213.49	25.22
213.955	24.59
214.42	24.13
214.885	23.5
215.35	22.95
215.815	21.9
216.28	20.68
216.745	19.42
217.21	18.3
217.675	17.03
218.14	16.08
218.604	15.26
219.069	14.51
219.534	13.89
219.998	13.38
220.463	12.95
220.927	12.58
221.392	12.3
221.856	12.03
222.32	11.8
222.785	11.59
223.249	11.4
223.713	11.25
224.177	11.11
224.642	10.96
225.106	10.8
225.57	10.62
226.034	10.5
226.497	10.34
226.961	10.21
227.425	10.07
227.889	9.94
228.353	9.79
228.816	9.65
229.28	9.51
229.744	9.41
230.207	9.3
230.671	9.2
231.134	9.09
231.597	9
232.061	8.91
232.524	8.82
232.987	8.73
233.45	8.65
233.914	8.58
234.377	8.5
234.84	8.4
235.303	8.33
235.766	8.26
236.229	8.19
236.691	8.12
237.154	8.05
237.617	7.98
238.08	7.9
238.542	7.82
239.005	7.77
239.468	7.69
239.93	7.63
240.393	7.57
240.855	7.49
241.317	7.42
241.78	7.35
242.242	7.27
242.704	7.22
243.166	7.17
243.629	7.12
244.091	7.06
244.553	7.01
245.015	6.95
245.477	6.89
245.939	6.84
246.4	6.8
246.862	6.75
247.324	6.71
247.786	6.65
248.247	6.6
248.709	6.55
249.17	6.49
249.632	6.45
250.093	6.41
250.555	6.37
251.016	6.34
251.477	6.3
251.939	6.26
252.4	6.23
252.861	6.2
253.322	6.17
253.783	6.14
254.244	6.12
254.705	6.09
255.166	6.06
255.627	6.02
256.088	5.99
256.549	5.96
257.009	5.93
257.47	5.89
257.931	5.86
258.391	5.82
258.852	5.8
259.312	5.76
259.773	5.73
260.233	5.71
260.694	5.68
261.154	5.66
261.614	5.63
262.074	5.6
262.534	5.58
262.994	5.56
263.455	5.55
263.915	5.52
264.374	5.5
264.834	5.49
265.294	5.47
265.754	5.46
266.214	5.45
266.673	5.44
267.133	5.43
267.593	5.42
268.052	5.41
268.512	5.4
268.971	5.39
269.431	5.38
269.89	5.36
270.349	5.35
270.809	5.34
271.268	5.32
271.727	5.31
272.186	5.29
272.645	5.28
273.104	5.26
273.563	5.25
274.022	5.24
274.481	5.22
274.94	5.21
275.399	5.2
275.857	5.18
276.316	5.16
276.775	5.15
277.233	5.15
277.692	5.13
278.15	5.12
278.609	5.11
279.067	5.09
279.525	5.08
279.984	5.07
280.442	5.06
280.9	5.04
281.358	5.03
281.816	5.02
282.274	5.01
282.732	4.99
283.19	4.97
283.648	4.96
284.106	4.94
284.564	4.93
285.021	4.92
285.479	4.91
285.937	4.89
286.394	4.88
286.852	4.86
287.309	4.84
287.767	4.83
288.224	4.82
288.682	4.8
289.139	4.78
289.596	4.76
290.053	4.74
290.511	4.72
290.968	4.72
291.425	4.7
291.882	4.69
292.339	4.67
292.796	4.66
293.252	4.65
293.709	4.65
294.166	4.64
294.623	4.63
295.079	4.62
295.536	4.62
295.992	4.61
296.449	4.6
296.905	4.59
297.362	4.59
297.818	4.57
298.274	4.57
298.731	4.56
299.187	4.54
299.643	4.53
300.099	4.52
300.555	4.51
301.011	4.5
301.467	4.49
301.923	4.48
302.379	4.47
302.835	4.47
303.291	4.46
303.746	4.45
304.202	4.45
304.658	4.45
305.113	4.44
305.569	4.43
306.024	4.42
306.479	4.41
306.935	4.41
307.39	4.4
307.845	4.39
308.301	4.39
308.756	4.39
309.211	4.38
309.666	4.38
310.121	4.38
310.576	4.37
311.031	4.37
311.486	4.38
311.94	4.37
312.395	4.36
312.85	4.36
313.305	4.35
313.759	4.34
314.214	4.33
314.668	4.32
315.123	4.32
315.577	4.31
316.032	4.3
316.486	4.29
316.94	4.29
317.394	4.28
317.849	4.26
318.303	4.26
318.757	4.24
319.211	4.23
319.665	4.21
320.119	4.2
320.572	4.19
321.026	4.18
321.48	4.17
321.934	4.15
322.387	4.13
322.841	4.12
323.295	4.12
323.748	4.11
324.202	4.11
324.655	4.1
325.108	4.1
325.562	4.09
326.015	4.09
326.468	4.08
326.921	4.08
327.374	4.08
327.827	4.08
328.28	4.08
328.733	4.07
329.186	4.06
329.639	4.06
330.092	4.05
330.545	4.05
330.997	4.04
331.45	4.04
331.903	4.04
332.355	4.04
332.808	4.03
333.26	4.03
333.713	4.02
334.165	4.01
334.617	4
335.069	3.99
335.522	3.99
335.974	3.98
336.426	3.97
336.878	3.97
337.33	3.96
337.782	3.95
338.234	3.95
338.686	3.94
339.137	3.94
339.589	3.93
340.041	3.93
340.493	3.92
340.944	3.9
341.396	3.89
341.847	3.88
342.299	3.87
342.75	3.85
343.201	3.84
343.653	3.83
344.104	3.81
344.555	3.8
345.006	3.79
345.457	3.78
345.908	3.77
346.359	3.77
346.81	3.76
347.261	3.75
347.712	3.75
348.163	3.74
348.613	3.72
349.064	3.72
349.515	3.72
349.965	3.71
350.416	3.69
350.866	3.69
351.317	3.68
351.767	3.67
352.217	3.67
352.668	3.66
353.118	3.67
353.568	3.66
354.018	3.66
354.468	3.66
354.918	3.66
355.368	3.68
355.818	3.67
356.268	3.68
356.718	3.68
357.168	3.66
357.617	3.66
358.067	3.66
358.517	3.68
358.966	3.67
359.416	3.66
359.865	3.66
360.315	3.65
360.764	3.65
361.213	3.64
361.663	3.63
362.112	3.65
362.561	3.65
363.01	3.65
363.459	3.64
363.908	3.63
364.357	3.64
364.806	3.63
365.255	3.64
365.703	3.64
366.152	3.65
366.601	3.66
367.05	3.66
367.498	3.64
367.947	3.65
368.395	3.67
368.844	3.67
369.292	3.68
369.74	3.68
370.189	3.69
370.637	3.69
371.085	3.68
371.533	3.69
371.981	3.69
372.429	3.7
372.877	3.71
373.325	3.7
373.773	3.71
374.221	3.71
374.669	3.72
375.116	3.72
375.564	3.73
376.012	3.74
376.459	3.74
376.907	3.76
377.354	3.76
377.801	3.77
378.249	3.79
378.696	3.79
379.143	3.8
379.591	3.82
380.038	3.83
380.485	3.84
380.932	3.85
381.379	3.86
381.826	3.87
382.273	3.89
382.72	3.89
383.166	3.91
383.613	3.92
384.06	3.93
384.506	3.95
384.953	3.97
385.4	3.99
385.846	4.01
386.292	4.02
386.739	4.04
387.185	4.04
387.631	4.07
388.078	4.07
388.524	4.09
388.97	4.1
389.416	4.11
389.862	4.12
390.308	4.14
390.754	4.15
391.2	4.16
391.645	4.17
392.091	4.18
392.537	4.2
392.983	4.21
393.428	4.22
393.874	4.24
394.319	4.25
394.765	4.24
395.21	4.25
395.655	4.27
396.101	4.28
396.546	4.29
396.991	4.3
397.436	4.3
397.881	4.32
398.326	4.33
398.771	4.34
399.216	4.34
399.661	4.37
400.106	4.37
400.551	4.37
400.995	4.37
401.44	4.38
401.885	4.39
402.329	4.4
402.774	4.4
403.218	4.41
403.663	4.42
404.107	4.42
404.551	4.42
404.995	4.42
405.44	4.43
405.884	4.42
406.328	4.42
406.772	4.41
407.216	4.42
407.66	4.41
408.104	4.4
408.547	4.39
408.991	4.4
409.435	4.4
409.879	4.4
410.322	4.41
410.766	4.43
411.209	4.43
411.653	4.44
412.096	4.45
412.54	4.45
412.983	4.45
413.426	4.48
413.869	4.47
414.312	4.49
414.756	4.49
415.199	4.47
415.642	4.47
416.085	4.47
416.527	4.46
416.97	4.45
417.413	4.46
417.856	4.46
418.298	4.44
418.741	4.43
419.184	4.42
419.626	4.41
420.069	4.42
420.511	4.41
420.953	4.4
421.396	4.41
421.838	4.41
422.28	4.42
422.722	4.43
423.164	4.43
423.606	4.44
424.048	4.45
424.49	4.46
424.932	4.46
425.374	4.45
425.816	4.43
426.258	4.43
426.699	4.42
427.141	4.41
427.582	4.41
428.024	4.41
428.465	4.41
428.907	4.39
429.348	4.37
429.789	4.36
430.231	4.38
430.672	4.39
431.113	4.4
431.554	4.41
431.995	4.42
432.436	4.41
432.877	4.4
433.318	4.41
433.759	4.43
434.2	4.44
434.64	4.45
435.081	4.45
435.522	4.46
435.962	4.48
436.403	4.5
436.843	4.5
437.284	4.51
437.724	4.53
438.164	4.53
438.604	4.54
439.045	4.53
439.485	4.54
439.925	4.54
440.365	4.55
440.805	4.54
441.245	4.54
441.685	4.56
442.125	4.56
442.564	4.56
443.004	4.55
443.444	4.55
443.883	4.56
444.323	4.54
444.762	4.54
445.202	4.53
445.641	4.54
446.081	4.54
446.52	4.52
446.959	4.54
447.398	4.55
447.837	4.56
448.276	4.56
448.716	4.57
449.154	4.59
449.593	4.6
450.032	4.59
450.471	4.57
450.91	4.56
451.349	4.58
451.787	4.55
452.226	4.52
452.664	4.52
453.103	4.49
453.541	4.5
453.98	4.49
454.418	4.47
454.856	4.47
455.295	4.46
455.733	4.43
456.171	4.41
456.609	4.41
457.047	4.4
457.485	4.38
457.923	4.38
458.361	4.36
458.798	4.35
459.236	4.35
459.674	4.35
460.111	4.35
460.549	4.37
460.987	4.39
461.424	4.39
461.862	4.4
462.299	4.41
462.736	4.41
463.173	4.41
463.611	4.41
464.048	4.42
464.485	4.41
464.922	4.43
465.359	4.43
465.796	4.43
466.233	4.43
466.67	4.44
467.106	4.45
467.543	4.46
467.98	4.46
468.416	4.46
468.853	4.47
469.29	4.47
469.726	4.47
470.162	4.46
470.599	4.46
471.035	4.44
471.471	4.43
471.907	4.43
472.344	4.44
472.78	4.43
473.216	4.42
473.652	4.42
474.088	4.41
474.523	4.41
474.959	4.41
475.395	4.39
475.831	4.38
476.266	4.37
476.702	4.36
477.138	4.34
477.573	4.34
478.008	4.34
478.444	4.32
478.879	4.32
479.314	4.31
479.75	4.31
480.185	4.3
480.62	4.3
481.055	4.28
481.49	4.28
481.925	4.27
482.36	4.27
482.795	4.26
483.229	4.25
483.664	4.25
484.099	4.24
484.534	4.24
484.968	4.25
485.403	4.25
485.837	4.26
486.271	4.26
486.706	4.26
487.14	4.27
487.574	4.28
488.009	4.29
488.443	4.29
488.877	4.3
489.311	4.32
489.745	4.33
490.179	4.34
490.613	4.36
491.046	4.38
491.48	4.4
491.914	4.43
492.348	4.45
492.781	4.47
493.215	4.5
493.648	4.53
494.082	4.55
494.515	4.58
494.948	4.61
495.382	4.64
495.815	4.67
496.248	4.7
496.681	4.74
497.114	4.79
497.547	4.83
497.98	4.87
498.413	4.92
498.846	4.97
499.279	5.03
499.711	5.08
500.144	5.15
500.577	5.21
501.009	5.27
501.442	5.34
501.874	5.41
502.306	5.47
502.739	5.56
503.171	5.64
503.603	5.73
504.036	5.82
504.468	5.91
504.9	6.01
505.332	6.12
505.764	6.24
506.196	6.35
506.627	6.47
507.059	6.61
507.491	6.74
507.923	6.89
508.354	7.04
508.786	7.2
509.217	7.36
509.649	7.52
510.08	7.69
510.512	7.86
510.943	8.04
511.374	8.23
511.805	8.41
512.237	8.6
512.668	8.79
513.099	8.99
513.53	9.18
513.961	9.4
514.391	9.61
514.822	9.82
515.253	10.04
515.684	10.27
516.114	10.5
516.545	10.73
516.975	10.97
517.406	11.21
517.836	11.45
518.267	11.72
518.697	11.96
519.127	12.2
519.558	12.46
519.988	12.71
520.418	12.96
520.848	13.19
521.278	13.43
521.708	13.69
522.138	13.92
522.567	14.14
522.997	14.34
523.427	14.56
523.857	14.78
524.286	14.97
524.716	15.18
525.145	15.38
525.575	15.59
526.004	15.78
526.433	15.95
526.863	16.12
527.292	16.3
527.721	16.46
528.15	16.62
528.579	16.77
529.008	16.92
529.437	17.05
529.866	17.18
530.295	17.3
530.724	17.4
531.152	17.51
531.581	17.64
532.01	17.75
532.438	17.85
532.867	17.96
533.295	18.05
533.723	18.13
534.152	18.2
534.58	18.27
535.008	18.33
535.436	18.42
535.865	18.47
536.293	18.52
536.721	18.57
537.149	18.61
537.576	18.65
538.004	18.69
538.432	18.73
538.86	18.78
539.287	18.8
539.715	18.86
540.143	18.89
540.57	18.93
540.998	18.96
541.425	18.98
541.852	19.02
542.28	19.05
542.707	19.07
543.134	19.1
543.561	19.13
543.988	19.16
544.415	19.17
544.842	19.19
545.269	19.21
545.696	19.24
546.123	19.26
546.549	19.28
546.976	19.29
547.403	19.32
547.829	19.34
548.256	19.34
548.682	19.37
549.108	19.39
549.535	19.41
549.961	19.41
550.387	19.41
550.813	19.41
551.24	19.4
551.666	19.41
552.092	19.39
552.518	19.39
552.943	19.36
553.369	19.34
553.795	19.3
554.221	19.26
554.646	19.22
555.072	19.18
555.498	19.12
555.923	19.06
556.349	18.99
556.774	18.93
557.199	18.85
557.625	18.78
558.05	18.69
558.475	18.61
558.9	18.52
559.325	18.43
559.75	18.35
560.175	18.26
560.6	18.17
561.025	18.07
561.449	17.95
561.874	17.83
562.299	17.72
562.723	17.59
563.148	17.47
563.572	17.35
563.997	17.21
564.421	17.05
564.846	16.91
565.27	16.77
565.694	16.62
566.118	16.48
566.542	16.34
566.966	16.2
567.39	16.06
567.814	15.93
568.238	15.77
568.662	15.64
569.086	15.52
569.509	15.39
569.933	15.26
570.357	15.14
570.78	15
571.204	14.87
571.627	14.75
572.05	14.62
572.474	14.5
572.897	14.4
573.32	14.29
573.743	14.17
574.166	14.05
574.589	13.93
575.012	13.82
575.435	13.73
575.858	13.63
576.281	13.53
576.704	13.43
577.126	13.33
577.549	13.24
577.972	13.15
578.394	13.06
578.817	12.98
579.239	12.9
579.661	12.83
580.084	12.75
580.506	12.67
580.928	12.59
581.35	12.52
581.772	12.45
582.194	12.36
582.616	12.3
583.038	12.23
583.46	12.17
583.882	12.1
584.303	12.03
584.725	11.97
585.147	11.91
585.568	11.85
585.99	11.79
586.411	11.74
586.833	11.69
587.254	11.63
587.675	11.57
588.096	11.51
588.518	11.47
588.939	11.43
589.36	11.38
589.781	11.34
590.202	11.31
590.623	11.28
591.043	11.23
591.464	11.2
591.885	11.17
592.305	11.14
592.726	11.11
593.147	11.08
593.567	11.03
593.987	11
594.408	10.95
594.828	10.92
595.248	10.88
595.669	10.86
596.089	10.82
596.509	10.8
596.929	10.77
597.349	10.74
597.769	10.71
598.189	10.68
598.608	10.66
599.028	10.65
599.448	10.62
599.867	10.58
600.287	10.55
600.706	10.52
601.126	10.48
601.545	10.44
601.965	10.41
602.384	10.37
602.803	10.34
603.222	10.3
603.641	10.25
604.061	10.2
604.48	10.16
604.898	10.1
605.317	10.05
605.736	10
606.155	9.95
606.574	9.9
606.992	9.84
607.411	9.78
607.829	9.7
608.248	9.63
608.666	9.58
609.085	9.53
609.503	9.48
609.921	9.43
610.339	9.38
610.758	9.33
611.176	9.26
611.594	9.2
612.012	9.14
612.43	9.11
612.847	9.06
613.265	9
613.683	8.95
614.101	8.9
614.518	8.85
614.936	8.8
615.353	8.74
615.771	8.69
616.188	8.65
616.606	8.61
617.023	8.57
617.44	8.53
617.857	8.49
618.274	8.45
618.691	8.4
619.108	8.36
619.525	8.32
619.942	8.29
620.359	8.27
620.776	8.24
621.192	8.21
621.609	8.18
622.026	8.15
622.442	8.14
622.859	8.13
623.275	8.11
623.691	8.1
624.108	8.09
624.524	8.08
624.94	8.08
625.356	8.08
625.772	8.08
626.188	8.07
626.604	8.06
627.02	8.04
627.436	8.03
627.852	8.02
628.268	8.01
628.683	8.01
629.099	8
629.514	7.98
629.93	7.95
630.345	7.93
630.761	7.92
631.176	7.9
631.591	7.88
632.007	7.85
632.422	7.82
632.837	7.78
633.252	7.73
633.667	7.7
634.082	7.65
634.497	7.6
634.911	7.54
635.326	7.48
635.741	7.42
636.155	7.35
636.57	7.27
636.984	7.2
637.399	7.13
637.813	7.06
638.228	6.97
638.642	6.89
639.056	6.81
639.47	6.74
639.884	6.66
640.298	6.57
640.712	6.5
641.126	6.43
641.54	6.36
641.954	6.29
642.368	6.22
642.781	6.16
643.195	6.09
643.609	6.03
644.022	5.96
644.436	5.91
644.849	5.86
645.262	5.8
645.676	5.75
646.089	5.71
646.502	5.66
646.915	5.62
647.328	5.57
647.741	5.54
648.154	5.51
648.567	5.48
648.98	5.45
649.393	5.43
649.805	5.42
650.218	5.39
650.631	5.38
651.043	5.36
651.456	5.35
651.868	5.33
652.28	5.32
652.693	5.31
653.105	5.3
653.517	5.28
653.929	5.26
654.341	5.24
654.753	5.22
655.165	5.19
655.577	5.17
655.989	5.14
656.401	5.12
656.813	5.1
657.224	5.06
657.636	5.02
658.047	4.99
658.459	4.95
658.87	4.92
659.282	4.88
659.693	4.84
660.104	4.8
660.515	4.78
660.926	4.75
661.338	4.71
661.749	4.69
662.159	4.67
662.57	4.65
662.981	4.63
663.392	4.61
663.803	4.6
664.213	4.59
664.624	4.57
665.035	4.57
665.445	4.56
665.855	4.55
666.266	4.55
666.676	4.56
667.086	4.55
667.497	4.55
667.907	4.55
668.317	4.56
668.727	4.57
669.137	4.59
669.547	4.59
669.956	4.6
670.366	4.62
670.776	4.62
671.186	4.64
671.595	4.66
672.005	4.68
672.414	4.71
672.824	4.73
673.233	4.75
673.642	4.77
674.052	4.8
674.461	4.82
674.87	4.85
675.279	4.89
675.688	4.92
676.097	4.96
676.506	4.99
676.915	5.02
677.323	5.06
677.732	5.09
678.141	5.12
678.549	5.15
678.958	5.2
679.366	5.24
679.775	5.27
680.183	5.31
680.592	5.36
681	5.4
681.408	5.45
681.816	5.49
682.224	5.55
682.632	5.6
683.04	5.66
683.448	5.73
683.856	5.78
684.264	5.86
684.671	5.95
685.079	6.03
685.487	6.14
685.894	6.26
686.302	6.39
686.709	6.54
687.116	6.72
687.524	6.9
687.931	7.1
688.338	7.33
688.745	7.58
689.152	7.85
689.559	8.14
689.966	8.45
690.373	8.78
690.78	9.15
691.187	9.53
691.593	9.94
692	10.35
692.407	10.77
692.813	11.22
693.22	11.68
693.626	12.16
694.032	12.66
694.439	13.17
694.845	13.69
695.251	14.2
695.657	14.71
696.063	15.23
696.469	15.78
696.875	16.33
697.281	16.88
697.687	17.45
698.093	18.01
698.498	18.55
698.904	19.11
699.31	19.65
699.715	20.2
700.12	20.77
700.526	21.32
700.931	21.86
701.337	22.4
701.742	22.93
702.147	23.45
702.552	23.99
702.957	24.51
703.362	25.03
703.767	25.54
704.172	26.03
704.577	26.52
704.981	27.03
705.386	27.53
705.791	28.04
706.195	28.53
706.6	29.02
707.004	29.47
707.408	29.94
707.813	30.41
708.217	30.88
708.621	31.35
709.025	31.81
709.43	32.24
709.834	32.7
710.237	33.12
710.641	33.55
711.045	33.93
711.449	34.37
711.853	34.79
712.256	35.16
712.66	35.55
713.064	35.95
713.467	36.34
713.87	36.75
714.274	37.09
714.677	37.49
715.08	37.86
715.484	38.27
715.887	38.62
716.29	38.98
716.693	39.35
717.096	39.71
717.499	40.06
717.901	40.4
718.304	40.71
718.707	41.05
719.109	41.36
719.512	41.67
719.915	41.96
720.317	42.25
720.719	42.52
721.122	42.82
721.524	43.1
721.926	43.38
722.328	43.66
722.731	43.91
723.133	44.19
723.535	44.42
723.937	44.64
724.338	44.88
724.74	45.1
725.142	45.37
725.544	45.59
725.945	45.82
726.347	45.97
726.748	46.16
727.15	46.34
727.551	46.51
727.952	46.69
728.354	46.89
728.755	47.06
729.156	47.23
729.557	47.35
729.958	47.49
730.359	47.62
730.76	47.81
731.161	47.94
731.562	48.12
731.962	48.24
732.363	48.38
732.763	48.48
733.164	48.61
733.564	48.73
733.965	48.84
734.365	48.95
734.766	49.07
735.166	49.15
735.566	49.25
735.966	49.33
736.366	49.42
736.766	49.49
737.166	49.59
737.566	49.67
737.966	49.74
738.365	49.83
738.765	49.91
739.165	49.96
739.564	50.03
739.964	50.1
740.363	50.13
740.763	50.19
741.162	50.24
741.561	50.28
741.96	50.31
742.36	50.34
742.759	50.38
743.158	50.42
743.557	50.43
743.955	50.5
744.354	50.54
744.753	50.61
745.152	50.7
745.55	50.74
745.949	50.76
746.348	50.82
746.746	50.85
747.144	50.88
747.543	50.91
747.941	50.97
748.339	50.97
748.737	50.98
749.136	50.98
749.534	50.98
749.932	51.02
750.33	51.06
750.727	51.09
751.125	51.11
751.523	51.12
751.921	51.12
752.318	51.12
752.716	51.14
753.113	51.15
753.511	51.17
753.908	51.2
754.305	51.2
754.703	51.19
755.1	51.19
755.497	51.18
755.894	51.19
756.291	51.2
756.688	51.19
757.085	51.21
757.482	51.2
757.878	51.23
758.275	51.22
758.672	51.22
759.068	51.25
759.465	51.23
759.861	51.25
760.258	51.26
760.654	51.28
761.05	51.28
761.447	51.28
761.843	51.28
762.239	51.27
762.635	51.26
763.031	51.26
763.427	51.23
763.822	51.21
764.218	51.22
764.614	51.21
765.01	51.18
765.405	51.17
765.801	51.16
766.196	51.15
766.592	51.11
766.987	51.12
767.382	51.12
767.778	51.13
768.173	51.16
768.568	51.13
768.963	51.11
769.358	51.14
769.753	51.14
770.148	51.15
770.542	51.15
770.937	51.2
771.332	51.15
771.726	51.15
772.121	51.13
772.515	51.13
772.91	51.16
773.304	51.19
773.699	51.18
774.093	51.18
774.487	51.16
774.881	51.17
775.275	51.14
775.669	51.16
776.063	51.14
776.457	51.14
776.851	51.13
777.245	51.11
777.638	51.07
778.032	51.08
778.425	51.1
778.819	51.11
779.212	51.11
779.606	51.12
779.999	51.11
780.392	51.13
780.786	51.14
781.179	51.15
781.572	51.18
781.965	51.22
782.358	51.23
782.751	51.19
783.143	51.17
783.536	51.14
783.929	51.13
784.322	51.14
784.714	51.14
785.107	51.15
