Data from N_1_DIV_PA_2n_Splice17_12-34-46-014.txt Node
Date: Sat Mar 07 12:34:46 EST 2020
User: sa697716
Spectrometer: NQ5500242
Trigger mode: 0
Integration Time (sec): 1.450000E-1
Scans to average: 20
Nonlinearity correction enabled: false
Boxcar width: 5
Storing dark spectrum: false
XAxis mode: Wavelengths
Number of Pixels in Spectrum: 512
>>>>>Begin Spectral Data<<<<<
187.83	82.63
188.298	95.35
188.766	63.41
189.233	61.78
189.701	59.89
190.169	67.32
190.636	28.45
191.104	-90.99
191.571	-356.31
192.039	-218.84
192.506	-462.49
192.974	183.08
193.441	321.07
193.908	92.42
194.375	63.7
194.842	8
195.31	69.54
195.777	131.96
196.244	36.42
196.711	31.92
197.177	33.39
197.644	33.37
198.111	32.34
198.578	33.04
199.045	32.99
199.511	32.95
199.978	32.73
200.445	32.47
200.911	32.31
201.378	32.3
201.844	32.5
202.31	32.17
202.777	32.09
203.243	32.47
203.709	32.1
204.176	32.04
204.642	32.18
205.108	32.43
205.574	32.43
206.04	32.07
206.506	31.92
206.972	31.81
207.438	31.83
207.903	31.47
208.369	30.77
208.835	30.23
209.301	29.82
209.766	29.03
210.232	28.63
210.697	28.15
211.163	27.76
211.628	27.19
212.094	26.66
212.559	26.25
213.024	25.82
213.49	25.44
213.955	25.12
214.42	24.77
214.885	24.47
215.35	23.76
215.815	23.03
216.28	22.12
216.745	21.17
217.21	20.22
217.675	19.44
218.14	18.72
218.604	18.15
219.069	17.6
219.534	17.09
219.998	16.64
220.463	16.31
220.927	15.94
221.392	15.68
221.856	15.47
222.32	15.26
222.785	15.04
223.249	14.86
223.713	14.68
224.177	14.51
224.642	14.35
225.106	14.18
225.57	14
226.034	13.84
226.497	13.7
226.961	13.55
227.425	13.4
227.889	13.26
228.353	13.12
228.816	12.97
229.28	12.82
229.744	12.68
230.207	12.55
230.671	12.41
231.134	12.29
231.597	12.19
232.061	12.04
232.524	11.92
232.987	11.8
233.45	11.7
233.914	11.58
234.377	11.47
234.84	11.34
235.303	11.23
235.766	11.15
236.229	11.04
236.691	10.93
237.154	10.84
237.617	10.75
238.08	10.65
238.542	10.53
239.005	10.44
239.468	10.34
239.93	10.27
240.393	10.19
240.855	10.09
241.317	10
241.78	9.91
242.242	9.81
242.704	9.74
243.166	9.66
243.629	9.59
244.091	9.51
244.553	9.44
245.015	9.35
245.477	9.28
245.939	9.2
246.4	9.14
246.862	9.07
247.324	9.01
247.786	8.94
248.247	8.87
248.709	8.79
249.17	8.72
249.632	8.67
250.093	8.62
250.555	8.56
251.016	8.5
251.477	8.44
251.939	8.39
252.4	8.34
252.861	8.29
253.322	8.26
253.783	8.22
254.244	8.18
254.705	8.13
255.166	8.08
255.627	8.04
256.088	8
256.549	7.96
257.009	7.92
257.47	7.87
257.931	7.82
258.391	7.76
258.852	7.72
259.312	7.68
259.773	7.64
260.233	7.61
260.694	7.57
261.154	7.53
261.614	7.5
262.074	7.46
262.534	7.43
262.994	7.41
263.455	7.38
263.915	7.35
264.374	7.33
264.834	7.31
265.294	7.29
265.754	7.27
266.214	7.25
266.673	7.23
267.133	7.21
267.593	7.19
268.052	7.16
268.512	7.15
268.971	7.13
269.431	7.11
269.89	7.08
270.349	7.06
270.809	7.04
271.268	7.02
271.727	6.99
272.186	6.97
272.645	6.96
273.104	6.94
273.563	6.92
274.022	6.9
274.481	6.88
274.94	6.86
275.399	6.84
275.857	6.82
276.316	6.8
276.775	6.77
277.233	6.76
277.692	6.73
278.15	6.71
278.609	6.68
279.067	6.66
279.525	6.64
279.984	6.61
280.442	6.59
280.9	6.57
281.358	6.54
281.816	6.53
282.274	6.5
282.732	6.48
283.19	6.45
283.648	6.43
284.106	6.4
284.564	6.38
285.021	6.36
285.479	6.34
285.937	6.32
286.394	6.31
286.852	6.28
287.309	6.26
287.767	6.24
288.224	6.22
288.682	6.19
289.139	6.17
289.596	6.14
290.053	6.11
290.511	6.08
290.968	6.06
291.425	6.03
291.882	6.01
292.339	6
292.796	5.98
293.252	5.97
293.709	5.96
294.166	5.95
294.623	5.93
295.079	5.92
295.536	5.9
295.992	5.88
296.449	5.87
296.905	5.85
297.362	5.83
297.818	5.81
298.274	5.79
298.731	5.77
299.187	5.75
299.643	5.73
300.099	5.71
300.555	5.69
301.011	5.68
301.467	5.66
301.923	5.64
302.379	5.62
302.835	5.61
303.291	5.59
303.746	5.58
304.202	5.56
304.658	5.55
305.113	5.53
305.569	5.52
306.024	5.5
306.479	5.49
306.935	5.47
307.39	5.45
307.845	5.44
308.301	5.43
308.756	5.41
309.211	5.39
309.666	5.39
310.121	5.36
310.576	5.34
311.031	5.33
311.486	5.32
311.94	5.32
312.395	5.3
312.85	5.3
313.305	5.28
313.759	5.27
314.214	5.27
314.668	5.25
315.123	5.24
315.577	5.22
316.032	5.21
316.486	5.2
316.94	5.18
317.394	5.16
317.849	5.14
318.303	5.13
318.757	5.12
319.211	5.1
319.665	5.08
320.119	5.07
320.572	5.06
321.026	5.05
321.48	5.04
321.934	5.03
322.387	5.01
322.841	5
323.295	4.98
323.748	4.96
324.202	4.95
324.655	4.94
325.108	4.93
325.562	4.92
326.015	4.91
326.468	4.91
326.921	4.9
327.374	4.89
327.827	4.88
328.28	4.87
328.733	4.87
329.186	4.86
329.639	4.86
330.092	4.85
330.545	4.84
330.997	4.82
331.45	4.81
331.903	4.8
332.355	4.81
332.808	4.8
333.26	4.79
333.713	4.78
334.165	4.77
334.617	4.76
335.069	4.75
335.522	4.74
335.974	4.74
336.426	4.73
336.878	4.72
337.33	4.7
337.782	4.69
338.234	4.7
338.686	4.69
339.137	4.69
339.589	4.68
340.041	4.68
340.493	4.66
340.944	4.65
341.396	4.64
341.847	4.62
342.299	4.6
342.75	4.58
343.201	4.56
343.653	4.55
344.104	4.52
344.555	4.5
345.006	4.47
345.457	4.47
345.908	4.46
346.359	4.46
346.81	4.45
347.261	4.44
347.712	4.43
348.163	4.42
348.613	4.41
349.064	4.41
349.515	4.4
349.965	4.4
350.416	4.38
350.866	4.38
351.317	4.35
351.767	4.35
352.217	4.34
352.668	4.34
353.118	4.33
353.568	4.32
354.018	4.32
354.468	4.31
354.918	4.31
355.368	4.31
355.818	4.31
356.268	4.3
356.718	4.3
357.168	4.29
357.617	4.28
358.067	4.29
358.517	4.29
358.966	4.28
359.416	4.28
359.865	4.27
360.315	4.26
360.764	4.26
361.213	4.26
361.663	4.25
362.112	4.26
362.561	4.27
363.01	4.26
363.459	4.25
363.908	4.24
364.357	4.24
364.806	4.23
365.255	4.22
365.703	4.23
366.152	4.23
366.601	4.23
367.05	4.22
367.498	4.21
367.947	4.21
368.395	4.21
368.844	4.21
369.292	4.2
369.74	4.2
370.189	4.2
370.637	4.2
371.085	4.2
371.533	4.21
371.981	4.2
372.429	4.2
372.877	4.2
373.325	4.2
373.773	4.19
374.221	4.21
374.669	4.2
375.116	4.19
375.564	4.19
376.012	4.19
376.459	4.18
376.907	4.19
377.354	4.2
377.801	4.21
378.249	4.22
378.696	4.23
379.143	4.24
379.591	4.25
380.038	4.27
380.485	4.28
380.932	4.29
381.379	4.3
381.826	4.32
382.273	4.32
382.72	4.32
383.166	4.34
383.613	4.34
384.06	4.35
384.506	4.37
384.953	4.38
385.4	4.39
385.846	4.42
386.292	4.44
386.739	4.45
387.185	4.47
387.631	4.5
388.078	4.52
388.524	4.55
388.97	4.57
389.416	4.6
389.862	4.63
390.308	4.67
390.754	4.69
391.2	4.71
391.645	4.74
392.091	4.78
392.537	4.8
392.983	4.82
393.428	4.84
393.874	4.87
394.319	4.89
394.765	4.9
395.21	4.92
395.655	4.94
396.101	4.97
396.546	4.98
396.991	4.99
397.436	5.02
397.881	5.05
398.326	5.07
398.771	5.1
399.216	5.11
399.661	5.14
400.106	5.15
400.551	5.15
400.995	5.14
401.44	5.15
401.885	5.15
402.329	5.17
402.774	5.16
403.218	5.17
403.663	5.17
404.107	5.17
404.551	5.17
404.995	5.17
405.44	5.18
405.884	5.18
406.328	5.19
406.772	5.18
407.216	5.18
407.66	5.18
408.104	5.16
408.547	5.17
408.991	5.17
409.435	5.17
409.879	5.15
410.322	5.15
410.766	5.16
411.209	5.16
411.653	5.17
412.096	5.17
412.54	5.16
412.983	5.16
413.426	5.18
413.869	5.18
414.312	5.19
414.756	5.2
415.199	5.21
415.642	5.21
416.085	5.2
416.527	5.19
416.97	5.17
417.413	5.17
417.856	5.17
418.298	5.15
418.741	5.15
419.184	5.14
419.626	5.13
420.069	5.12
420.511	5.11
420.953	5.11
421.396	5.11
421.838	5.11
422.28	5.11
422.722	5.11
423.164	5.12
423.606	5.12
424.048	5.11
424.49	5.12
424.932	5.11
425.374	5.1
425.816	5.06
426.258	5.05
426.699	5.04
427.141	5.03
427.582	5.02
428.024	5.01
428.465	5
428.907	4.99
429.348	4.97
429.789	4.96
430.231	4.97
430.672	4.99
431.113	4.99
431.554	5.01
431.995	5
432.436	5
432.877	5
433.318	5
433.759	5.01
434.2	5.04
434.64	5.05
435.081	5.05
435.522	5.06
435.962	5.07
436.403	5.08
436.843	5.1
437.284	5.1
437.724	5.11
438.164	5.12
438.604	5.13
439.045	5.13
439.485	5.14
439.925	5.16
440.365	5.17
440.805	5.18
441.245	5.18
441.685	5.21
442.125	5.25
442.564	5.27
443.004	5.26
443.444	5.26
443.883	5.28
444.323	5.28
444.762	5.29
445.202	5.31
445.641	5.34
446.081	5.38
446.52	5.38
446.959	5.4
447.398	5.43
447.837	5.47
448.276	5.51
448.716	5.54
449.154	5.57
449.593	5.59
450.032	5.61
450.471	5.61
450.91	5.61
451.349	5.63
451.787	5.61
452.226	5.61
452.664	5.6
453.103	5.6
453.541	5.61
453.98	5.61
454.418	5.61
454.856	5.6
455.295	5.6
455.733	5.59
456.171	5.59
456.609	5.59
457.047	5.59
457.485	5.57
457.923	5.57
458.361	5.55
458.798	5.56
459.236	5.55
459.674	5.56
460.111	5.56
460.549	5.57
460.987	5.57
461.424	5.58
461.862	5.59
462.299	5.61
462.736	5.6
463.173	5.61
463.611	5.59
464.048	5.59
464.485	5.58
464.922	5.58
465.359	5.58
465.796	5.57
466.233	5.57
466.67	5.57
467.106	5.59
467.543	5.59
467.98	5.59
468.416	5.6
468.853	5.61
469.29	5.62
469.726	5.62
470.162	5.62
470.599	5.61
471.035	5.6
471.471	5.6
471.907	5.59
472.344	5.59
472.78	5.59
473.216	5.58
473.652	5.58
474.088	5.56
474.523	5.57
474.959	5.58
475.395	5.57
475.831	5.57
476.266	5.57
476.702	5.56
477.138	5.55
477.573	5.55
478.008	5.56
478.444	5.56
478.879	5.57
479.314	5.55
479.75	5.54
480.185	5.54
480.62	5.55
481.055	5.54
481.49	5.54
481.925	5.54
482.36	5.53
482.795	5.53
483.229	5.53
483.664	5.53
484.099	5.54
484.534	5.54
484.968	5.57
485.403	5.57
485.837	5.59
486.271	5.6
486.706	5.63
487.14	5.64
487.574	5.66
488.009	5.68
488.443	5.7
488.877	5.74
489.311	5.77
489.745	5.79
490.179	5.84
490.613	5.88
491.046	5.93
491.48	5.97
491.914	6.03
492.348	6.09
492.781	6.15
493.215	6.21
493.648	6.27
494.082	6.34
494.515	6.41
494.948	6.48
495.382	6.55
495.815	6.64
496.248	6.73
496.681	6.82
497.114	6.91
497.547	7.01
497.98	7.11
498.413	7.22
498.846	7.33
499.279	7.45
499.711	7.57
500.144	7.7
500.577	7.84
501.009	7.97
501.442	8.12
501.874	8.28
502.306	8.43
502.739	8.6
503.171	8.77
503.603	8.95
504.036	9.14
504.468	9.33
504.9	9.52
505.332	9.72
505.764	9.93
506.196	10.14
506.627	10.37
507.059	10.6
507.491	10.83
507.923	11.08
508.354	11.34
508.786	11.59
509.217	11.86
509.649	12.14
510.08	12.42
510.512	12.7
510.943	12.97
511.374	13.25
511.805	13.54
512.237	13.83
512.668	14.13
513.099	14.41
513.53	14.71
513.961	15.01
514.391	15.31
514.822	15.62
515.253	15.91
515.684	16.21
516.114	16.53
516.545	16.84
516.975	17.16
517.406	17.46
517.836	17.77
518.267	18.08
518.697	18.38
519.127	18.65
519.558	18.96
519.988	19.27
520.418	19.57
520.848	19.84
521.278	20.13
521.708	20.42
522.138	20.7
522.567	20.98
522.997	21.22
523.427	21.47
523.857	21.73
524.286	21.94
524.716	22.17
525.145	22.39
525.575	22.6
526.004	22.8
526.433	22.97
526.863	23.15
527.292	23.33
527.721	23.51
528.15	23.67
528.579	23.84
529.008	23.99
529.437	24.13
529.866	24.27
530.295	24.4
530.724	24.51
531.152	24.63
531.581	24.74
532.01	24.86
532.438	24.95
532.867	25.05
533.295	25.14
533.723	25.23
534.152	25.32
534.58	25.4
535.008	25.47
535.436	25.56
535.865	25.63
536.293	25.7
536.721	25.74
537.149	25.81
537.576	25.87
538.004	25.91
538.432	25.95
538.86	26
539.287	26.04
539.715	26.09
540.143	26.13
540.57	26.16
540.998	26.17
541.425	26.23
541.852	26.26
542.28	26.28
542.707	26.31
543.134	26.35
543.561	26.39
543.988	26.41
544.415	26.43
544.842	26.45
545.269	26.48
545.696	26.52
546.123	26.53
546.549	26.55
546.976	26.58
547.403	26.6
547.829	26.61
548.256	26.6
548.682	26.61
549.108	26.63
549.535	26.65
549.961	26.65
550.387	26.64
550.813	26.64
551.24	26.63
551.666	26.61
552.092	26.6
552.518	26.58
552.943	26.56
553.369	26.54
553.795	26.51
554.221	26.46
554.646	26.43
555.072	26.4
555.498	26.34
555.923	26.28
556.349	26.23
556.774	26.15
557.199	26.09
557.625	26.02
558.05	25.95
558.475	25.87
558.9	25.8
559.325	25.71
559.75	25.63
560.175	25.56
560.6	25.44
561.025	25.35
561.449	25.25
561.874	25.15
562.299	25.03
562.723	24.91
563.148	24.78
563.572	24.64
563.997	24.51
564.421	24.36
564.846	24.23
565.27	24.09
565.694	23.95
566.118	23.81
566.542	23.65
566.966	23.51
567.39	23.36
567.814	23.21
568.238	23.06
568.662	22.92
569.086	22.76
569.509	22.62
569.933	22.49
570.357	22.33
570.78	22.18
571.204	22.04
571.627	21.9
572.05	21.76
572.474	21.64
572.897	21.51
573.32	21.36
573.743	21.23
574.166	21.1
574.589	20.95
575.012	20.83
575.435	20.71
575.858	20.59
576.281	20.48
576.704	20.35
577.126	20.23
577.549	20.11
577.972	20.02
578.394	19.92
578.817	19.8
579.239	19.72
579.661	19.63
580.084	19.54
580.506	19.46
580.928	19.37
581.35	19.29
581.772	19.19
582.194	19.11
582.616	19.03
583.038	18.94
583.46	18.87
583.882	18.79
584.303	18.72
584.725	18.64
585.147	18.54
585.568	18.46
585.99	18.4
586.411	18.35
586.833	18.29
587.254	18.22
587.675	18.17
588.096	18.12
588.518	18.06
588.939	18.02
589.36	17.96
589.781	17.93
590.202	17.89
590.623	17.84
591.043	17.8
591.464	17.76
591.885	17.72
592.305	17.69
592.726	17.66
593.147	17.64
593.567	17.59
593.987	17.56
594.408	17.52
594.828	17.47
595.248	17.43
595.669	17.39
596.089	17.35
596.509	17.32
596.929	17.27
597.349	17.21
597.769	17.18
598.189	17.14
598.608	17.1
599.028	17.07
599.448	17.04
599.867	17
600.287	16.96
600.706	16.92
601.126	16.87
601.545	16.82
601.965	16.79
602.384	16.72
602.803	16.65
603.222	16.6
603.641	16.53
604.061	16.46
604.48	16.38
604.898	16.3
605.317	16.22
605.736	16.14
606.155	16.06
606.574	15.96
606.992	15.88
607.411	15.8
607.829	15.68
608.248	15.59
608.666	15.51
609.085	15.43
609.503	15.34
609.921	15.26
610.339	15.17
610.758	15.09
611.176	15
611.594	14.91
612.012	14.82
612.43	14.75
612.847	14.67
613.265	14.58
613.683	14.49
614.101	14.42
614.518	14.33
614.936	14.25
615.353	14.16
615.771	14.09
616.188	14.01
616.606	13.93
617.023	13.87
617.44	13.82
617.857	13.75
618.274	13.69
618.691	13.62
619.108	13.57
619.525	13.51
619.942	13.47
620.359	13.42
620.776	13.39
621.192	13.37
621.609	13.33
622.026	13.29
622.442	13.26
622.859	13.23
623.275	13.21
623.691	13.2
624.108	13.19
624.524	13.17
624.94	13.17
625.356	13.16
625.772	13.15
626.188	13.14
626.604	13.13
627.02	13.12
627.436	13.12
627.852	13.12
628.268	13.1
628.683	13.1
629.099	13.1
629.514	13.08
629.93	13.05
630.345	13.03
630.761	13.01
631.176	12.99
631.591	12.96
632.007	12.92
632.422	12.89
632.837	12.84
633.252	12.79
633.667	12.72
634.082	12.65
634.497	12.6
634.911	12.52
635.326	12.45
635.741	12.37
636.155	12.27
636.57	12.17
636.984	12.06
637.399	11.96
637.813	11.84
638.228	11.73
638.642	11.62
639.056	11.49
639.47	11.38
639.884	11.25
640.298	11.1
640.712	10.98
641.126	10.85
641.54	10.72
641.954	10.59
642.368	10.46
642.781	10.33
643.195	10.2
643.609	10.07
644.022	9.94
644.436	9.82
644.849	9.71
645.262	9.6
645.676	9.48
646.089	9.37
646.502	9.27
646.915	9.18
647.328	9.09
647.741	9.01
648.154	8.93
648.567	8.84
648.98	8.77
649.393	8.69
649.805	8.63
650.218	8.56
650.631	8.5
651.043	8.44
651.456	8.38
651.868	8.31
652.28	8.24
652.693	8.17
653.105	8.11
653.517	8.04
653.929	7.98
654.341	7.89
654.753	7.81
655.165	7.73
655.577	7.65
655.989	7.55
656.401	7.45
656.813	7.37
657.224	7.27
657.636	7.17
658.047	7.07
658.459	6.95
658.87	6.84
659.282	6.73
659.693	6.62
660.104	6.52
660.515	6.42
660.926	6.32
661.338	6.22
661.749	6.12
662.159	6.02
662.57	5.95
662.981	5.86
663.392	5.78
663.803	5.71
664.213	5.63
664.624	5.55
665.035	5.48
665.445	5.42
665.855	5.36
666.266	5.3
666.676	5.26
667.086	5.2
667.497	5.16
667.907	5.12
668.317	5.08
668.727	5.05
669.137	5.03
669.547	5.01
669.956	4.98
670.366	4.97
670.776	4.95
671.186	4.94
671.595	4.93
672.005	4.92
672.414	4.92
672.824	4.91
673.233	4.91
673.642	4.91
674.052	4.92
674.461	4.93
674.87	4.94
675.279	4.96
675.688	4.97
676.097	5
676.506	5.03
676.915	5.06
677.323	5.11
677.732	5.14
678.141	5.18
678.549	5.22
678.958	5.27
679.366	5.33
679.775	5.39
680.183	5.47
680.592	5.56
681	5.65
681.408	5.76
681.816	5.88
682.224	6.02
682.632	6.17
683.04	6.35
683.448	6.54
683.856	6.74
684.264	6.97
684.671	7.22
685.079	7.5
685.487	7.81
685.894	8.14
686.302	8.5
686.709	8.88
687.116	9.28
687.524	9.7
687.931	10.16
688.338	10.63
688.745	11.12
689.152	11.64
689.559	12.17
689.966	12.74
690.373	13.31
690.78	13.9
691.187	14.5
691.593	15.1
692	15.73
692.407	16.34
692.813	16.97
693.22	17.61
693.626	18.25
694.032	18.88
694.439	19.48
694.845	20.11
695.251	20.71
695.657	21.31
696.063	21.91
696.469	22.5
696.875	23.11
697.281	23.69
697.687	24.26
698.093	24.82
698.498	25.36
698.904	25.9
699.31	26.4
699.715	26.91
700.12	27.41
700.526	27.91
700.931	28.41
701.337	28.86
701.742	29.3
702.147	29.75
702.552	30.17
702.957	30.56
703.362	30.96
703.767	31.37
704.172	31.76
704.577	32.14
704.981	32.48
705.386	32.82
705.791	33.17
706.195	33.52
706.6	33.85
707.004	34.18
707.408	34.53
707.813	34.86
708.217	35.16
708.621	35.46
709.025	35.75
709.43	36.03
709.834	36.33
710.237	36.62
710.641	36.9
711.045	37.16
711.449	37.44
711.853	37.7
712.256	37.95
712.66	38.22
713.064	38.48
713.467	38.73
713.87	38.98
714.274	39.19
714.677	39.4
715.08	39.62
715.484	39.84
715.887	40.05
716.29	40.23
716.693	40.43
717.096	40.6
717.499	40.78
717.901	40.98
718.304	41.17
718.707	41.37
719.109	41.54
719.512	41.71
719.915	41.88
720.317	42.03
720.719	42.15
721.122	42.3
721.524	42.46
721.926	42.6
722.328	42.73
722.731	42.85
723.133	42.98
723.535	43.11
723.937	43.24
724.338	43.35
724.74	43.46
725.142	43.65
725.544	43.76
725.945	43.87
726.347	43.96
726.748	44.05
727.15	44.15
727.551	44.22
727.952	44.3
728.354	44.4
728.755	44.47
729.156	44.55
729.557	44.56
729.958	44.6
730.359	44.65
730.76	44.74
731.161	44.8
731.562	44.87
731.962	44.92
732.363	44.98
732.763	45.03
733.164	45.07
733.564	45.12
733.965	45.18
734.365	45.27
734.766	45.33
735.166	45.37
735.566	45.43
735.966	45.46
736.366	45.52
736.766	45.54
737.166	45.58
737.566	45.61
737.966	45.65
738.365	45.7
738.765	45.71
739.165	45.74
739.564	45.78
739.964	45.79
740.363	45.79
740.763	45.83
741.162	45.87
741.561	45.88
741.96	45.89
742.36	45.91
742.759	45.93
743.158	45.97
743.557	45.95
743.955	45.96
744.354	45.99
744.753	46.02
745.152	46.05
745.55	46.06
745.949	46.09
746.348	46.11
746.746	46.11
747.144	46.12
747.543	46.12
747.941	46.16
748.339	46.15
748.737	46.16
749.136	46.16
749.534	46.14
749.932	46.14
750.33	46.14
750.727	46.16
751.125	46.17
751.523	46.16
751.921	46.16
752.318	46.18
752.716	46.2
753.113	46.21
753.511	46.22
753.908	46.25
754.305	46.24
754.703	46.2
755.1	46.19
755.497	46.2
755.894	46.2
756.291	46.18
756.688	46.13
757.085	46.12
757.482	46.1
757.878	46.1
758.275	46.08
758.672	46.11
759.068	46.18
759.465	46.18
759.861	46.17
760.258	46.18
760.654	46.19
761.05	46.2
761.447	46.22
761.843	46.23
762.239	46.23
762.635	46.22
763.031	46.2
763.427	46.15
763.822	46.16
764.218	46.18
764.614	46.16
765.01	46.14
765.405	46.12
765.801	46.1
766.196	46.07
766.592	46.06
766.987	46.07
767.382	46.04
767.778	46.02
768.173	46.03
768.568	45.98
768.963	46
769.358	46.03
769.753	46.06
770.148	46.08
770.542	46.1
770.937	46.07
771.332	46.06
771.726	46.07
772.121	46.07
772.515	46.05
772.91	46.05
773.304	46.04
773.699	46.05
774.093	46.03
774.487	46
774.881	46
775.275	46
775.669	45.96
776.063	45.96
776.457	45.97
776.851	45.95
777.245	45.95
777.638	45.9
778.032	45.9
778.425	45.9
778.819	45.89
779.212	45.9
779.606	45.94
779.999	45.97
780.392	46
780.786	45.97
781.179	45.99
781.572	46.02
781.965	46.05
782.358	46.03
