Data from N_1_DIV_WI_4n_Splice17_12-21-05-505.txt Node
Date: Sat Mar 07 12:21:05 EST 2020
User: sa697716
Spectrometer: NQ5500242
Trigger mode: 0
Integration Time (sec): 1.450000E-1
Scans to average: 20
Nonlinearity correction enabled: false
Boxcar width: 5
Storing dark spectrum: false
XAxis mode: Wavelengths
Number of Pixels in Spectrum: 512
>>>>>Begin Spectral Data<<<<<
187.83	16.04
188.298	13.16
188.766	14.47
189.233	23.54
189.701	19.63
190.169	43.17
190.636	31.34
191.104	-28.3
191.571	-106.82
192.039	205.42
192.506	282.25
192.974	-17.89
193.441	-15.81
193.908	23.46
194.375	43.31
194.842	10.62
195.31	117.31
195.777	229.75
196.244	36.89
196.711	31.01
197.177	32.17
197.644	30.09
198.111	29.49
198.578	28.55
199.045	28.82
199.511	28.55
199.978	28.29
200.445	28.28
200.911	28.24
201.378	28.4
201.844	28.24
202.31	27.85
202.777	28.1
203.243	28.32
203.709	28.8
204.176	28.5
204.642	28.67
205.108	29.06
205.574	28.79
206.04	28.55
206.506	28.2
206.972	28.33
207.438	28.2
207.903	27.48
208.369	26.81
208.835	26.01
209.301	25.5
209.766	24.55
210.232	23.75
210.697	23.05
211.163	22.51
211.628	21.69
212.094	20.96
212.559	20.42
213.024	20.04
213.49	19.55
213.955	18.99
214.42	18.49
214.885	18.24
215.35	17.46
215.815	16.43
216.28	15.35
216.745	14.23
217.21	12.97
217.675	11.89
218.14	10.94
218.604	10.08
219.069	9.34
219.534	8.68
219.998	8.06
220.463	7.65
220.927	7.28
221.392	6.95
221.856	6.7
222.32	6.46
222.785	6.26
223.249	6.06
223.713	5.9
224.177	5.76
224.642	5.65
225.106	5.52
225.57	5.39
226.034	5.3
226.497	5.2
226.961	5.12
227.425	5.03
227.889	4.95
228.353	4.87
228.816	4.79
229.28	4.71
229.744	4.63
230.207	4.57
230.671	4.5
231.134	4.45
231.597	4.39
232.061	4.33
232.524	4.28
232.987	4.25
233.45	4.22
233.914	4.17
234.377	4.14
234.84	4.11
235.303	4.09
235.766	4.05
236.229	4.02
236.691	3.98
237.154	3.96
237.617	3.92
238.08	3.89
238.542	3.85
239.005	3.84
239.468	3.8
239.93	3.77
240.393	3.75
240.855	3.73
241.317	3.7
241.78	3.68
242.242	3.64
242.704	3.63
243.166	3.6
243.629	3.58
244.091	3.54
244.553	3.51
245.015	3.48
245.477	3.44
245.939	3.42
246.4	3.39
246.862	3.37
247.324	3.35
247.786	3.32
248.247	3.3
248.709	3.26
249.17	3.24
249.632	3.23
250.093	3.22
250.555	3.2
251.016	3.19
251.477	3.16
251.939	3.14
252.4	3.13
252.861	3.12
253.322	3.11
253.783	3.1
254.244	3.09
254.705	3.07
255.166	3.04
255.627	3.03
256.088	3.01
256.549	3
257.009	2.98
257.47	2.96
257.931	2.93
258.391	2.91
258.852	2.88
259.312	2.86
259.773	2.85
260.233	2.84
260.694	2.82
261.154	2.8
261.614	2.78
262.074	2.77
262.534	2.76
262.994	2.75
263.455	2.73
263.915	2.72
264.374	2.71
264.834	2.7
265.294	2.69
265.754	2.68
266.214	2.67
266.673	2.66
267.133	2.65
267.593	2.65
268.052	2.64
268.512	2.64
268.971	2.64
269.431	2.64
269.89	2.63
270.349	2.63
270.809	2.62
271.268	2.62
271.727	2.61
272.186	2.6
272.645	2.59
273.104	2.58
273.563	2.57
274.022	2.56
274.481	2.56
274.94	2.56
275.399	2.55
275.857	2.54
276.316	2.54
276.775	2.54
277.233	2.54
277.692	2.54
278.15	2.53
278.609	2.53
279.067	2.53
279.525	2.53
279.984	2.53
280.442	2.52
280.9	2.52
281.358	2.52
281.816	2.52
282.274	2.52
282.732	2.52
283.19	2.52
283.648	2.51
284.106	2.5
284.564	2.49
285.021	2.5
285.479	2.5
285.937	2.49
286.394	2.49
286.852	2.48
287.309	2.48
287.767	2.47
288.224	2.47
288.682	2.47
289.139	2.46
289.596	2.46
290.053	2.44
290.511	2.44
290.968	2.44
291.425	2.43
291.882	2.42
292.339	2.41
292.796	2.41
293.252	2.4
293.709	2.4
294.166	2.4
294.623	2.39
295.079	2.39
295.536	2.39
295.992	2.39
296.449	2.38
296.905	2.38
297.362	2.38
297.818	2.38
298.274	2.38
298.731	2.37
299.187	2.37
299.643	2.37
300.099	2.37
300.555	2.37
301.011	2.36
301.467	2.35
301.923	2.34
302.379	2.34
302.835	2.35
303.291	2.34
303.746	2.34
304.202	2.34
304.658	2.34
305.113	2.34
305.569	2.33
306.024	2.34
306.479	2.33
306.935	2.33
307.39	2.34
307.845	2.33
308.301	2.34
308.756	2.34
309.211	2.34
309.666	2.34
310.121	2.35
310.576	2.35
311.031	2.35
311.486	2.35
311.94	2.36
312.395	2.36
312.85	2.36
313.305	2.36
313.759	2.36
314.214	2.36
314.668	2.35
315.123	2.35
315.577	2.34
316.032	2.34
316.486	2.34
316.94	2.33
317.394	2.33
317.849	2.33
318.303	2.32
318.757	2.32
319.211	2.32
319.665	2.31
320.119	2.31
320.572	2.31
321.026	2.31
321.48	2.31
321.934	2.3
322.387	2.3
322.841	2.3
323.295	2.3
323.748	2.31
324.202	2.3
324.655	2.3
325.108	2.3
325.562	2.3
326.015	2.3
326.468	2.31
326.921	2.31
327.374	2.31
327.827	2.31
328.28	2.3
328.733	2.3
329.186	2.31
329.639	2.31
330.092	2.32
330.545	2.32
330.997	2.32
331.45	2.32
331.903	2.33
332.355	2.34
332.808	2.35
333.26	2.35
333.713	2.35
334.165	2.35
334.617	2.35
335.069	2.34
335.522	2.34
335.974	2.35
336.426	2.35
336.878	2.34
337.33	2.33
337.782	2.33
338.234	2.34
338.686	2.35
339.137	2.36
339.589	2.36
340.041	2.36
340.493	2.35
340.944	2.34
341.396	2.34
341.847	2.34
342.299	2.33
342.75	2.33
343.201	2.32
343.653	2.32
344.104	2.3
344.555	2.3
345.006	2.29
345.457	2.3
345.908	2.3
346.359	2.3
346.81	2.29
347.261	2.29
347.712	2.29
348.163	2.28
348.613	2.28
349.064	2.29
349.515	2.28
349.965	2.28
350.416	2.27
350.866	2.27
351.317	2.26
351.767	2.27
352.217	2.28
352.668	2.28
353.118	2.28
353.568	2.28
354.018	2.29
354.468	2.3
354.918	2.3
355.368	2.31
355.818	2.32
356.268	2.33
356.718	2.34
357.168	2.33
357.617	2.32
358.067	2.33
358.517	2.34
358.966	2.35
359.416	2.34
359.865	2.35
360.315	2.35
360.764	2.36
361.213	2.36
361.663	2.36
362.112	2.38
362.561	2.39
363.01	2.38
363.459	2.37
363.908	2.38
364.357	2.4
364.806	2.4
365.255	2.41
365.703	2.41
366.152	2.42
366.601	2.44
367.05	2.45
367.498	2.45
367.947	2.47
368.395	2.49
368.844	2.5
369.292	2.51
369.74	2.53
370.189	2.55
370.637	2.57
371.085	2.59
371.533	2.6
371.981	2.63
372.429	2.66
372.877	2.68
373.325	2.71
373.773	2.72
374.221	2.75
374.669	2.76
375.116	2.79
375.564	2.81
376.012	2.83
376.459	2.86
376.907	2.89
377.354	2.92
377.801	2.95
378.249	2.98
378.696	3.01
379.143	3.04
379.591	3.07
380.038	3.11
380.485	3.14
380.932	3.18
381.379	3.21
381.826	3.24
382.273	3.27
382.72	3.29
383.166	3.34
383.613	3.36
384.06	3.39
384.506	3.43
384.953	3.46
385.4	3.48
385.846	3.52
386.292	3.54
386.739	3.56
387.185	3.59
387.631	3.63
388.078	3.65
388.524	3.68
388.97	3.7
389.416	3.73
389.862	3.76
390.308	3.79
390.754	3.82
391.2	3.85
391.645	3.87
392.091	3.9
392.537	3.92
392.983	3.94
393.428	3.96
393.874	3.99
394.319	4.01
394.765	4.01
395.21	4.03
395.655	4.04
396.101	4.05
396.546	4.07
396.991	4.08
397.436	4.08
397.881	4.1
398.326	4.12
398.771	4.13
399.216	4.14
399.661	4.16
400.106	4.16
400.551	4.16
400.995	4.15
401.44	4.16
401.885	4.16
402.329	4.17
402.774	4.17
403.218	4.18
403.663	4.18
404.107	4.18
404.551	4.18
404.995	4.17
405.44	4.18
405.884	4.18
406.328	4.19
406.772	4.18
407.216	4.18
407.66	4.17
408.104	4.16
408.547	4.16
408.991	4.16
409.435	4.15
409.879	4.16
410.322	4.17
410.766	4.17
411.209	4.17
411.653	4.19
412.096	4.19
412.54	4.19
412.983	4.19
413.426	4.21
413.869	4.21
414.312	4.24
414.756	4.24
415.199	4.22
415.642	4.23
416.085	4.23
416.527	4.21
416.97	4.19
417.413	4.18
417.856	4.19
418.298	4.16
418.741	4.16
419.184	4.15
419.626	4.14
420.069	4.15
420.511	4.15
420.953	4.15
421.396	4.16
421.838	4.17
422.28	4.18
422.722	4.19
423.164	4.19
423.606	4.18
424.048	4.18
424.49	4.18
424.932	4.17
425.374	4.16
425.816	4.14
426.258	4.14
426.699	4.13
427.141	4.12
427.582	4.11
428.024	4.12
428.465	4.13
428.907	4.12
429.348	4.11
429.789	4.1
430.231	4.12
430.672	4.13
431.113	4.14
431.554	4.14
431.995	4.15
432.436	4.15
432.877	4.16
433.318	4.16
433.759	4.17
434.2	4.19
434.64	4.2
435.081	4.2
435.522	4.21
435.962	4.21
436.403	4.23
436.843	4.24
437.284	4.24
437.724	4.24
438.164	4.24
438.604	4.25
439.045	4.25
439.485	4.26
439.925	4.27
440.365	4.28
440.805	4.29
441.245	4.31
441.685	4.32
442.125	4.34
442.564	4.34
443.004	4.35
443.444	4.35
443.883	4.36
444.323	4.35
444.762	4.35
445.202	4.35
445.641	4.36
446.081	4.35
446.52	4.33
446.959	4.33
447.398	4.34
447.837	4.35
448.276	4.35
448.716	4.35
449.154	4.37
449.593	4.38
450.032	4.38
450.471	4.37
450.91	4.36
451.349	4.38
451.787	4.38
452.226	4.37
452.664	4.37
453.103	4.36
453.541	4.36
453.98	4.36
454.418	4.34
454.856	4.35
455.295	4.35
455.733	4.32
456.171	4.33
456.609	4.33
457.047	4.32
457.485	4.32
457.923	4.31
458.361	4.31
458.798	4.31
459.236	4.32
459.674	4.31
460.111	4.31
460.549	4.33
460.987	4.32
461.424	4.32
461.862	4.33
462.299	4.33
462.736	4.35
463.173	4.35
463.611	4.34
464.048	4.35
464.485	4.36
464.922	4.36
465.359	4.37
465.796	4.38
466.233	4.38
466.67	4.37
467.106	4.38
467.543	4.37
467.98	4.36
468.416	4.35
468.853	4.35
469.29	4.34
469.726	4.34
470.162	4.34
470.599	4.34
471.035	4.33
471.471	4.33
471.907	4.33
472.344	4.32
472.78	4.33
473.216	4.32
473.652	4.32
474.088	4.32
474.523	4.33
474.959	4.33
475.395	4.31
475.831	4.29
476.266	4.29
476.702	4.28
477.138	4.28
477.573	4.27
478.008	4.28
478.444	4.27
478.879	4.27
479.314	4.25
479.75	4.25
480.185	4.24
480.62	4.24
481.055	4.23
481.49	4.23
481.925	4.24
482.36	4.23
482.795	4.23
483.229	4.22
483.664	4.23
484.099	4.23
484.534	4.21
484.968	4.22
485.403	4.23
485.837	4.24
486.271	4.25
486.706	4.26
487.14	4.27
487.574	4.28
488.009	4.3
488.443	4.3
488.877	4.32
489.311	4.35
489.745	4.37
490.179	4.39
490.613	4.41
491.046	4.42
491.48	4.45
491.914	4.47
492.348	4.49
492.781	4.52
493.215	4.56
493.648	4.59
494.082	4.62
494.515	4.65
494.948	4.69
495.382	4.72
495.815	4.76
496.248	4.8
496.681	4.84
497.114	4.89
497.547	4.94
497.98	4.98
498.413	5.03
498.846	5.09
499.279	5.15
499.711	5.21
500.144	5.27
500.577	5.35
501.009	5.41
501.442	5.48
501.874	5.57
502.306	5.64
502.739	5.72
503.171	5.82
503.603	5.91
504.036	6.01
504.468	6.1
504.9	6.2
505.332	6.3
505.764	6.42
506.196	6.55
506.627	6.66
507.059	6.79
507.491	6.92
507.923	7.04
508.354	7.19
508.786	7.33
509.217	7.48
509.649	7.64
510.08	7.78
510.512	7.95
510.943	8.09
511.374	8.25
511.805	8.42
512.237	8.59
512.668	8.77
513.099	8.93
513.53	9.1
513.961	9.29
514.391	9.47
514.822	9.68
515.253	9.85
515.684	10.05
516.114	10.25
516.545	10.45
516.975	10.65
517.406	10.85
517.836	11.05
518.267	11.27
518.697	11.46
519.127	11.66
519.558	11.86
519.988	12.07
520.418	12.26
520.848	12.44
521.278	12.64
521.708	12.98
522.138	13.17
522.567	13.34
522.997	13.52
523.427	13.7
523.857	13.85
524.286	14.01
524.716	14.17
525.145	14.33
525.575	14.49
526.004	14.64
526.433	14.62
526.863	14.75
527.292	14.9
527.721	15.02
528.15	15.15
528.579	15.29
529.008	15.39
529.437	15.5
529.866	15.59
530.295	15.68
530.724	15.77
531.152	15.86
531.581	15.95
532.01	16.01
532.438	16.1
532.867	16.16
533.295	16.24
533.723	16.3
534.152	16.37
534.58	16.44
535.008	16.48
535.436	16.53
535.865	16.58
536.293	16.63
536.721	16.67
537.149	16.71
537.576	16.74
538.004	16.77
538.432	16.8
538.86	16.83
539.287	16.85
539.715	16.9
540.143	16.93
540.57	16.95
540.998	16.97
541.425	16.99
541.852	17.01
542.28	17.03
542.707	17.05
543.134	17.07
543.561	17.1
543.988	17.12
544.415	17.13
544.842	17.13
545.269	17.16
545.696	17.17
546.123	17.2
546.549	17.21
546.976	17.22
547.403	17.24
547.829	17.25
548.256	17.25
548.682	17.27
549.108	17.28
549.535	17.28
549.961	17.28
550.387	17.29
550.813	17.29
551.24	17.29
551.666	17.28
552.092	17.28
552.518	17.28
552.943	17.27
553.369	17.25
553.795	17.23
554.221	17.2
554.646	17.18
555.072	17.14
555.498	17.11
555.923	17.07
556.349	17.03
556.774	16.98
557.199	16.92
557.625	16.85
558.05	16.78
558.475	16.73
558.9	16.68
559.325	16.6
559.75	16.54
560.175	16.47
560.6	16.39
561.025	16.31
561.449	16.22
561.874	16.14
562.299	16.05
562.723	15.96
563.148	15.86
563.572	15.75
563.997	15.64
564.421	15.53
564.846	15.42
565.27	15.31
565.694	15.22
566.118	15.12
566.542	15
566.966	14.9
567.39	14.8
567.814	14.69
568.238	14.59
568.662	14.49
569.086	14.39
569.509	14.29
569.933	14.19
570.357	14.07
570.78	13.97
571.204	13.87
571.627	13.76
572.05	13.66
572.474	13.58
572.897	13.49
573.32	13.4
573.743	13.3
574.166	13.21
574.589	13.12
575.012	13.04
575.435	12.96
575.858	12.87
576.281	12.8
576.704	12.72
577.126	12.64
577.549	12.56
577.972	12.48
578.394	12.42
578.817	12.34
579.239	12.28
579.661	12.21
580.084	12.13
580.506	12.09
580.928	12.03
581.35	11.96
581.772	11.89
582.194	11.84
582.616	11.78
583.038	11.72
583.46	11.66
583.882	11.62
584.303	11.56
584.725	11.52
585.147	11.46
585.568	11.41
585.99	11.36
586.411	11.32
586.833	11.27
587.254	11.22
587.675	11.18
588.096	11.14
588.518	11.09
588.939	11.06
589.36	11.01
589.781	10.98
590.202	10.96
590.623	10.92
591.043	10.89
591.464	10.87
591.885	10.84
592.305	10.81
592.726	10.78
593.147	10.76
593.567	10.73
593.987	10.7
594.408	10.67
594.828	10.64
595.248	10.61
595.669	10.6
596.089	10.57
596.509	10.55
596.929	10.53
597.349	10.5
597.769	10.47
598.189	10.45
598.608	10.44
599.028	10.42
599.448	10.38
599.867	10.35
600.287	10.32
600.706	10.29
601.126	10.26
601.545	10.23
601.965	10.2
602.384	10.17
602.803	10.13
603.222	10.08
603.641	10.05
604.061	10.02
604.48	9.98
604.898	9.94
605.317	9.89
605.736	9.84
606.155	9.8
606.574	9.77
606.992	9.72
607.411	9.67
607.829	9.61
608.248	9.55
608.666	9.49
609.085	9.44
609.503	9.4
609.921	9.36
610.339	9.32
610.758	9.27
611.176	9.21
611.594	9.16
612.012	9.11
612.43	9.08
612.847	9.02
613.265	8.98
613.683	8.94
614.101	8.89
614.518	8.83
614.936	8.78
615.353	8.72
615.771	8.67
616.188	8.63
616.606	8.59
617.023	8.56
617.44	8.53
617.857	8.49
618.274	8.45
618.691	8.41
619.108	8.38
619.525	8.36
619.942	8.33
620.359	8.3
620.776	8.29
621.192	8.27
621.609	8.25
622.026	8.22
622.442	8.21
622.859	8.18
623.275	8.17
623.691	8.16
624.108	8.14
624.524	8.13
624.94	8.12
625.356	8.1
625.772	8.08
626.188	8.07
626.604	8.06
627.02	8.05
627.436	8.04
627.852	8.03
628.268	8.02
628.683	8.02
629.099	8
629.514	7.99
629.93	7.98
630.345	7.97
630.761	7.95
631.176	7.92
631.591	7.89
632.007	7.87
632.422	7.84
632.837	7.81
633.252	7.77
633.667	7.73
634.082	7.67
634.497	7.63
634.911	7.57
635.326	7.51
635.741	7.47
636.155	7.41
636.57	7.35
636.984	7.28
637.399	7.21
637.813	7.14
638.228	7.07
638.642	7.01
639.056	6.93
639.47	6.86
639.884	6.79
640.298	6.71
640.712	6.63
641.126	6.56
641.54	6.48
641.954	6.4
642.368	6.33
642.781	6.26
643.195	6.19
643.609	6.13
644.022	6.07
644.436	6.01
644.849	5.95
645.262	5.9
645.676	5.85
646.089	5.81
646.502	5.76
646.915	5.73
647.328	5.68
647.741	5.65
648.154	5.61
648.567	5.58
648.98	5.55
649.393	5.52
649.805	5.5
650.218	5.47
650.631	5.45
651.043	5.43
651.456	5.41
651.868	5.4
652.28	5.37
652.693	5.35
653.105	5.33
653.517	5.31
653.929	5.29
654.341	5.26
654.753	5.23
655.165	5.2
655.577	5.16
655.989	5.13
656.401	5.09
656.813	5.06
657.224	5.02
657.636	4.97
658.047	4.94
658.459	4.89
658.87	4.85
659.282	4.8
659.693	4.77
660.104	4.72
660.515	4.68
660.926	4.64
661.338	4.6
661.749	4.56
662.159	4.53
662.57	4.49
662.981	4.46
663.392	4.43
663.803	4.42
664.213	4.39
664.624	4.36
665.035	4.34
665.445	4.32
665.855	4.3
666.266	4.29
666.676	4.29
667.086	4.27
667.497	4.26
667.907	4.26
668.317	4.24
668.727	4.24
669.137	4.24
669.547	4.24
669.956	4.24
670.366	4.24
670.776	4.25
671.186	4.26
671.595	4.27
672.005	4.28
672.414	4.3
672.824	4.31
673.233	4.33
673.642	4.35
674.052	4.36
674.461	4.38
674.87	4.4
675.279	4.42
675.688	4.45
676.097	4.46
676.506	4.49
676.915	4.51
677.323	4.55
677.732	4.57
678.141	4.6
678.549	4.63
678.958	4.66
679.366	4.71
679.775	4.74
680.183	4.79
680.592	4.83
681	4.88
681.408	4.93
681.816	4.98
682.224	5.05
682.632	5.11
683.04	5.18
683.448	5.26
683.856	5.32
684.264	5.41
684.671	5.51
685.079	5.62
685.487	5.73
685.894	5.86
686.302	6.01
686.709	6.16
687.116	6.33
687.524	6.52
687.931	6.72
688.338	6.96
688.745	7.2
689.152	7.44
689.559	7.71
689.966	8.01
690.373	8.31
690.78	8.63
691.187	8.95
691.593	9.3
692	9.66
692.407	10.02
692.813	10.39
693.22	10.76
693.626	11.16
694.032	11.55
694.439	11.95
694.845	12.36
695.251	12.77
695.657	13.19
696.063	13.6
696.469	14.01
696.875	14.43
697.281	14.85
697.687	15.27
698.093	15.69
698.498	16.11
698.904	16.53
699.31	16.92
699.715	17.32
700.12	17.73
700.526	18.14
700.931	18.53
701.337	18.93
701.742	19.31
702.147	19.7
702.552	20.08
702.957	20.43
703.362	20.78
703.767	21.14
704.172	21.49
704.577	21.83
704.981	22.16
705.386	22.49
705.791	22.82
706.195	23.14
706.6	23.47
707.004	23.76
707.408	24.08
707.813	24.4
708.217	24.7
708.621	25.01
709.025	25.3
709.43	25.6
709.834	25.88
710.237	26.16
710.641	26.45
711.045	26.75
711.449	27.05
711.853	27.35
712.256	27.62
712.66	27.9
713.064	28.16
713.467	28.44
713.87	28.69
714.274	28.96
714.677	29.21
715.08	29.47
715.484	29.69
715.887	29.94
716.29	30.15
716.693	30.39
717.096	30.61
717.499	30.82
717.901	31.05
718.304	31.27
718.707	31.5
719.109	31.7
719.512	31.9
719.915	32.1
720.317	32.28
720.719	32.46
721.122	32.64
721.524	32.83
721.926	33.03
722.328	33.18
722.731	33.34
723.133	33.47
723.535	33.64
723.937	33.78
724.338	33.94
724.74	34.1
725.142	34.29
725.544	34.43
725.945	34.57
726.347	34.67
726.748	34.81
727.15	34.92
727.551	35.06
727.952	35.15
728.354	35.26
728.755	35.35
729.156	35.46
729.557	35.49
729.958	35.57
730.359	35.65
730.76	35.78
731.161	35.84
731.562	35.94
731.962	35.99
732.363	36.09
732.763	36.15
733.164	36.22
733.564	36.29
733.965	36.37
734.365	36.44
734.766	36.49
735.166	36.52
735.566	36.59
735.966	36.66
736.366	36.73
736.766	36.76
737.166	36.81
737.566	36.85
737.966	36.89
738.365	36.95
738.765	37
739.165	37.06
739.564	37.12
739.964	37.16
740.363	37.17
740.763	37.19
741.162	37.23
741.561	37.26
741.96	37.29
742.36	37.32
742.759	37.32
743.158	37.33
743.557	37.33
743.955	37.36
744.354	37.36
744.753	37.41
745.152	37.46
745.55	37.48
745.949	37.52
746.348	37.56
746.746	37.56
747.144	37.61
747.543	37.63
747.941	37.66
748.339	37.66
748.737	37.68
749.136	37.67
749.534	37.63
749.932	37.65
750.33	37.67
750.727	37.66
751.125	37.69
751.523	37.66
751.921	37.68
752.318	37.7
752.716	37.71
753.113	37.73
753.511	37.74
753.908	37.78
754.305	37.78
754.703	37.78
755.1	37.8
755.497	37.8
755.894	37.83
756.291	37.8
756.688	37.79
757.085	37.8
757.482	37.79
757.878	37.8
758.275	37.81
758.672	37.81
759.068	37.82
759.465	37.82
759.861	37.83
760.258	37.84
760.654	37.86
761.05	37.88
761.447	37.89
761.843	37.89
762.239	37.9
762.635	37.88
763.031	37.89
763.427	37.86
763.822	37.86
764.218	37.85
764.614	37.84
765.01	37.84
765.405	37.84
765.801	37.82
766.196	37.82
766.592	37.81
766.987	37.82
767.382	37.82
767.778	37.84
768.173	37.82
768.568	37.82
768.963	37.81
769.358	37.81
769.753	37.8
770.148	37.8
770.542	37.81
770.937	37.83
771.332	37.83
771.726	37.82
772.121	37.82
772.515	37.82
772.91	37.82
773.304	37.82
773.699	37.82
774.093	37.8
774.487	37.79
774.881	37.79
775.275	37.76
775.669	37.75
776.063	37.72
776.457	37.7
776.851	37.69
777.245	37.64
777.638	37.63
778.032	37.63
778.425	37.64
778.819	37.64
779.212	37.62
779.606	37.62
779.999	37.61
780.392	37.63
780.786	37.63
781.179	37.63
781.572	37.68
781.965	37.69
782.358	37.69
782.751	37.68
783.143	37.68
783.536	37.68
783.929	37.68
784.322	37.71
784.714	37.7
785.107	37.71
785.499	37.71
