Data from N_1_DIV_OH_2n_Splice17_12-23-22-758.txt Node
Date: Sat Mar 07 12:23:22 EST 2020
User: sa697716
Spectrometer: NQ5500242
Trigger mode: 0
Integration Time (sec): 1.450000E-1
Scans to average: 20
Nonlinearity correction enabled: false
Boxcar width: 5
Storing dark spectrum: false
XAxis mode: Wavelengths
Number of Pixels in Spectrum: 512
>>>>>Begin Spectral Data<<<<<
187.83	84.83
188.298	92.61
188.766	80.84
189.233	70.55
189.701	57.53
190.169	82.29
190.636	64.5
191.104	-12.5
191.571	-186.14
192.039	-92.54
192.506	28.02
192.974	-30.29
193.441	-24.09
193.908	-37.4
194.375	29.73
194.842	-49.74
195.31	-19.72
195.777	-199.24
196.244	9.2
196.711	25.94
197.177	30.27
197.644	31.62
198.111	31.84
198.578	32.21
199.045	32.49
199.511	32.13
199.978	32.26
200.445	32.48
200.911	32.39
201.378	32.47
201.844	32.48
202.31	32.39
202.777	32.49
203.243	32.42
203.709	32.32
204.176	31.87
204.642	31.74
205.108	31.79
205.574	31.87
206.04	31.62
206.506	31.46
206.972	31.71
207.438	31.24
207.903	30.73
208.369	30.16
208.835	29.76
209.301	29.36
209.766	28.61
210.232	27.81
210.697	26.81
211.163	26.53
211.628	26.11
212.094	25.33
212.559	25.17
213.024	24.87
213.49	24.61
213.955	24
214.42	23.68
214.885	23.28
215.35	22.78
215.815	22.03
216.28	20.86
216.745	19.66
217.21	18.46
217.675	17.37
218.14	16.35
218.604	15.55
219.069	14.9
219.534	14.33
219.998	13.84
220.463	13.44
220.927	13.1
221.392	12.85
221.856	12.64
222.32	12.49
222.785	12.32
223.249	12.19
223.713	12.06
224.177	11.98
224.642	11.89
225.106	11.8
225.57	11.69
226.034	11.62
226.497	11.54
226.961	11.45
227.425	11.37
227.889	11.3
228.353	11.22
228.816	11.11
229.28	10.99
229.744	10.91
230.207	10.82
230.671	10.76
231.134	10.67
231.597	10.59
232.061	10.51
232.524	10.43
232.987	10.35
233.45	10.29
233.914	10.23
234.377	10.15
234.84	10.08
235.303	10.01
235.766	9.93
236.229	9.85
236.691	9.77
237.154	9.71
237.617	9.64
238.08	9.57
238.542	9.48
239.005	9.41
239.468	9.36
239.93	9.3
240.393	9.24
240.855	9.17
241.317	9.1
241.78	9.04
242.242	8.96
242.704	8.9
243.166	8.83
243.629	8.78
244.091	8.71
244.553	8.64
245.015	8.58
245.477	8.52
245.939	8.46
246.4	8.4
246.862	8.35
247.324	8.3
247.786	8.24
248.247	8.19
248.709	8.13
249.17	8.08
249.632	8.04
250.093	8.01
250.555	7.96
251.016	7.93
251.477	7.89
251.939	7.85
252.4	7.82
252.861	7.78
253.322	7.74
253.783	7.71
254.244	7.68
254.705	7.63
255.166	7.59
255.627	7.55
256.088	7.51
256.549	7.48
257.009	7.44
257.47	7.41
257.931	7.37
258.391	7.33
258.852	7.3
259.312	7.26
259.773	7.24
260.233	7.21
260.694	7.18
261.154	7.15
261.614	7.13
262.074	7.1
262.534	7.08
262.994	7.06
263.455	7.05
263.915	7.03
264.374	7.02
264.834	7.01
265.294	6.99
265.754	6.99
266.214	6.98
266.673	6.96
267.133	6.95
267.593	6.95
268.052	6.94
268.512	6.93
268.971	6.92
269.431	6.91
269.89	6.9
270.349	6.89
270.809	6.88
271.268	6.87
271.727	6.87
272.186	6.85
272.645	6.84
273.104	6.83
273.563	6.82
274.022	6.81
274.481	6.81
274.94	6.79
275.399	6.77
275.857	6.76
276.316	6.74
276.775	6.73
277.233	6.72
277.692	6.7
278.15	6.69
278.609	6.68
279.067	6.67
279.525	6.65
279.984	6.64
280.442	6.64
280.9	6.64
281.358	6.63
281.816	6.62
282.274	6.61
282.732	6.6
283.19	6.58
283.648	6.57
284.106	6.55
284.564	6.53
285.021	6.52
285.479	6.5
285.937	6.48
286.394	6.47
286.852	6.45
287.309	6.44
287.767	6.43
288.224	6.42
288.682	6.41
289.139	6.4
289.596	6.39
290.053	6.37
290.511	6.36
290.968	6.35
291.425	6.34
291.882	6.34
292.339	6.34
292.796	6.34
293.252	6.33
293.709	6.33
294.166	6.33
294.623	6.33
295.079	6.32
295.536	6.32
295.992	6.3
296.449	6.3
296.905	6.29
297.362	6.28
297.818	6.27
298.274	6.27
298.731	6.26
299.187	6.25
299.643	6.24
300.099	6.24
300.555	6.23
301.011	6.23
301.467	6.22
301.923	6.21
302.379	6.2
302.835	6.2
303.291	6.19
303.746	6.17
304.202	6.17
304.658	6.17
305.113	6.16
305.569	6.16
306.024	6.16
306.479	6.15
306.935	6.15
307.39	6.14
307.845	6.14
308.301	6.14
308.756	6.14
309.211	6.13
309.666	6.13
310.121	6.13
310.576	6.12
311.031	6.11
311.486	6.11
311.94	6.11
312.395	6.11
312.85	6.11
313.305	6.1
313.759	6.09
314.214	6.08
314.668	6.08
315.123	6.07
315.577	6.06
316.032	6.05
316.486	6.03
316.94	6.03
317.394	6.02
317.849	6
318.303	5.99
318.757	5.99
319.211	5.99
319.665	5.97
320.119	5.96
320.572	5.95
321.026	5.94
321.48	5.93
321.934	5.93
322.387	5.92
322.841	5.92
323.295	5.92
323.748	5.91
324.202	5.91
324.655	5.9
325.108	5.89
325.562	5.89
326.015	5.9
326.468	5.89
326.921	5.88
327.374	5.87
327.827	5.87
328.28	5.86
328.733	5.86
329.186	5.86
329.639	5.86
330.092	5.86
330.545	5.86
330.997	5.84
331.45	5.85
331.903	5.85
332.355	5.85
332.808	5.85
333.26	5.84
333.713	5.83
334.165	5.82
334.617	5.82
335.069	5.81
335.522	5.81
335.974	5.81
336.426	5.8
336.878	5.79
337.33	5.79
337.782	5.78
338.234	5.78
338.686	5.79
339.137	5.79
339.589	5.78
340.041	5.78
340.493	5.77
340.944	5.77
341.396	5.76
341.847	5.75
342.299	5.74
342.75	5.73
343.201	5.71
343.653	5.7
344.104	5.67
344.555	5.66
345.006	5.65
345.457	5.64
345.908	5.63
346.359	5.62
346.81	5.61
347.261	5.61
347.712	5.6
348.163	5.6
348.613	5.6
349.064	5.6
349.515	5.6
349.965	5.59
350.416	5.59
350.866	5.59
351.317	5.57
351.767	5.58
352.217	5.57
352.668	5.57
353.118	5.57
353.568	5.56
354.018	5.55
354.468	5.56
354.918	5.55
355.368	5.55
355.818	5.54
356.268	5.55
356.718	5.55
357.168	5.54
357.617	5.53
358.067	5.53
358.517	5.54
358.966	5.54
359.416	5.54
359.865	5.54
360.315	5.54
360.764	5.53
361.213	5.52
361.663	5.52
362.112	5.53
362.561	5.53
363.01	5.53
363.459	5.51
363.908	5.51
364.357	5.5
364.806	5.5
365.255	5.5
365.703	5.51
366.152	5.52
366.601	5.51
367.05	5.51
367.498	5.5
367.947	5.5
368.395	5.5
368.844	5.5
369.292	5.49
369.74	5.49
370.189	5.48
370.637	5.47
371.085	5.46
371.533	5.45
371.981	5.45
372.429	5.44
372.877	5.44
373.325	5.43
373.773	5.43
374.221	5.42
374.669	5.41
375.116	5.41
375.564	5.41
376.012	5.4
376.459	5.41
376.907	5.41
377.354	5.41
377.801	5.4
378.249	5.4
378.696	5.4
379.143	5.4
379.591	5.41
380.038	5.41
380.485	5.42
380.932	5.42
381.379	5.42
381.826	5.43
382.273	5.43
382.72	5.44
383.166	5.45
383.613	5.47
384.06	5.46
384.506	5.46
384.953	5.46
385.4	5.47
385.846	5.48
386.292	5.49
386.739	5.5
387.185	5.51
387.631	5.52
388.078	5.52
388.524	5.52
388.97	5.54
389.416	5.55
389.862	5.57
390.308	5.59
390.754	5.61
391.2	5.62
391.645	5.63
392.091	5.65
392.537	5.67
392.983	5.69
393.428	5.71
393.874	5.72
394.319	5.74
394.765	5.75
395.21	5.75
395.655	5.76
396.101	5.78
396.546	5.79
396.991	5.8
397.436	5.81
397.881	5.82
398.326	5.84
398.771	5.86
399.216	5.87
399.661	5.88
400.106	5.9
400.551	5.91
400.995	5.92
401.44	5.93
401.885	5.94
402.329	5.96
402.774	5.97
403.218	5.98
403.663	5.99
404.107	5.99
404.551	5.99
404.995	5.99
405.44	5.99
405.884	6
406.328	6
406.772	5.99
407.216	6
407.66	6
408.104	5.99
408.547	5.99
408.991	5.99
409.435	6
409.879	5.99
410.322	6
410.766	6.02
411.209	6.03
411.653	6.05
412.096	6.06
412.54	6.08
412.983	6.08
413.426	6.1
413.869	6.12
414.312	6.15
414.756	6.17
415.199	6.18
415.642	6.17
416.085	6.18
416.527	6.16
416.97	6.15
417.413	6.15
417.856	6.16
418.298	6.15
418.741	6.15
419.184	6.16
419.626	6.15
420.069	6.17
420.511	6.17
420.953	6.19
421.396	6.21
421.838	6.21
422.28	6.22
422.722	6.24
423.164	6.25
423.606	6.26
424.048	6.26
424.49	6.26
424.932	6.25
425.374	6.24
425.816	6.23
426.258	6.22
426.699	6.23
427.141	6.24
427.582	6.23
428.024	6.24
428.465	6.26
428.907	6.25
429.348	6.25
429.789	6.26
430.231	6.29
430.672	6.3
431.113	6.31
431.554	6.31
431.995	6.33
432.436	6.35
432.877	6.36
433.318	6.37
433.759	6.39
434.2	6.42
434.64	6.44
435.081	6.45
435.522	6.46
435.962	6.49
436.403	6.52
436.843	6.53
437.284	6.53
437.724	6.54
438.164	6.52
438.604	6.53
439.045	6.53
439.485	6.53
439.925	6.51
440.365	6.52
440.805	6.52
441.245	6.53
441.685	6.54
442.125	6.57
442.564	6.57
443.004	6.59
443.444	6.6
443.883	6.6
444.323	6.6
444.762	6.62
445.202	6.63
445.641	6.64
446.081	6.65
446.52	6.66
446.959	6.67
447.398	6.67
447.837	6.68
448.276	6.69
448.716	6.72
449.154	6.74
449.593	6.74
450.032	6.74
450.471	6.74
450.91	6.73
451.349	6.74
451.787	6.72
452.226	6.71
452.664	6.71
453.103	6.69
453.541	6.69
453.98	6.69
454.418	6.68
454.856	6.67
455.295	6.67
455.733	6.65
456.171	6.64
456.609	6.64
457.047	6.63
457.485	6.62
457.923	6.62
458.361	6.61
458.798	6.6
459.236	6.61
459.674	6.59
460.111	6.6
460.549	6.61
460.987	6.6
461.424	6.61
461.862	6.62
462.299	6.62
462.736	6.63
463.173	6.64
463.611	6.64
464.048	6.63
464.485	6.65
464.922	6.65
465.359	6.65
465.796	6.67
466.233	6.66
466.67	6.66
467.106	6.67
467.543	6.66
467.98	6.65
468.416	6.64
468.853	6.64
469.29	6.63
469.726	6.62
470.162	6.6
470.599	6.6
471.035	6.59
471.471	6.57
471.907	6.56
472.344	6.56
472.78	6.56
473.216	6.55
473.652	6.55
474.088	6.54
474.523	6.54
474.959	6.54
475.395	6.52
475.831	6.51
476.266	6.51
476.702	6.49
477.138	6.49
477.573	6.48
478.008	6.47
478.444	6.47
478.879	6.47
479.314	6.46
479.75	6.45
480.185	6.44
480.62	6.43
481.055	6.43
481.49	6.42
481.925	6.43
482.36	6.42
482.795	6.42
483.229	6.42
483.664	6.42
484.099	6.41
484.534	6.41
484.968	6.42
485.403	6.43
485.837	6.43
486.271	6.45
486.706	6.45
487.14	6.45
487.574	6.45
488.009	6.45
488.443	6.46
488.877	6.47
489.311	6.49
489.745	6.5
490.179	6.51
490.613	6.53
491.046	6.55
491.48	6.56
491.914	6.59
492.348	6.62
492.781	6.65
493.215	6.69
493.648	6.71
494.082	6.75
494.515	6.77
494.948	6.81
495.382	6.83
495.815	6.86
496.248	6.9
496.681	6.95
497.114	6.99
497.547	7.03
497.98	7.07
498.413	7.12
498.846	7.16
499.279	7.22
499.711	7.28
500.144	7.35
500.577	7.42
501.009	7.48
501.442	7.53
501.874	7.62
502.306	7.69
502.739	7.77
503.171	7.86
503.603	7.95
504.036	8.05
504.468	8.16
504.9	8.25
505.332	8.35
505.764	8.47
506.196	8.6
506.627	8.72
507.059	8.86
507.491	8.99
507.923	9.13
508.354	9.28
508.786	9.43
509.217	9.58
509.649	9.74
510.08	9.9
510.512	10.06
510.943	10.23
511.374	10.39
511.805	10.56
512.237	10.74
512.668	10.92
513.099	11.1
513.53	11.3
513.961	11.5
514.391	11.7
514.822	11.9
515.253	12.1
515.684	12.31
516.114	12.54
516.545	12.76
516.975	12.98
517.406	13.2
517.836	13.41
518.267	13.63
518.697	13.84
519.127	14.05
519.558	14.26
519.988	14.48
520.418	14.68
520.848	14.87
521.278	15.08
521.708	15.31
522.138	15.5
522.567	15.7
522.997	15.88
523.427	16.08
523.857	16.25
524.286	16.43
524.716	16.59
525.145	16.77
525.575	16.94
526.004	17.09
526.433	17.2
526.863	17.35
527.292	17.5
527.721	17.63
528.15	17.75
528.579	17.88
529.008	18.01
529.437	18.11
529.866	18.21
530.295	18.31
530.724	18.41
531.152	18.51
531.581	18.59
532.01	18.67
532.438	18.76
532.867	18.84
533.295	18.9
533.723	18.97
534.152	19.04
534.58	19.11
535.008	19.15
535.436	19.21
535.865	19.25
536.293	19.31
536.721	19.35
537.149	19.39
537.576	19.43
538.004	19.49
538.432	19.52
538.86	19.54
539.287	19.57
539.715	19.62
540.143	19.66
540.57	19.69
540.998	19.7
541.425	19.74
541.852	19.76
542.28	19.78
542.707	19.79
543.134	19.83
543.561	19.85
543.988	19.89
544.415	19.91
544.842	19.92
545.269	19.94
545.696	19.95
546.123	19.96
546.549	19.98
546.976	20
547.403	20.02
547.829	20.01
548.256	20.03
548.682	20.04
549.108	20.04
549.535	20.06
549.961	20.06
550.387	20.08
550.813	20.08
551.24	20.07
551.666	20.06
552.092	20.06
552.518	20.05
552.943	20.02
553.369	20.01
553.795	19.98
554.221	19.94
554.646	19.9
555.072	19.87
555.498	19.83
555.923	19.79
556.349	19.74
556.774	19.68
557.199	19.62
557.625	19.57
558.05	19.51
558.475	19.45
558.9	19.41
559.325	19.36
559.75	19.29
560.175	19.22
560.6	19.14
561.025	19.07
561.449	18.99
561.874	18.91
562.299	18.82
562.723	18.73
563.148	18.63
563.572	18.51
563.997	18.39
564.421	18.29
564.846	18.17
565.27	18.07
565.694	17.96
566.118	17.85
566.542	17.73
566.966	17.63
567.39	17.52
567.814	17.42
568.238	17.3
568.662	17.2
569.086	17.08
569.509	16.98
569.933	16.88
570.357	16.76
570.78	16.66
571.204	16.55
571.627	16.44
572.05	16.34
572.474	16.24
572.897	16.15
573.32	16.05
573.743	15.96
574.166	15.86
574.589	15.77
575.012	15.7
575.435	15.61
575.858	15.53
576.281	15.44
576.704	15.36
577.126	15.27
577.549	15.19
577.972	15.1
578.394	15.03
578.817	14.95
579.239	14.87
579.661	14.79
580.084	14.73
580.506	14.66
580.928	14.6
581.35	14.54
581.772	14.48
582.194	14.43
582.616	14.38
583.038	14.33
583.46	14.26
583.882	14.2
584.303	14.16
584.725	14.1
585.147	14.05
585.568	14
585.99	13.96
586.411	13.9
586.833	13.85
587.254	13.81
587.675	13.75
588.096	13.7
588.518	13.66
588.939	13.62
589.36	13.58
589.781	13.54
590.202	13.5
590.623	13.46
591.043	13.43
591.464	13.39
591.885	13.36
592.305	13.34
592.726	13.33
593.147	13.31
593.567	13.27
593.987	13.24
594.408	13.21
594.828	13.18
595.248	13.15
595.669	13.13
596.089	13.1
596.509	13.08
596.929	13.06
597.349	13.03
597.769	13
598.189	12.98
598.608	12.96
599.028	12.94
599.448	12.92
599.867	12.88
600.287	12.85
600.706	12.83
601.126	12.79
601.545	12.77
601.965	12.74
602.384	12.7
602.803	12.66
603.222	12.62
603.641	12.58
604.061	12.54
604.48	12.5
604.898	12.45
605.317	12.4
605.736	12.35
606.155	12.31
606.574	12.25
606.992	12.19
607.411	12.14
607.829	12.06
608.248	11.99
608.666	11.92
609.085	11.87
609.503	11.82
609.921	11.77
610.339	11.71
610.758	11.64
611.176	11.58
611.594	11.54
612.012	11.49
612.43	11.46
612.847	11.41
613.265	11.36
613.683	11.32
614.101	11.27
614.518	11.22
614.936	11.17
615.353	11.12
615.771	11.08
616.188	11.03
616.606	10.98
617.023	10.95
617.44	10.92
617.857	10.89
618.274	10.84
618.691	10.8
619.108	10.77
619.525	10.73
619.942	10.7
620.359	10.68
620.776	10.66
621.192	10.63
621.609	10.61
622.026	10.57
622.442	10.56
622.859	10.53
623.275	10.53
623.691	10.5
624.108	10.5
624.524	10.48
624.94	10.47
625.356	10.45
625.772	10.45
626.188	10.44
626.604	10.44
627.02	10.43
627.436	10.44
627.852	10.43
628.268	10.43
628.683	10.42
629.099	10.41
629.514	10.39
629.93	10.38
630.345	10.36
630.761	10.32
631.176	10.3
631.591	10.26
632.007	10.23
632.422	10.19
632.837	10.16
633.252	10.11
633.667	10.06
634.082	10.01
634.497	9.96
634.911	9.9
635.326	9.86
635.741	9.8
636.155	9.75
636.57	9.69
636.984	9.63
637.399	9.55
637.813	9.48
638.228	9.41
638.642	9.33
639.056	9.24
639.47	9.17
639.884	9.08
640.298	8.99
640.712	8.91
641.126	8.82
641.54	8.73
641.954	8.64
642.368	8.56
642.781	8.49
643.195	8.41
643.609	8.34
644.022	8.26
644.436	8.18
644.849	8.1
645.262	8.04
645.676	7.97
646.089	7.92
646.502	7.87
646.915	7.83
647.328	7.77
647.741	7.73
648.154	7.69
648.567	7.66
648.98	7.63
649.393	7.6
649.805	7.56
650.218	7.54
650.631	7.5
651.043	7.47
651.456	7.45
651.868	7.42
652.28	7.39
652.693	7.37
653.105	7.34
653.517	7.31
653.929	7.28
654.341	7.25
654.753	7.22
655.165	7.19
655.577	7.16
655.989	7.11
656.401	7.08
656.813	7.05
657.224	7
657.636	6.95
658.047	6.91
658.459	6.87
658.87	6.82
659.282	6.78
659.693	6.73
660.104	6.69
660.515	6.65
660.926	6.6
661.338	6.55
661.749	6.52
662.159	6.48
662.57	6.44
662.981	6.41
663.392	6.37
663.803	6.34
664.213	6.31
664.624	6.28
665.035	6.25
665.445	6.24
665.855	6.22
666.266	6.21
666.676	6.2
667.086	6.18
667.497	6.17
667.907	6.17
668.317	6.16
668.727	6.15
669.137	6.15
669.547	6.16
669.956	6.15
670.366	6.16
670.776	6.15
671.186	6.14
671.595	6.13
672.005	6.13
672.414	6.13
672.824	6.13
673.233	6.12
673.642	6.13
674.052	6.14
674.461	6.15
674.87	6.16
675.279	6.18
675.688	6.19
676.097	6.22
676.506	6.25
676.915	6.27
677.323	6.29
677.732	6.32
678.141	6.34
678.549	6.36
678.958	6.39
679.366	6.43
679.775	6.46
680.183	6.49
680.592	6.54
681	6.59
681.408	6.64
681.816	6.7
682.224	6.76
682.632	6.83
683.04	6.9
683.448	6.97
683.856	7.07
684.264	7.16
684.671	7.28
685.079	7.4
685.487	7.53
685.894	7.68
686.302	7.86
686.709	8.04
687.116	8.25
687.524	8.47
687.931	8.73
688.338	8.99
688.745	9.28
689.152	9.57
689.559	9.9
689.966	10.25
690.373	10.62
690.78	10.99
691.187	11.39
691.593	11.8
692	12.22
692.407	12.63
692.813	13.07
693.22	13.51
693.626	13.97
694.032	14.43
694.439	14.88
694.845	15.36
695.251	15.82
695.657	16.29
696.063	16.76
696.469	17.25
696.875	17.74
697.281	18.21
697.687	18.7
698.093	19.17
698.498	19.63
698.904	20.12
699.31	20.57
699.715	21.03
700.12	21.48
700.526	21.93
700.931	22.38
701.337	22.83
701.742	23.25
702.147	23.67
702.552	24.11
702.957	24.52
703.362	24.91
703.767	25.3
704.172	25.7
704.577	26.08
704.981	26.46
705.386	26.82
705.791	27.17
706.195	27.53
706.6	27.9
707.004	28.25
707.408	28.59
707.813	28.94
708.217	29.27
708.621	29.62
709.025	29.93
709.43	30.23
709.834	30.57
710.237	30.86
710.641	31.15
711.045	31.43
711.449	31.72
711.853	32
712.256	32.28
712.66	32.55
713.064	32.81
713.467	33.07
713.87	33.32
714.274	33.55
714.677	33.81
715.08	34.07
715.484	34.32
715.887	34.54
716.29	34.77
716.693	35.01
717.096	35.23
717.499	35.46
717.901	35.67
718.304	35.89
718.707	36.12
719.109	36.35
719.512	36.52
719.915	36.72
720.317	36.9
720.719	37.08
721.122	37.25
721.524	37.42
721.926	37.59
722.328	37.77
722.731	37.97
723.133	38.14
723.535	38.29
723.937	38.47
724.338	38.62
724.74	38.77
725.142	38.96
725.544	39.09
725.945	39.25
726.347	39.35
726.748	39.47
727.15	39.57
727.551	39.69
727.952	39.78
728.354	39.88
728.755	39.97
729.156	40.09
729.557	40.14
729.958	40.23
730.359	40.3
730.76	40.42
731.161	40.52
731.562	40.6
731.962	40.67
732.363	40.78
732.763	40.87
733.164	40.95
733.564	41.03
733.965	41.1
734.365	41.2
734.766	41.25
735.166	41.3
735.566	41.36
735.966	41.44
736.366	41.49
736.766	41.51
737.166	41.55
737.566	41.58
737.966	41.61
738.365	41.66
738.765	41.7
739.165	41.75
739.564	41.79
739.964	41.81
740.363	41.83
740.763	41.87
741.162	41.92
741.561	41.95
741.96	41.99
742.36	42.03
742.759	42.04
743.158	42.07
743.557	42.08
743.955	42.11
744.354	42.13
744.753	42.18
745.152	42.19
745.55	42.21
745.949	42.25
746.348	42.3
746.746	42.3
747.144	42.33
747.543	42.34
747.941	42.37
748.339	42.36
748.737	42.37
749.136	42.37
749.534	42.37
749.932	42.37
750.33	42.36
750.727	42.35
751.125	42.35
751.523	42.35
751.921	42.36
752.318	42.36
752.716	42.38
753.113	42.41
753.511	42.4
753.908	42.45
754.305	42.45
754.703	42.45
755.1	42.45
755.497	42.46
755.894	42.46
756.291	42.47
756.688	42.48
757.085	42.48
757.482	42.47
757.878	42.49
758.275	42.46
758.672	42.47
759.068	42.49
759.465	42.5
759.861	42.5
760.258	42.5
760.654	42.51
761.05	42.54
761.447	42.57
761.843	42.56
762.239	42.55
762.635	42.55
763.031	42.56
763.427	42.55
763.822	42.57
764.218	42.58
764.614	42.62
765.01	42.6
765.405	42.6
765.801	42.56
766.196	42.58
766.592	42.59
766.987	42.61
767.382	42.59
767.778	42.59
768.173	42.6
768.568	42.6
768.963	42.56
769.358	42.58
769.753	42.56
770.148	42.55
770.542	42.54
770.937	42.53
771.332	42.51
771.726	42.53
772.121	42.53
772.515	42.49
772.91	42.49
773.304	42.5
773.699	42.49
774.093	42.49
774.487	42.49
774.881	42.5
775.275	42.52
775.669	42.52
776.063	42.48
776.457	42.48
776.851	42.5
777.245	42.47
777.638	42.46
778.032	42.48
778.425	42.51
778.819	42.51
779.212	42.51
779.606	42.51
779.999	42.49
780.392	42.53
780.786	42.52
781.179	42.53
781.572	42.57
781.965	42.57
782.358	42.55
782.751	42.53
