Data from N_1_HIR_WI_4n_Splice17_12-15-36-725.txt Node
Date: Sat Mar 07 12:15:36 EST 2020
User: sa697716
Spectrometer: NQ5500242
Trigger mode: 0
Integration Time (sec): 1.450000E-1
Scans to average: 20
Nonlinearity correction enabled: false
Boxcar width: 5
Storing dark spectrum: false
XAxis mode: Wavelengths
Number of Pixels in Spectrum: 512
>>>>>Begin Spectral Data<<<<<
187.83	117.2
188.298	101.88
188.766	85.29
189.233	72.33
189.701	67.24
190.169	94.32
190.636	78.71
191.104	58.73
191.571	-81.23
192.039	-136.27
192.506	-659.55
192.974	267.62
193.441	182.27
193.908	82.53
194.375	21.03
194.842	-42.27
195.31	5.2
195.777	-12.03
196.244	41.56
196.711	49.03
197.177	52.6
197.644	51.58
198.111	51.39
198.578	51.89
199.045	52.37
199.511	52.63
199.978	52.87
200.445	52.86
200.911	52.65
201.378	53.03
201.844	53.17
202.31	52.87
202.777	53.05
203.243	53.03
203.709	52.9
204.176	52.68
204.642	52.68
205.108	52.78
205.574	52.86
206.04	52.48
206.506	51.96
206.972	51.72
207.438	51.21
207.903	50.75
208.369	50.07
208.835	49.57
209.301	48.6
209.766	47.54
210.232	46.44
210.697	45.4
211.163	44.46
211.628	43.96
212.094	43.29
212.559	42.78
213.024	42.1
213.49	41.62
213.955	40.84
214.42	40.21
214.885	39.55
215.35	38.66
215.815	37.57
216.28	36.08
216.745	34.2
217.21	32.24
217.675	30.42
218.14	28.92
218.604	27.57
219.069	26.49
219.534	25.54
219.998	24.72
220.463	24.04
220.927	23.36
221.392	22.88
221.856	22.43
222.32	22.07
222.785	21.79
223.249	21.48
223.713	21.16
224.177	20.92
224.642	20.67
225.106	20.39
225.57	20.12
226.034	19.9
226.497	19.68
226.961	19.46
227.425	19.22
227.889	18.99
228.353	18.78
228.816	18.57
229.28	18.34
229.744	18.12
230.207	17.93
230.671	17.74
231.134	17.55
231.597	17.35
232.061	17.17
232.524	17
232.987	16.81
233.45	16.64
233.914	16.47
234.377	16.3
234.84	16.16
235.303	16.01
235.766	15.87
236.229	15.72
236.691	15.58
237.154	15.43
237.617	15.29
238.08	15.16
238.542	15.02
239.005	14.92
239.468	14.78
239.93	14.65
240.393	14.53
240.855	14.38
241.317	14.25
241.78	14.14
242.242	14.02
242.704	13.91
243.166	13.79
243.629	13.68
244.091	13.55
244.553	13.45
245.015	13.34
245.477	13.23
245.939	13.13
246.4	13.03
246.862	12.94
247.324	12.84
247.786	12.74
248.247	12.65
248.709	12.55
249.17	12.46
249.632	12.38
250.093	12.3
250.555	12.22
251.016	12.15
251.477	12.06
251.939	11.98
252.4	11.91
252.861	11.85
253.322	11.8
253.783	11.74
254.244	11.68
254.705	11.61
255.166	11.55
255.627	11.49
256.088	11.44
256.549	11.4
257.009	11.35
257.47	11.3
257.931	11.24
258.391	11.18
258.852	11.13
259.312	11.08
259.773	11.03
260.233	10.99
260.694	10.94
261.154	10.89
261.614	10.85
262.074	10.8
262.534	10.75
262.994	10.72
263.455	10.68
263.915	10.65
264.374	10.62
264.834	10.59
265.294	10.56
265.754	10.54
266.214	10.52
266.673	10.5
267.133	10.48
267.593	10.47
268.052	10.46
268.512	10.44
268.971	10.42
269.431	10.41
269.89	10.39
270.349	10.37
270.809	10.36
271.268	10.34
271.727	10.31
272.186	10.3
272.645	10.29
273.104	10.26
273.563	10.24
274.022	10.22
274.481	10.21
274.94	10.2
275.399	10.17
275.857	10.15
276.316	10.14
276.775	10.12
277.233	10.11
277.692	10.09
278.15	10.08
278.609	10.07
279.067	10.05
279.525	10.04
279.984	10.02
280.442	10.01
280.9	10
281.358	9.98
281.816	9.96
282.274	9.95
282.732	9.93
283.19	9.92
283.648	9.91
284.106	9.91
284.564	9.9
285.021	9.89
285.479	9.89
285.937	9.87
286.394	9.87
286.852	9.86
287.309	9.86
287.767	9.84
288.224	9.83
288.682	9.81
289.139	9.79
289.596	9.77
290.053	9.74
290.511	9.71
290.968	9.69
291.425	9.67
291.882	9.66
292.339	9.64
292.796	9.64
293.252	9.62
293.709	9.62
294.166	9.63
294.623	9.62
295.079	9.62
295.536	9.63
295.992	9.63
296.449	9.64
296.905	9.64
297.362	9.64
297.818	9.63
298.274	9.64
298.731	9.63
299.187	9.62
299.643	9.62
300.099	9.62
300.555	9.62
301.011	9.62
301.467	9.61
301.923	9.61
302.379	9.61
302.835	9.61
303.291	9.6
303.746	9.61
304.202	9.62
304.658	9.61
305.113	9.61
305.569	9.6
306.024	9.61
306.479	9.62
306.935	9.61
307.39	9.61
307.845	9.61
308.301	9.62
308.756	9.62
309.211	9.61
309.666	9.63
310.121	9.63
310.576	9.64
311.031	9.64
311.486	9.64
311.94	9.65
312.395	9.64
312.85	9.65
313.305	9.65
313.759	9.65
314.214	9.66
314.668	9.66
315.123	9.65
315.577	9.65
316.032	9.65
316.486	9.65
316.94	9.64
317.394	9.63
317.849	9.61
318.303	9.6
318.757	9.59
319.211	9.58
319.665	9.56
320.119	9.55
320.572	9.53
321.026	9.51
321.48	9.5
321.934	9.49
322.387	9.48
322.841	9.48
323.295	9.48
323.748	9.47
324.202	9.47
324.655	9.47
325.108	9.47
325.562	9.48
326.015	9.49
326.468	9.49
326.921	9.49
327.374	9.49
327.827	9.49
328.28	9.48
328.733	9.48
329.186	9.47
329.639	9.46
330.092	9.45
330.545	9.44
330.997	9.42
331.45	9.42
331.903	9.42
332.355	9.42
332.808	9.42
333.26	9.43
333.713	9.43
334.165	9.43
334.617	9.44
335.069	9.43
335.522	9.44
335.974	9.45
336.426	9.45
336.878	9.44
337.33	9.43
337.782	9.42
338.234	9.41
338.686	9.4
339.137	9.4
339.589	9.37
340.041	9.37
340.493	9.34
340.944	9.32
341.396	9.31
341.847	9.28
342.299	9.26
342.75	9.24
343.201	9.22
343.653	9.2
344.104	9.17
344.555	9.15
345.006	9.12
345.457	9.12
345.908	9.1
346.359	9.09
346.81	9.08
347.261	9.07
347.712	9.07
348.163	9.05
348.613	9.05
349.064	9.05
349.515	9.04
349.965	9.05
350.416	9.03
350.866	9.03
351.317	9.02
351.767	9.02
352.217	9.02
352.668	9.01
353.118	9.01
353.568	8.99
354.018	8.99
354.468	8.99
354.918	8.98
355.368	8.99
355.818	8.98
356.268	8.97
356.718	8.96
357.168	8.95
357.617	8.94
358.067	8.93
358.517	8.95
358.966	8.94
359.416	8.93
359.865	8.93
360.315	8.91
360.764	8.91
361.213	8.9
361.663	8.89
362.112	8.89
362.561	8.88
363.01	8.87
363.459	8.84
363.908	8.83
364.357	8.82
364.806	8.82
365.255	8.82
365.703	8.82
366.152	8.83
366.601	8.82
367.05	8.82
367.498	8.82
367.947	8.82
368.395	8.81
368.844	8.83
369.292	8.83
369.74	8.83
370.189	8.81
370.637	8.82
371.085	8.81
371.533	8.81
371.981	8.81
372.429	8.8
372.877	8.8
373.325	8.81
373.773	8.8
374.221	8.78
374.669	8.78
375.116	8.79
375.564	8.78
376.012	8.78
376.459	8.79
376.907	8.8
377.354	8.82
377.801	8.83
378.249	8.83
378.696	8.84
379.143	8.86
379.591	8.89
380.038	8.89
380.485	8.91
380.932	8.92
381.379	8.93
381.826	8.94
382.273	8.95
382.72	8.94
383.166	8.96
383.613	8.97
384.06	8.98
384.506	8.99
384.953	9.01
385.4	9.02
385.846	9.05
386.292	9.07
386.739	9.08
387.185	9.09
387.631	9.12
388.078	9.13
388.524	9.15
388.97	9.17
389.416	9.18
389.862	9.2
390.308	9.22
390.754	9.25
391.2	9.27
391.645	9.3
392.091	9.32
392.537	9.35
392.983	9.36
393.428	9.38
393.874	9.39
394.319	9.41
394.765	9.42
395.21	9.44
395.655	9.44
396.101	9.47
396.546	9.49
396.991	9.5
397.436	9.52
397.881	9.57
398.326	9.59
398.771	9.61
399.216	9.63
399.661	9.64
400.106	9.63
400.551	9.65
400.995	9.64
401.44	9.64
401.885	9.66
402.329	9.67
402.774	9.67
403.218	9.7
403.663	9.72
404.107	9.74
404.551	9.76
404.995	9.77
405.44	9.77
405.884	9.8
406.328	9.82
406.772	9.81
407.216	9.82
407.66	9.83
408.104	9.81
408.547	9.81
408.991	9.83
409.435	9.82
409.879	9.84
410.322	9.86
410.766	9.87
411.209	9.88
411.653	9.9
412.096	9.92
412.54	9.92
412.983	9.95
413.426	9.98
413.869	9.98
414.312	10.01
414.756	10.03
415.199	10.04
415.642	10.04
416.085	10.04
416.527	10.04
416.97	10.01
417.413	10.02
417.856	10
418.298	9.99
418.741	9.98
419.184	9.98
419.626	9.98
420.069	9.98
420.511	9.97
420.953	9.97
421.396	9.99
421.838	10.01
422.28	10.03
422.722	10.05
423.164	10.05
423.606	10.05
424.048	10.04
424.49	10.05
424.932	10.05
425.374	10.04
425.816	10.02
426.258	10
426.699	10
427.141	9.98
427.582	9.99
428.024	10
428.465	10.02
428.907	10.02
429.348	10.02
429.789	10.03
430.231	10.07
430.672	10.1
431.113	10.14
431.554	10.17
431.995	10.21
432.436	10.22
432.877	10.23
433.318	10.27
433.759	10.32
434.2	10.36
434.64	10.4
435.081	10.41
435.522	10.45
435.962	10.46
436.403	10.48
436.843	10.5
437.284	10.5
437.724	10.52
438.164	10.51
438.604	10.5
439.045	10.51
439.485	10.51
439.925	10.51
440.365	10.51
440.805	10.51
441.245	10.5
441.685	10.52
442.125	10.53
442.564	10.55
443.004	10.56
443.444	10.58
443.883	10.59
444.323	10.6
444.762	10.61
445.202	10.6
445.641	10.61
446.081	10.62
446.52	10.61
446.959	10.62
447.398	10.62
447.837	10.63
448.276	10.63
448.716	10.64
449.154	10.64
449.593	10.65
450.032	10.67
450.471	10.68
450.91	10.67
451.349	10.67
451.787	10.67
452.226	10.67
452.664	10.67
453.103	10.66
453.541	10.64
453.98	10.63
454.418	10.61
454.856	10.58
455.295	10.57
455.733	10.54
456.171	10.54
456.609	10.52
457.047	10.5
457.485	10.49
457.923	10.48
458.361	10.48
458.798	10.47
459.236	10.47
459.674	10.47
460.111	10.46
460.549	10.47
460.987	10.48
461.424	10.47
461.862	10.47
462.299	10.47
462.736	10.48
463.173	10.47
463.611	10.47
464.048	10.48
464.485	10.48
464.922	10.49
465.359	10.5
465.796	10.49
466.233	10.51
466.67	10.51
467.106	10.52
467.543	10.51
467.98	10.51
468.416	10.5
468.853	10.5
469.29	10.49
469.726	10.47
470.162	10.46
470.599	10.45
471.035	10.43
471.471	10.41
471.907	10.38
472.344	10.37
472.78	10.36
473.216	10.34
473.652	10.32
474.088	10.3
474.523	10.29
474.959	10.27
475.395	10.26
475.831	10.24
476.266	10.24
476.702	10.23
477.138	10.21
477.573	10.19
478.008	10.19
478.444	10.18
478.879	10.16
479.314	10.15
479.75	10.14
480.185	10.11
480.62	10.09
481.055	10.07
481.49	10.06
481.925	10.06
482.36	10.05
482.795	10.02
483.229	10
483.664	9.99
484.099	9.97
484.534	9.95
484.968	9.96
485.403	9.96
485.837	9.96
486.271	9.95
486.706	9.94
487.14	9.93
487.574	9.94
488.009	9.94
488.443	9.94
488.877	9.95
489.311	9.96
489.745	9.96
490.179	9.97
490.613	9.98
491.046	9.99
491.48	9.99
491.914	9.99
492.348	9.99
492.781	10.01
493.215	10.03
493.648	10.04
494.082	10.04
494.515	10.04
494.948	10.05
495.382	10.07
495.815	10.08
496.248	10.1
496.681	10.13
497.114	10.16
497.547	10.17
497.98	10.18
498.413	10.2
498.846	10.24
499.279	10.27
499.711	10.29
500.144	10.32
500.577	10.37
501.009	10.41
501.442	10.44
501.874	10.48
502.306	10.53
502.739	10.58
503.171	10.64
503.603	10.69
504.036	10.75
504.468	10.81
504.9	10.86
505.332	10.92
505.764	10.99
506.196	11.06
506.627	11.15
507.059	11.24
507.491	11.33
507.923	11.42
508.354	11.54
508.786	11.64
509.217	11.76
509.649	11.89
510.08	12.02
510.512	12.14
510.943	12.28
511.374	12.41
511.805	12.55
512.237	12.71
512.668	12.86
513.099	13.02
513.53	13.18
513.961	13.35
514.391	13.54
514.822	13.72
515.253	13.93
515.684	14.13
516.114	14.33
516.545	14.56
516.975	14.78
517.406	14.99
517.836	15.22
518.267	15.46
518.697	15.68
519.127	15.9
519.558	16.14
519.988	16.37
520.418	16.61
520.848	16.84
521.278	17.08
521.708	17.46
522.138	17.7
522.567	17.92
522.997	18.14
523.427	18.38
523.857	18.61
524.286	18.84
524.716	19.06
525.145	19.26
525.575	19.48
526.004	19.68
526.433	19.73
526.863	19.93
527.292	20.12
527.721	20.3
528.15	20.45
528.579	20.61
529.008	20.78
529.437	20.94
529.866	21.1
530.295	21.24
530.724	21.38
531.152	21.52
531.581	21.64
532.01	21.77
532.438	21.91
532.867	22.02
533.295	22.12
533.723	22.21
534.152	22.29
534.58	22.37
535.008	22.43
535.436	22.51
535.865	22.57
536.293	22.62
536.721	22.68
537.149	22.73
537.576	22.79
538.004	22.85
538.432	22.9
538.86	22.94
539.287	22.98
539.715	23.03
540.143	23.06
540.57	23.1
540.998	23.13
541.425	23.18
541.852	23.21
542.28	23.25
542.707	23.28
543.134	23.31
543.561	23.36
543.988	23.4
544.415	23.43
544.842	23.47
545.269	23.5
545.696	23.52
546.123	23.56
546.549	23.58
546.976	23.61
547.403	23.62
547.829	23.65
548.256	23.65
548.682	23.67
549.108	23.69
549.535	23.71
549.961	23.72
550.387	23.73
550.813	23.72
551.24	23.72
551.666	23.7
552.092	23.68
552.518	23.65
552.943	23.62
553.369	23.58
553.795	23.54
554.221	23.48
554.646	23.43
555.072	23.37
555.498	23.3
555.923	23.23
556.349	23.16
556.774	23.09
557.199	23.02
557.625	22.94
558.05	22.85
558.475	22.76
558.9	22.69
559.325	22.59
559.75	22.49
560.175	22.39
560.6	22.26
561.025	22.15
561.449	22.02
561.874	21.89
562.299	21.75
562.723	21.62
563.148	21.47
563.572	21.3
563.997	21.16
564.421	21
564.846	20.85
565.27	20.7
565.694	20.55
566.118	20.39
566.542	20.24
566.966	20.09
567.39	19.94
567.814	19.8
568.238	19.65
568.662	19.5
569.086	19.36
569.509	19.2
569.933	19.06
570.357	18.92
570.78	18.77
571.204	18.63
571.627	18.5
572.05	18.35
572.474	18.23
572.897	18.11
573.32	17.98
573.743	17.84
574.166	17.73
574.589	17.6
575.012	17.49
575.435	17.38
575.858	17.27
576.281	17.17
576.704	17.06
577.126	16.95
577.549	16.85
577.972	16.76
578.394	16.67
578.817	16.58
579.239	16.5
579.661	16.42
580.084	16.34
580.506	16.27
580.928	16.19
581.35	16.13
581.772	16.05
582.194	15.97
582.616	15.91
583.038	15.84
583.46	15.79
583.882	15.72
584.303	15.66
584.725	15.6
585.147	15.53
585.568	15.48
585.99	15.43
586.411	15.39
586.833	15.33
587.254	15.28
587.675	15.23
588.096	15.18
588.518	15.14
588.939	15.1
589.36	15.06
589.781	15.02
590.202	14.97
590.623	14.92
591.043	14.87
591.464	14.84
591.885	14.78
592.305	14.74
592.726	14.71
593.147	14.66
593.567	14.63
593.987	14.58
594.408	14.55
594.828	14.53
595.248	14.5
595.669	14.48
596.089	14.45
596.509	14.44
596.929	14.41
597.349	14.37
597.769	14.35
598.189	14.32
598.608	14.3
599.028	14.26
599.448	14.22
599.867	14.18
600.287	14.15
600.706	14.12
601.126	14.08
601.545	14.05
601.965	14.03
602.384	14
602.803	13.95
603.222	13.92
603.641	13.88
604.061	13.86
604.48	13.81
604.898	13.75
605.317	13.71
605.736	13.66
606.155	13.61
606.574	13.54
606.992	13.49
607.411	13.44
607.829	13.36
608.248	13.3
608.666	13.23
609.085	13.19
609.503	13.14
609.921	13.08
610.339	13.03
610.758	12.97
611.176	12.92
611.594	12.86
612.012	12.8
612.43	12.77
612.847	12.72
613.265	12.66
613.683	12.6
614.101	12.56
614.518	12.51
614.936	12.46
615.353	12.4
615.771	12.36
616.188	12.33
616.606	12.3
617.023	12.26
617.44	12.22
617.857	12.19
618.274	12.15
618.691	12.11
619.108	12.07
619.525	12.05
619.942	12.03
620.359	12
620.776	11.97
621.192	11.94
621.609	11.92
622.026	11.89
622.442	11.88
622.859	11.87
623.275	11.86
623.691	11.84
624.108	11.82
624.524	11.8
624.94	11.79
625.356	11.78
625.772	11.76
626.188	11.75
626.604	11.74
627.02	11.74
627.436	11.72
627.852	11.71
628.268	11.7
628.683	11.69
629.099	11.7
629.514	11.68
629.93	11.68
630.345	11.65
630.761	11.62
631.176	11.61
631.591	11.58
632.007	11.56
632.422	11.52
632.837	11.5
633.252	11.47
633.667	11.43
634.082	11.39
634.497	11.34
634.911	11.31
635.326	11.27
635.741	11.22
636.155	11.17
636.57	11.12
636.984	11.07
637.399	11.01
637.813	10.96
638.228	10.89
638.642	10.84
639.056	10.78
639.47	10.72
639.884	10.67
640.298	10.6
640.712	10.54
641.126	10.49
641.54	10.43
641.954	10.36
642.368	10.31
642.781	10.25
643.195	10.21
643.609	10.16
644.022	10.11
644.436	10.07
644.849	10.03
645.262	9.99
645.676	9.93
646.089	9.89
646.502	9.87
646.915	9.84
647.328	9.82
647.741	9.8
648.154	9.76
648.567	9.75
648.98	9.72
649.393	9.71
649.805	9.7
650.218	9.7
650.631	9.69
651.043	9.67
651.456	9.66
651.868	9.63
652.28	9.62
652.693	9.6
653.105	9.59
653.517	9.58
653.929	9.56
654.341	9.53
654.753	9.51
655.165	9.48
655.577	9.46
655.989	9.44
656.401	9.42
656.813	9.4
657.224	9.37
657.636	9.33
658.047	9.31
658.459	9.29
658.87	9.26
659.282	9.24
659.693	9.22
660.104	9.21
660.515	9.18
660.926	9.16
661.338	9.14
661.749	9.13
662.159	9.12
662.57	9.11
662.981	9.09
663.392	9.08
663.803	9.06
664.213	9.05
664.624	9.03
665.035	9.03
665.445	9.02
665.855	9.02
666.266	9.02
666.676	9.02
667.086	9.01
667.497	9.01
667.907	9.01
668.317	9.02
668.727	9.03
669.137	9.03
669.547	9.05
669.956	9.06
670.366	9.06
670.776	9.07
671.186	9.08
671.595	9.09
672.005	9.1
672.414	9.11
672.824	9.11
673.233	9.13
673.642	9.14
674.052	9.14
674.461	9.14
674.87	9.16
675.279	9.19
675.688	9.21
676.097	9.23
676.506	9.25
676.915	9.27
677.323	9.3
677.732	9.32
678.141	9.35
678.549	9.37
678.958	9.39
679.366	9.41
679.775	9.42
680.183	9.45
680.592	9.48
681	9.52
681.408	9.55
681.816	9.58
682.224	9.61
682.632	9.65
683.04	9.69
683.448	9.74
683.856	9.78
684.264	9.83
684.671	9.88
685.079	9.94
685.487	10
685.894	10.07
686.302	10.16
686.709	10.25
687.116	10.36
687.524	10.49
687.931	10.63
688.338	10.79
688.745	10.98
689.152	11.18
689.559	11.41
689.966	11.65
690.373	11.92
690.78	12.22
691.187	12.53
691.593	12.86
692	13.2
692.407	13.59
692.813	13.99
693.22	14.4
693.626	14.84
694.032	15.3
694.439	15.77
694.845	16.28
695.251	16.8
695.657	17.32
696.063	17.88
696.469	18.46
696.875	19.03
697.281	19.62
697.687	20.22
698.093	20.83
698.498	21.43
698.904	22.06
699.31	22.67
699.715	23.29
700.12	23.95
700.526	24.6
700.931	25.24
701.337	25.89
701.742	26.53
702.147	27.17
702.552	27.84
702.957	28.48
703.362	29.15
703.767	29.81
704.172	30.44
704.577	31.05
704.981	31.68
705.386	32.31
705.791	32.93
706.195	33.57
706.6	34.18
707.004	34.78
707.408	35.4
707.813	35.99
708.217	36.6
708.621	37.23
709.025	37.84
709.43	38.43
709.834	39.05
710.237	39.64
710.641	40.23
711.045	40.82
711.449	41.41
711.853	42
712.256	42.58
712.66	43.12
713.064	43.68
713.467	44.23
713.87	44.8
714.274	45.32
714.677	45.89
715.08	46.41
715.484	46.95
715.887	47.5
716.29	47.99
716.693	48.52
717.096	49.06
717.499	49.57
717.901	50.08
718.304	50.56
718.707	51.06
719.109	51.52
719.512	51.99
719.915	52.46
720.317	52.88
720.719	53.33
721.122	53.76
721.524	54.18
721.926	54.6
722.328	55.01
722.731	55.41
723.133	55.82
723.535	56.22
723.937	56.58
724.338	56.93
724.74	57.32
725.142	57.72
725.544	58.05
725.945	58.37
726.347	58.65
726.748	58.96
727.15	59.26
727.551	59.55
727.952	59.82
728.354	60.13
728.755	60.42
729.156	60.67
729.557	60.86
729.958	61.12
730.359	61.39
730.76	61.66
731.161	61.91
731.562	62.16
731.962	62.35
732.363	62.56
732.763	62.77
733.164	62.96
733.564	63.17
733.965	63.34
734.365	63.53
734.766	63.69
735.166	63.85
735.566	64.02
735.966	64.17
736.366	64.36
736.766	64.5
737.166	64.63
737.566	64.76
737.966	64.89
738.365	65.04
738.765	65.16
739.165	65.29
739.564	65.44
739.964	65.54
740.363	65.62
740.763	65.7
741.162	65.83
741.561	65.91
741.96	66
742.36	66.09
742.759	66.15
743.158	66.2
743.557	66.24
743.955	66.32
744.354	66.38
744.753	66.48
745.152	66.59
745.55	66.66
745.949	66.75
746.348	66.85
746.746	66.91
747.144	67.01
747.543	67.06
747.941	67.16
748.339	67.17
748.737	67.22
749.136	67.22
749.534	67.21
749.932	67.23
750.33	67.23
750.727	67.25
751.125	67.27
751.523	67.3
751.921	67.34
752.318	67.37
752.716	67.41
753.113	67.45
753.511	67.51
753.908	67.58
754.305	67.63
754.703	67.64
755.1	67.65
755.497	67.65
755.894	67.64
756.291	67.67
756.688	67.65
757.085	67.66
757.482	67.64
757.878	67.65
758.275	67.63
758.672	67.63
759.068	67.66
759.465	67.68
759.861	67.76
760.258	67.81
760.654	67.79
761.05	67.83
761.447	67.88
761.843	67.9
762.239	67.9
762.635	67.9
763.031	67.91
763.427	67.91
763.822	67.92
764.218	67.87
764.614	67.84
765.01	67.87
765.405	67.85
765.801	67.8
766.196	67.81
766.592	67.81
766.987	67.83
767.382	67.84
767.778	67.86
768.173	67.87
768.568	67.88
768.963	67.88
769.358	67.91
769.753	67.91
770.148	67.93
770.542	67.94
770.937	67.93
771.332	67.91
771.726	67.91
772.121	67.91
772.515	67.94
772.91	67.95
773.304	67.98
773.699	67.98
