Data from N_1_DIV_IL_4n_Splice17_12-32-40-783.txt Node
Date: Sat Mar 07 12:32:40 EST 2020
User: sa697716
Spectrometer: NQ5500242
Trigger mode: 0
Integration Time (sec): 1.450000E-1
Scans to average: 20
Nonlinearity correction enabled: false
Boxcar width: 5
Storing dark spectrum: false
XAxis mode: Wavelengths
Number of Pixels in Spectrum: 512
>>>>>Begin Spectral Data<<<<<
187.83	156.75
188.298	172.49
188.766	136.18
189.233	112.08
189.701	116.66
190.169	136.23
190.636	133.01
191.104	168.48
191.571	225.1
192.039	94.87
192.506	-288.05
192.974	227.31
193.441	312.8
193.908	29.13
194.375	17.21
194.842	9.93
195.31	63.27
195.777	44.27
196.244	24.98
196.711	31.89
197.177	33.18
197.644	32.89
198.111	32.22
198.578	32.48
199.045	32.92
199.511	32.36
199.978	32.29
200.445	32.25
200.911	32.18
201.378	32.51
201.844	32.5
202.31	32.18
202.777	32.06
203.243	32.31
203.709	31.9
204.176	31.68
204.642	32.16
205.108	32.21
205.574	31.97
206.04	31.55
206.506	31.12
206.972	31.09
207.438	30.8
207.903	30.5
208.369	29.47
208.835	29.09
209.301	28.68
209.766	27.7
210.232	26.88
210.697	26.36
211.163	25.73
211.628	25.34
212.094	24.62
212.559	24.23
213.024	23.73
213.49	23.25
213.955	22.88
214.42	22.26
214.885	21.79
215.35	21.09
215.815	19.99
216.28	18.76
216.745	17.23
217.21	15.85
217.675	14.55
218.14	13.52
218.604	12.72
219.069	11.89
219.534	11.19
219.998	10.59
220.463	10.14
220.927	9.71
221.392	9.41
221.856	9.16
222.32	8.93
222.785	8.73
223.249	8.49
223.713	8.28
224.177	8.13
224.642	8
225.106	7.84
225.57	7.67
226.034	7.55
226.497	7.44
226.961	7.3
227.425	7.19
227.889	7.08
228.353	6.98
228.816	6.88
229.28	6.76
229.744	6.66
230.207	6.57
230.671	6.49
231.134	6.4
231.597	6.32
232.061	6.24
232.524	6.16
232.987	6.09
233.45	6.02
233.914	5.95
234.377	5.88
234.84	5.8
235.303	5.76
235.766	5.7
236.229	5.63
236.691	5.56
237.154	5.51
237.617	5.44
238.08	5.39
238.542	5.33
239.005	5.28
239.468	5.23
239.93	5.2
240.393	5.15
240.855	5.1
241.317	5.05
241.78	5.01
242.242	4.95
242.704	4.92
243.166	4.86
243.629	4.82
244.091	4.76
244.553	4.71
245.015	4.66
245.477	4.62
245.939	4.57
246.4	4.52
246.862	4.49
247.324	4.45
247.786	4.41
248.247	4.37
248.709	4.32
249.17	4.28
249.632	4.25
250.093	4.2
250.555	4.18
251.016	4.14
251.477	4.11
251.939	4.08
252.4	4.06
252.861	4.02
253.322	4
253.783	3.98
254.244	3.96
254.705	3.94
255.166	3.92
255.627	3.88
256.088	3.86
256.549	3.84
257.009	3.81
257.47	3.78
257.931	3.75
258.391	3.73
258.852	3.7
259.312	3.67
259.773	3.64
260.233	3.62
260.694	3.59
261.154	3.56
261.614	3.53
262.074	3.5
262.534	3.47
262.994	3.45
263.455	3.43
263.915	3.41
264.374	3.39
264.834	3.37
265.294	3.35
265.754	3.35
266.214	3.33
266.673	3.32
267.133	3.31
267.593	3.31
268.052	3.3
268.512	3.29
268.971	3.28
269.431	3.27
269.89	3.26
270.349	3.24
270.809	3.23
271.268	3.22
271.727	3.2
272.186	3.2
272.645	3.19
273.104	3.17
273.563	3.16
274.022	3.15
274.481	3.14
274.94	3.14
275.399	3.13
275.857	3.11
276.316	3.1
276.775	3.09
277.233	3.08
277.692	3.07
278.15	3.06
278.609	3.05
279.067	3.04
279.525	3.04
279.984	3.03
280.442	3.02
280.9	3.02
281.358	3.01
281.816	3.01
282.274	3
282.732	3
283.19	2.99
283.648	2.98
284.106	2.98
284.564	2.97
285.021	2.96
285.479	2.96
285.937	2.95
286.394	2.95
286.852	2.94
287.309	2.94
287.767	2.93
288.224	2.92
288.682	2.9
289.139	2.89
289.596	2.88
290.053	2.86
290.511	2.84
290.968	2.83
291.425	2.82
291.882	2.8
292.339	2.79
292.796	2.78
293.252	2.76
293.709	2.76
294.166	2.74
294.623	2.74
295.079	2.73
295.536	2.73
295.992	2.72
296.449	2.71
296.905	2.7
297.362	2.7
297.818	2.69
298.274	2.69
298.731	2.69
299.187	2.68
299.643	2.67
300.099	2.67
300.555	2.66
301.011	2.65
301.467	2.65
301.923	2.64
302.379	2.64
302.835	2.63
303.291	2.63
303.746	2.62
304.202	2.63
304.658	2.63
305.113	2.62
305.569	2.62
306.024	2.62
306.479	2.62
306.935	2.61
307.39	2.61
307.845	2.61
308.301	2.61
308.756	2.61
309.211	2.6
309.666	2.6
310.121	2.6
310.576	2.6
311.031	2.6
311.486	2.61
311.94	2.61
312.395	2.61
312.85	2.61
313.305	2.61
313.759	2.61
314.214	2.61
314.668	2.61
315.123	2.61
315.577	2.61
316.032	2.6
316.486	2.59
316.94	2.58
317.394	2.57
317.849	2.56
318.303	2.56
318.757	2.54
319.211	2.53
319.665	2.52
320.119	2.51
320.572	2.5
321.026	2.49
321.48	2.48
321.934	2.47
322.387	2.47
322.841	2.46
323.295	2.46
323.748	2.46
324.202	2.46
324.655	2.45
325.108	2.45
325.562	2.45
326.015	2.45
326.468	2.45
326.921	2.44
327.374	2.44
327.827	2.44
328.28	2.44
328.733	2.44
329.186	2.43
329.639	2.44
330.092	2.43
330.545	2.44
330.997	2.44
331.45	2.44
331.903	2.45
332.355	2.45
332.808	2.45
333.26	2.45
333.713	2.44
334.165	2.43
334.617	2.44
335.069	2.43
335.522	2.43
335.974	2.43
336.426	2.43
336.878	2.42
337.33	2.42
337.782	2.42
338.234	2.41
338.686	2.42
339.137	2.43
339.589	2.42
340.041	2.42
340.493	2.41
340.944	2.4
341.396	2.4
341.847	2.39
342.299	2.38
342.75	2.36
343.201	2.35
343.653	2.33
344.104	2.32
344.555	2.31
345.006	2.3
345.457	2.29
345.908	2.28
346.359	2.28
346.81	2.27
347.261	2.27
347.712	2.26
348.163	2.26
348.613	2.26
349.064	2.26
349.515	2.26
349.965	2.26
350.416	2.25
350.866	2.25
351.317	2.25
351.767	2.25
352.217	2.25
352.668	2.25
353.118	2.25
353.568	2.25
354.018	2.25
354.468	2.25
354.918	2.25
355.368	2.26
355.818	2.26
356.268	2.25
356.718	2.25
357.168	2.24
357.617	2.24
358.067	2.25
358.517	2.27
358.966	2.26
359.416	2.27
359.865	2.27
360.315	2.27
360.764	2.27
361.213	2.27
361.663	2.27
362.112	2.28
362.561	2.28
363.01	2.27
363.459	2.25
363.908	2.25
364.357	2.24
364.806	2.23
365.255	2.23
365.703	2.24
366.152	2.25
366.601	2.25
367.05	2.25
367.498	2.24
367.947	2.25
368.395	2.26
368.844	2.27
369.292	2.27
369.74	2.28
370.189	2.28
370.637	2.28
371.085	2.27
371.533	2.27
371.981	2.28
372.429	2.29
372.877	2.29
373.325	2.29
373.773	2.29
374.221	2.3
374.669	2.3
375.116	2.29
375.564	2.3
376.012	2.3
376.459	2.31
376.907	2.32
377.354	2.32
377.801	2.34
378.249	2.35
378.696	2.35
379.143	2.36
379.591	2.38
380.038	2.4
380.485	2.41
380.932	2.43
381.379	2.45
381.826	2.46
382.273	2.47
382.72	2.47
383.166	2.49
383.613	2.5
384.06	2.51
384.506	2.52
384.953	2.54
385.4	2.56
385.846	2.58
386.292	2.59
386.739	2.61
387.185	2.63
387.631	2.64
388.078	2.65
388.524	2.67
388.97	2.69
389.416	2.7
389.862	2.72
390.308	2.74
390.754	2.76
391.2	2.79
391.645	2.81
392.091	2.84
392.537	2.86
392.983	2.89
393.428	2.91
393.874	2.93
394.319	2.96
394.765	2.97
395.21	2.98
395.655	2.99
396.101	3.02
396.546	3.04
396.991	3.06
397.436	3.08
397.881	3.11
398.326	3.14
398.771	3.16
399.216	3.19
399.661	3.22
400.106	3.24
400.551	3.26
400.995	3.26
401.44	3.28
401.885	3.29
402.329	3.31
402.774	3.33
403.218	3.36
403.663	3.37
404.107	3.38
404.551	3.4
404.995	3.42
405.44	3.44
405.884	3.46
406.328	3.49
406.772	3.49
407.216	3.51
407.66	3.51
408.104	3.51
408.547	3.52
408.991	3.53
409.435	3.54
409.879	3.55
410.322	3.58
410.766	3.6
411.209	3.62
411.653	3.65
412.096	3.67
412.54	3.69
412.983	3.7
413.426	3.74
413.869	3.76
414.312	3.78
414.756	3.8
415.199	3.8
415.642	3.8
416.085	3.8
416.527	3.8
416.97	3.8
417.413	3.8
417.856	3.82
418.298	3.8
418.741	3.81
419.184	3.81
419.626	3.82
420.069	3.83
420.511	3.83
420.953	3.84
421.396	3.86
421.838	3.86
422.28	3.88
422.722	3.89
423.164	3.89
423.606	3.89
424.048	3.89
424.49	3.89
424.932	3.9
425.374	3.9
425.816	3.89
426.258	3.88
426.699	3.88
427.141	3.88
427.582	3.89
428.024	3.9
428.465	3.92
428.907	3.92
429.348	3.91
429.789	3.91
430.231	3.93
430.672	3.95
431.113	3.98
431.554	4
431.995	4.01
432.436	4.02
432.877	4.02
433.318	4.05
433.759	4.08
434.2	4.11
434.64	4.13
435.081	4.13
435.522	4.14
435.962	4.15
436.403	4.17
436.843	4.19
437.284	4.19
437.724	4.19
438.164	4.17
438.604	4.17
439.045	4.18
439.485	4.18
439.925	4.17
440.365	4.18
440.805	4.18
441.245	4.19
441.685	4.19
442.125	4.21
442.564	4.21
443.004	4.23
443.444	4.24
443.883	4.24
444.323	4.23
444.762	4.24
445.202	4.25
445.641	4.26
446.081	4.26
446.52	4.25
446.959	4.27
447.398	4.29
447.837	4.28
448.276	4.27
448.716	4.28
449.154	4.31
449.593	4.31
450.032	4.31
450.471	4.3
450.91	4.29
451.349	4.29
451.787	4.27
452.226	4.26
452.664	4.27
453.103	4.26
453.541	4.25
453.98	4.24
454.418	4.23
454.856	4.22
455.295	4.2
455.733	4.18
456.171	4.18
456.609	4.17
457.047	4.15
457.485	4.12
457.923	4.13
458.361	4.12
458.798	4.12
459.236	4.12
459.674	4.12
460.111	4.12
460.549	4.14
460.987	4.14
461.424	4.16
461.862	4.17
462.299	4.2
462.736	4.2
463.173	4.2
463.611	4.19
464.048	4.19
464.485	4.2
464.922	4.2
465.359	4.21
465.796	4.22
466.233	4.21
466.67	4.21
467.106	4.21
467.543	4.21
467.98	4.21
468.416	4.21
468.853	4.21
469.29	4.2
469.726	4.2
470.162	4.17
470.599	4.16
471.035	4.15
471.471	4.14
471.907	4.12
472.344	4.11
472.78	4.11
473.216	4.1
473.652	4.1
474.088	4.09
474.523	4.09
474.959	4.09
475.395	4.09
475.831	4.08
476.266	4.08
476.702	4.06
477.138	4.05
477.573	4.04
478.008	4.04
478.444	4.02
478.879	4.03
479.314	4.02
479.75	4
480.185	3.98
480.62	3.98
481.055	3.96
481.49	3.95
481.925	3.95
482.36	3.94
482.795	3.93
483.229	3.92
483.664	3.92
484.099	3.92
484.534	3.91
484.968	3.92
485.403	3.91
485.837	3.92
486.271	3.92
486.706	3.93
487.14	3.93
487.574	3.93
488.009	3.93
488.443	3.93
488.877	3.93
489.311	3.94
489.745	3.94
490.179	3.96
490.613	3.96
491.046	3.97
491.48	3.98
491.914	3.99
492.348	4.01
492.781	4.02
493.215	4.04
493.648	4.07
494.082	4.08
494.515	4.1
494.948	4.12
495.382	4.14
495.815	4.17
496.248	4.2
496.681	4.23
497.114	4.26
497.547	4.29
497.98	4.32
498.413	4.34
498.846	4.38
499.279	4.43
499.711	4.47
500.144	4.52
500.577	4.57
501.009	4.61
501.442	4.66
501.874	4.72
502.306	4.77
502.739	4.85
503.171	4.91
503.603	4.97
504.036	5.04
504.468	5.11
504.9	5.18
505.332	5.26
505.764	5.36
506.196	5.44
506.627	5.53
507.059	5.64
507.491	5.74
507.923	5.85
508.354	5.98
508.786	6.1
509.217	6.24
509.649	6.37
510.08	6.51
510.512	6.65
510.943	6.8
511.374	6.95
511.805	7.1
512.237	7.26
512.668	7.43
513.099	7.59
513.53	7.77
513.961	7.95
514.391	8.14
514.822	8.33
515.253	8.53
515.684	8.73
516.114	8.94
516.545	9.15
516.975	9.36
517.406	9.58
517.836	9.8
518.267	10.03
518.697	10.25
519.127	10.45
519.558	10.67
519.988	10.89
520.418	11.11
520.848	11.33
521.278	11.54
521.708	11.79
522.138	11.99
522.567	12.2
522.997	12.37
523.427	12.58
523.857	12.79
524.286	12.98
524.716	13.16
525.145	13.34
525.575	13.52
526.004	13.7
526.433	13.85
526.863	14.02
527.292	14.19
527.721	14.37
528.15	14.52
528.579	14.66
529.008	14.81
529.437	14.94
529.866	15.06
530.295	15.19
530.724	15.31
531.152	15.42
531.581	15.52
532.01	15.62
532.438	15.72
532.867	15.81
533.295	15.89
533.723	15.97
534.152	16.04
534.58	16.11
535.008	16.17
535.436	16.22
535.865	16.27
536.293	16.31
536.721	16.35
537.149	16.39
537.576	16.43
538.004	16.46
538.432	16.5
538.86	16.54
539.287	16.57
539.715	16.61
540.143	16.64
540.57	16.68
540.998	16.72
541.425	16.75
541.852	16.78
542.28	16.81
542.707	16.84
543.134	16.87
543.561	16.9
543.988	16.93
544.415	16.95
544.842	16.97
545.269	16.99
545.696	17.02
546.123	17.04
546.549	17.06
546.976	17.08
547.403	17.1
547.829	17.12
548.256	17.12
548.682	17.13
549.108	17.14
549.535	17.16
549.961	17.16
550.387	17.16
550.813	17.16
551.24	17.16
551.666	17.15
552.092	17.14
552.518	17.13
552.943	17.11
553.369	17.09
553.795	17.07
554.221	17.03
554.646	16.99
555.072	16.94
555.498	16.9
555.923	16.85
556.349	16.78
556.774	16.71
557.199	16.65
557.625	16.58
558.05	16.51
558.475	16.41
558.9	16.34
559.325	16.26
559.75	16.17
560.175	16.07
560.6	15.97
561.025	15.88
561.449	15.77
561.874	15.66
562.299	15.54
562.723	15.42
563.148	15.31
563.572	15.17
563.997	15.04
564.421	14.91
564.846	14.79
565.27	14.64
565.694	14.51
566.118	14.36
566.542	14.23
566.966	14.1
567.39	13.97
567.814	13.83
568.238	13.7
568.662	13.56
569.086	13.43
569.509	13.31
569.933	13.19
570.357	13.06
570.78	12.94
571.204	12.82
571.627	12.69
572.05	12.56
572.474	12.45
572.897	12.34
573.32	12.23
573.743	12.12
574.166	12.01
574.589	11.9
575.012	11.79
575.435	11.7
575.858	11.61
576.281	11.52
576.704	11.44
577.126	11.34
577.549	11.25
577.972	11.16
578.394	11.08
578.817	11
579.239	10.93
579.661	10.86
580.084	10.79
580.506	10.71
580.928	10.64
581.35	10.57
581.772	10.51
582.194	10.45
582.616	10.39
583.038	10.33
583.46	10.26
583.882	10.21
584.303	10.14
584.725	10.08
585.147	10.02
585.568	9.98
585.99	9.93
586.411	9.87
586.833	9.82
587.254	9.76
587.675	9.72
588.096	9.66
588.518	9.61
588.939	9.59
589.36	9.56
589.781	9.52
590.202	9.49
590.623	9.46
591.043	9.41
591.464	9.39
591.885	9.35
592.305	9.33
592.726	9.33
593.147	9.3
593.567	9.25
593.987	9.21
594.408	9.18
594.828	9.14
595.248	9.13
595.669	9.12
596.089	9.1
596.509	9.08
596.929	9.06
597.349	9.03
597.769	9
598.189	8.99
598.608	8.97
599.028	8.94
599.448	8.92
599.867	8.88
600.287	8.85
600.706	8.81
601.126	8.79
601.545	8.76
601.965	8.71
602.384	8.67
602.803	8.64
603.222	8.6
603.641	8.55
604.061	8.51
604.48	8.46
604.898	8.4
605.317	8.36
605.736	8.31
606.155	8.27
606.574	8.22
606.992	8.17
607.411	8.11
607.829	8.04
608.248	7.98
608.666	7.92
609.085	7.88
609.503	7.83
609.921	7.78
610.339	7.73
610.758	7.67
611.176	7.61
611.594	7.56
612.012	7.5
612.43	7.47
612.847	7.43
613.265	7.38
613.683	7.32
614.101	7.28
614.518	7.23
614.936	7.18
615.353	7.13
615.771	7.07
616.188	7.03
616.606	6.99
617.023	6.96
617.44	6.92
617.857	6.89
618.274	6.86
618.691	6.82
619.108	6.78
619.525	6.76
619.942	6.73
620.359	6.72
620.776	6.7
621.192	6.67
621.609	6.65
622.026	6.61
622.442	6.59
622.859	6.57
623.275	6.56
623.691	6.55
624.108	6.53
624.524	6.52
624.94	6.51
625.356	6.51
625.772	6.5
626.188	6.49
626.604	6.49
627.02	6.49
627.436	6.49
627.852	6.48
628.268	6.47
628.683	6.47
629.099	6.46
629.514	6.46
629.93	6.46
630.345	6.44
630.761	6.43
631.176	6.42
631.591	6.38
632.007	6.36
632.422	6.33
632.837	6.31
633.252	6.27
633.667	6.23
634.082	6.19
634.497	6.15
634.911	6.1
635.326	6.06
635.741	6.01
636.155	5.97
636.57	5.92
636.984	5.88
637.399	5.83
637.813	5.77
638.228	5.72
638.642	5.66
639.056	5.6
639.47	5.56
639.884	5.5
640.298	5.44
640.712	5.38
641.126	5.32
641.54	5.26
641.954	5.2
642.368	5.15
642.781	5.1
643.195	5.06
643.609	5.01
644.022	4.96
644.436	4.92
644.849	4.87
645.262	4.83
645.676	4.79
646.089	4.75
646.502	4.72
646.915	4.69
647.328	4.66
647.741	4.63
648.154	4.6
648.567	4.57
648.98	4.54
649.393	4.52
649.805	4.51
650.218	4.49
650.631	4.47
651.043	4.45
651.456	4.43
651.868	4.41
652.28	4.4
652.693	4.38
653.105	4.37
653.517	4.35
653.929	4.35
654.341	4.32
654.753	4.29
655.165	4.27
655.577	4.25
655.989	4.22
656.401	4.2
656.813	4.17
657.224	4.14
657.636	4.1
658.047	4.07
658.459	4.03
658.87	4.01
659.282	3.98
659.693	3.96
660.104	3.93
660.515	3.91
660.926	3.88
661.338	3.85
661.749	3.81
662.159	3.79
662.57	3.77
662.981	3.76
663.392	3.74
663.803	3.73
664.213	3.71
664.624	3.7
665.035	3.68
665.445	3.68
665.855	3.68
666.266	3.69
666.676	3.69
667.086	3.69
667.497	3.69
667.907	3.68
668.317	3.68
668.727	3.68
669.137	3.68
669.547	3.7
669.956	3.7
670.366	3.71
670.776	3.71
671.186	3.72
671.595	3.74
672.005	3.74
672.414	3.76
672.824	3.78
673.233	3.8
673.642	3.82
674.052	3.84
674.461	3.86
674.87	3.87
675.279	3.9
675.688	3.92
676.097	3.94
676.506	3.97
676.915	3.99
677.323	4.02
677.732	4.03
678.141	4.05
678.549	4.07
678.958	4.1
679.366	4.13
679.775	4.15
680.183	4.17
680.592	4.21
681	4.23
681.408	4.26
681.816	4.3
682.224	4.35
682.632	4.39
683.04	4.44
683.448	4.48
683.856	4.52
684.264	4.57
684.671	4.63
685.079	4.7
685.487	4.78
685.894	4.88
686.302	4.98
686.709	5.09
687.116	5.22
687.524	5.36
687.931	5.53
688.338	5.71
688.745	5.91
689.152	6.12
689.559	6.36
689.966	6.59
690.373	6.86
690.78	7.16
691.187	7.46
691.593	7.79
692	8.13
692.407	8.48
692.813	8.86
693.22	9.26
693.626	9.68
694.032	10.1
694.439	10.55
694.845	10.99
695.251	11.45
695.657	11.91
696.063	12.39
696.469	12.88
696.875	13.39
697.281	13.91
697.687	14.42
698.093	14.94
698.498	15.45
698.904	15.99
699.31	16.51
699.715	17.05
700.12	17.58
700.526	18.12
700.931	18.66
701.337	19.2
701.742	19.71
702.147	20.23
702.552	20.77
702.957	21.29
703.362	21.8
703.767	22.31
704.172	22.8
704.577	23.32
704.981	23.82
705.386	24.32
705.791	24.8
706.195	25.3
706.6	25.8
707.004	26.27
707.408	26.79
707.813	27.28
708.217	27.76
708.621	28.27
709.025	28.75
709.43	29.21
709.834	29.68
710.237	30.15
710.641	30.6
711.045	31.05
711.449	31.51
711.853	31.95
712.256	32.38
712.66	32.83
713.064	33.24
713.467	33.66
713.87	34.09
714.274	34.51
714.677	34.94
715.08	35.34
715.484	35.76
715.887	36.17
716.29	36.55
716.693	36.96
717.096	37.35
717.499	37.74
717.901	38.14
718.304	38.5
718.707	38.86
719.109	39.22
719.512	39.59
719.915	39.94
720.317	40.26
720.719	40.58
721.122	40.91
721.524	41.23
721.926	41.55
722.328	41.86
722.731	42.17
723.133	42.47
723.535	42.74
723.937	43.03
724.338	43.32
724.74	43.62
725.142	43.94
725.544	44.17
725.945	44.45
726.347	44.66
726.748	44.87
727.15	45.09
727.551	45.34
727.952	45.55
728.354	45.76
728.755	45.93
729.156	46.1
729.557	46.23
729.958	46.43
730.359	46.58
730.76	46.78
731.161	46.96
731.562	47.16
731.962	47.27
732.363	47.43
732.763	47.56
733.164	47.72
733.564	47.86
733.965	47.99
734.365	48.11
734.766	48.26
735.166	48.38
735.566	48.48
735.966	48.59
736.366	48.71
736.766	48.8
737.166	48.9
737.566	49
737.966	49.1
738.365	49.21
738.765	49.32
739.165	49.37
739.564	49.45
739.964	49.53
740.363	49.56
740.763	49.65
741.162	49.74
741.561	49.77
741.96	49.82
742.36	49.87
742.759	49.94
743.158	49.99
743.557	50.02
743.955	50.07
744.354	50.1
744.753	50.19
745.152	50.24
745.55	50.29
745.949	50.35
746.348	50.41
746.746	50.41
747.144	50.45
747.543	50.47
747.941	50.52
748.339	50.54
748.737	50.59
749.136	50.6
749.534	50.61
749.932	50.62
750.33	50.65
750.727	50.67
751.125	50.72
751.523	50.72
751.921	50.72
752.318	50.77
752.716	50.79
753.113	50.81
753.511	50.83
753.908	50.85
754.305	50.85
754.703	50.86
755.1	50.87
755.497	50.89
755.894	50.91
756.291	50.95
756.688	50.91
757.085	50.93
757.482	50.92
757.878	50.92
758.275	50.95
758.672	50.95
759.068	50.98
759.465	50.99
759.861	50.98
760.258	51.01
760.654	51.01
761.05	51.06
761.447	51.09
761.843	51.09
762.239	51.1
762.635	51.07
763.031	51.08
763.427	51.06
763.822	51.07
764.218	51.09
764.614	51.09
765.01	51.07
765.405	51.03
765.801	50.99
766.196	50.98
766.592	50.97
766.987	50.98
767.382	50.98
767.778	51
768.173	51
768.568	50.97
768.963	50.97
769.358	51
769.753	51.01
770.148	51
770.542	51.01
770.937	51.04
771.332	51.05
771.726	51.07
772.121	51.03
772.515	51.02
772.91	51.01
773.304	51
773.699	50.99
774.093	50.95
774.487	50.98
774.881	51
775.275	50.96
775.669	50.93
776.063	50.91
776.457	50.94
776.851	50.91
777.245	50.9
777.638	50.9
778.032	50.89
778.425	50.94
778.819	50.91
779.212	50.91
779.606	50.93
779.999	50.92
780.392	50.93
780.786	50.91
781.179	50.95
781.572	50.97
781.965	50.99
782.358	51
782.751	50.98
783.143	50.96
783.536	50.94
783.929	50.95
784.322	50.94
784.714	50.93
785.107	50.97
785.499	50.95
785.891	50.93
786.284	50.92
786.676	50.91
787.068	50.88
787.46	50.91
