Data from N_1_DIV_WI_4n_Splice17_12-20-57-310.txt Node
Date: Sat Mar 07 12:20:57 EST 2020
User: sa697716
Spectrometer: NQ5500242
Trigger mode: 0
Integration Time (sec): 1.450000E-1
Scans to average: 20
Nonlinearity correction enabled: false
Boxcar width: 5
Storing dark spectrum: false
XAxis mode: Wavelengths
Number of Pixels in Spectrum: 512
>>>>>Begin Spectral Data<<<<<
187.83	93.58
188.298	105.45
188.766	78.35
189.233	61.02
189.701	50.14
190.169	62.8
190.636	42.52
191.104	-28.05
191.571	-196.67
192.039	-139.07
192.506	-541
192.974	92.64
193.441	76.04
193.908	-25.05
194.375	3.71
194.842	-85.36
195.31	-77.32
195.777	-363.26
196.244	7.97
196.711	24.72
197.177	26.96
197.644	27.93
198.111	28.54
198.578	28.66
199.045	29.21
199.511	29.09
199.978	29.23
200.445	29.41
200.911	29.4
201.378	29.15
201.844	28.95
202.31	28.69
202.777	28.84
203.243	28.65
203.709	28.55
204.176	28.05
204.642	27.96
205.108	28.07
205.574	27.7
206.04	27.38
206.506	27.12
206.972	27.13
207.438	26.89
207.903	26.51
208.369	25.89
208.835	25.2
209.301	24.54
209.766	23.44
210.232	22.62
210.697	21.87
211.163	21.25
211.628	20.77
212.094	20.21
212.559	19.74
213.024	19.11
213.49	18.52
213.955	18.09
214.42	17.58
214.885	17.22
215.35	16.43
215.815	15.33
216.28	13.98
216.745	12.5
217.21	11.04
217.675	9.69
218.14	8.56
218.604	7.6
219.069	6.79
219.534	6.12
219.998	5.52
220.463	5.07
220.927	4.66
221.392	4.36
221.856	4.09
222.32	3.86
222.785	3.67
223.249	3.49
223.713	3.34
224.177	3.21
224.642	3.08
225.106	2.95
225.57	2.82
226.034	2.77
226.497	2.68
226.961	2.62
227.425	2.53
227.889	2.47
228.353	2.41
228.816	2.34
229.28	2.29
229.744	2.23
230.207	2.18
230.671	2.15
231.134	2.09
231.597	2.05
232.061	2
232.524	1.98
232.987	1.94
233.45	1.92
233.914	1.89
234.377	1.86
234.84	1.84
235.303	1.83
235.766	1.8
236.229	1.78
236.691	1.76
237.154	1.74
237.617	1.72
238.08	1.7
238.542	1.68
239.005	1.67
239.468	1.65
239.93	1.64
240.393	1.63
240.855	1.6
241.317	1.58
241.78	1.57
242.242	1.54
242.704	1.54
243.166	1.52
243.629	1.51
244.091	1.49
244.553	1.47
245.015	1.45
245.477	1.44
245.939	1.43
246.4	1.42
246.862	1.42
247.324	1.41
247.786	1.39
248.247	1.38
248.709	1.36
249.17	1.34
249.632	1.34
250.093	1.33
250.555	1.32
251.016	1.32
251.477	1.3
251.939	1.3
252.4	1.29
252.861	1.29
253.322	1.29
253.783	1.28
254.244	1.29
254.705	1.28
255.166	1.27
255.627	1.26
256.088	1.26
256.549	1.25
257.009	1.24
257.47	1.23
257.931	1.22
258.391	1.2
258.852	1.19
259.312	1.18
259.773	1.17
260.233	1.17
260.694	1.16
261.154	1.15
261.614	1.14
262.074	1.12
262.534	1.12
262.994	1.11
263.455	1.11
263.915	1.1
264.374	1.09
264.834	1.09
265.294	1.07
265.754	1.07
266.214	1.06
266.673	1.06
267.133	1.06
267.593	1.06
268.052	1.05
268.512	1.05
268.971	1.05
269.431	1.05
269.89	1.04
270.349	1.04
270.809	1.04
271.268	1.04
271.727	1.03
272.186	1.03
272.645	1.03
273.104	1.03
273.563	1.03
274.022	1.03
274.481	1.03
274.94	1.03
275.399	1.03
275.857	1.03
276.316	1.03
276.775	1.03
277.233	1.04
277.692	1.04
278.15	1.03
278.609	1.04
279.067	1.04
279.525	1.04
279.984	1.04
280.442	1.05
280.9	1.05
281.358	1.05
281.816	1.06
282.274	1.06
282.732	1.06
283.19	1.06
283.648	1.06
284.106	1.05
284.564	1.06
285.021	1.06
285.479	1.06
285.937	1.06
286.394	1.06
286.852	1.06
287.309	1.06
287.767	1.05
288.224	1.05
288.682	1.04
289.139	1.04
289.596	1.04
290.053	1.03
290.511	1.02
290.968	1.01
291.425	1.01
291.882	1
292.339	0.99
292.796	0.99
293.252	0.99
293.709	0.99
294.166	0.99
294.623	0.99
295.079	0.99
295.536	0.99
295.992	0.99
296.449	0.98
296.905	0.99
297.362	0.99
297.818	0.99
298.274	0.99
298.731	0.98
299.187	0.98
299.643	0.97
300.099	0.98
300.555	0.97
301.011	0.97
301.467	0.97
301.923	0.97
302.379	0.96
302.835	0.97
303.291	0.97
303.746	0.97
304.202	0.97
304.658	0.98
305.113	0.98
305.569	0.98
306.024	0.98
306.479	0.98
306.935	0.97
307.39	0.97
307.845	0.98
308.301	0.98
308.756	0.98
309.211	0.98
309.666	0.99
310.121	0.99
310.576	0.99
311.031	1
311.486	1.01
311.94	1.01
312.395	1.01
312.85	1.02
313.305	1.02
313.759	1.03
314.214	1.02
314.668	1.01
315.123	1.01
315.577	1.01
316.032	1.01
316.486	1
316.94	1
317.394	1
317.849	0.99
318.303	0.99
318.757	0.99
319.211	0.99
319.665	0.99
320.119	0.98
320.572	0.98
321.026	0.97
321.48	0.97
321.934	0.97
322.387	0.97
322.841	0.97
323.295	0.97
323.748	0.97
324.202	0.97
324.655	0.98
325.108	0.98
325.562	0.98
326.015	0.99
326.468	1
326.921	1
327.374	1
327.827	1
328.28	1
328.733	1
329.186	1
329.639	1
330.092	1
330.545	1.01
330.997	1
331.45	1.01
331.903	1.02
332.355	1.02
332.808	1.02
333.26	1.03
333.713	1.02
334.165	1.03
334.617	1.03
335.069	1.03
335.522	1.03
335.974	1.04
336.426	1.03
336.878	1.03
337.33	1.03
337.782	1.03
338.234	1.04
338.686	1.04
339.137	1.05
339.589	1.04
340.041	1.05
340.493	1.05
340.944	1.03
341.396	1.03
341.847	1.03
342.299	1.02
342.75	1.01
343.201	1
343.653	1
344.104	0.99
344.555	0.98
345.006	0.97
345.457	0.97
345.908	0.97
346.359	0.98
346.81	0.98
347.261	0.99
347.712	0.99
348.163	0.98
348.613	0.99
349.064	1
349.515	1
349.965	0.99
350.416	0.99
350.866	0.99
351.317	0.98
351.767	0.98
352.217	0.98
352.668	0.98
353.118	0.98
353.568	0.97
354.018	0.97
354.468	0.98
354.918	0.99
355.368	1
355.818	1
356.268	1
356.718	1
357.168	1
357.617	0.99
358.067	0.99
358.517	1.01
358.966	1.01
359.416	1.01
359.865	1.01
360.315	1.01
360.764	1.02
361.213	1.02
361.663	1.02
362.112	1.03
362.561	1.03
363.01	1.03
363.459	1.01
363.908	1.01
364.357	1.02
364.806	1.01
365.255	1.01
365.703	1.03
366.152	1.04
366.601	1.05
367.05	1.05
367.498	1.06
367.947	1.07
368.395	1.09
368.844	1.1
369.292	1.1
369.74	1.11
370.189	1.11
370.637	1.1
371.085	1.11
371.533	1.11
371.981	1.12
372.429	1.13
372.877	1.13
373.325	1.13
373.773	1.14
374.221	1.14
374.669	1.14
375.116	1.15
375.564	1.15
376.012	1.16
376.459	1.16
376.907	1.17
377.354	1.18
377.801	1.19
378.249	1.19
378.696	1.2
379.143	1.2
379.591	1.22
380.038	1.24
380.485	1.25
380.932	1.26
381.379	1.28
381.826	1.3
382.273	1.31
382.72	1.32
383.166	1.35
383.613	1.37
384.06	1.4
384.506	1.43
384.953	1.47
385.4	1.52
385.846	1.57
386.292	1.62
386.739	1.68
387.185	1.75
387.631	1.82
388.078	1.87
388.524	1.92
388.97	1.97
389.416	2.02
389.862	2.1
390.308	2.2
390.754	2.31
391.2	2.42
391.645	2.51
392.091	2.59
392.537	2.68
392.983	2.8
393.428	2.97
393.874	3.19
394.319	3.44
394.765	3.67
395.21	3.91
395.655	4.15
396.101	4.42
396.546	4.72
396.991	5.07
397.436	5.42
397.881	5.79
398.326	6.13
398.771	6.44
399.216	6.72
399.661	6.97
400.106	7.2
400.551	7.4
400.995	7.56
401.44	7.71
401.885	7.85
402.329	7.99
402.774	8.16
403.218	8.35
403.663	8.56
404.107	8.77
404.551	9
404.995	9.21
405.44	9.4
405.884	9.63
406.328	9.9
406.772	10.17
407.216	10.48
407.66	10.75
408.104	10.98
408.547	11.2
408.991	11.41
409.435	11.64
409.879	11.89
410.322	12.2
410.766	12.49
411.209	12.78
411.653	13.06
412.096	13.29
412.54	13.52
412.983	13.74
413.426	13.98
413.869	14.23
414.312	14.46
414.756	14.68
415.199	14.84
415.642	14.99
416.085	15.13
416.527	15.2
416.97	15.26
417.413	15.26
417.856	15.25
418.298	15.24
418.741	15.25
419.184	15.3
419.626	15.37
420.069	15.46
420.511	15.56
420.953	15.66
421.396	15.8
421.838	15.99
422.28	16.21
422.722	16.45
423.164	16.67
423.606	16.84
424.048	16.98
424.49	17.01
424.932	16.93
425.374	16.68
425.816	16.33
426.258	15.97
426.699	15.73
427.141	15.69
427.582	15.84
428.024	16.08
428.465	16.33
428.907	16.52
429.348	16.73
429.789	17.04
430.231	17.58
430.672	18.31
431.113	19.12
431.554	19.86
431.995	20.43
432.436	20.82
432.877	21.1
433.318	21.35
433.759	21.65
434.2	22.02
434.64	22.43
435.081	22.81
435.522	23.12
435.962	23.39
436.403	23.6
436.843	23.76
437.284	23.93
437.724	24.2
438.164	24.49
438.604	24.85
439.045	25.21
439.485	25.53
439.925	25.79
440.365	26.03
440.805	26.18
441.245	26.33
441.685	26.48
442.125	26.69
442.564	26.87
443.004	27.11
443.444	27.37
443.883	27.64
444.323	27.92
444.762	28.22
445.202	28.54
445.641	28.94
446.081	29.41
446.52	29.88
446.959	30.31
447.398	30.64
447.837	30.82
448.276	30.87
448.716	30.94
449.154	31.01
449.593	31.04
450.032	31.01
450.471	30.92
450.91	30.77
451.349	30.63
451.787	30.53
452.226	30.45
452.664	30.44
453.103	30.46
453.541	30.43
453.98	30.36
454.418	30.26
454.856	30.17
455.295	30.07
455.733	29.97
456.171	29.91
456.609	29.84
457.047	29.79
457.485	29.77
457.923	29.81
458.361	29.88
458.798	29.99
459.236	30.08
459.674	30.2
460.111	30.32
460.549	30.47
460.987	30.62
461.424	30.76
461.862	30.89
462.299	31.02
462.736	31.13
463.173	31.27
463.611	31.46
464.048	31.72
464.485	32.02
464.922	32.34
465.359	32.67
465.796	32.95
466.233	33.21
466.67	33.54
467.106	33.92
467.543	34.34
467.98	34.8
468.416	35.17
468.853	35.52
469.29	35.83
469.726	36.17
470.162	36.51
470.599	36.86
471.035	37.19
471.471	37.42
471.907	37.56
472.344	37.66
472.78	37.74
473.216	37.86
473.652	37.98
474.088	38.08
474.523	38.14
474.959	38.16
475.395	38.18
475.831	38.18
476.266	38.21
476.702	38.26
477.138	38.28
477.573	38.26
478.008	38.15
478.444	38.01
478.879	37.83
479.314	37.61
479.75	37.36
480.185	37.05
480.62	36.69
481.055	36.12
481.49	35.39
481.925	34.61
482.36	33.88
482.795	33.29
483.229	32.83
483.664	32.46
484.099	32.15
484.534	31.91
484.968	31.73
485.403	31.7
485.837	31.87
486.271	32.16
486.706	32.49
487.14	32.72
487.574	32.85
488.009	32.92
488.443	32.98
488.877	33.05
489.311	33.15
489.745	33.25
490.179	33.35
490.613	33.43
491.046	33.53
491.48	33.67
491.914	33.89
492.348	34.18
492.781	34.48
493.215	34.74
493.648	34.95
494.082	35.12
494.515	35.27
494.948	35.41
495.382	35.54
495.815	35.69
496.248	35.82
496.681	35.89
497.114	35.94
497.547	36
497.98	36.14
498.413	36.38
498.846	36.67
499.279	36.96
499.711	37.23
500.144	37.56
500.577	37.97
501.009	38.47
501.442	39.08
501.874	39.74
502.306	40.38
502.739	40.97
503.171	41.49
503.603	41.99
504.036	42.55
504.468	43.17
504.9	43.81
505.332	44.42
505.764	44.96
506.196	45.47
506.627	46.03
507.059	46.67
507.491	47.34
507.923	48.01
508.354	48.72
508.786	49.36
509.217	49.94
509.649	50.5
510.08	51.08
510.512	51.71
510.943	52.38
511.374	53
511.805	53.46
512.237	53.78
512.668	54.06
513.099	54.35
513.53	54.75
513.961	55.21
514.391	55.75
514.822	56.36
515.253	57.03
515.684	57.69
516.114	58.42
516.545	59.25
516.975	60.29
517.406	61.39
517.836	62.47
518.267	63.44
518.697	64.33
519.127	65.15
519.558	65.9
519.988	66.6
520.418	67.24
520.848	67.74
521.278	68.21
521.708	68.58
522.138	68.89
522.567	69.14
522.997	69.4
523.427	69.72
523.857	70.01
524.286	70.3
524.716	70.57
525.145	70.77
525.575	71.06
526.004	71.34
526.433	71.68
526.863	72.07
527.292	72.45
527.721	72.75
528.15	72.97
528.579	73.13
529.008	73.31
529.437	73.4
529.866	73.54
530.295	73.67
530.724	73.82
531.152	73.93
531.581	74.03
532.01	74.12
532.438	74.21
532.867	74.35
533.295	74.51
533.723	74.64
534.152	74.79
534.58	74.88
535.008	74.93
535.436	74.95
535.865	74.94
536.293	74.91
536.721	74.96
537.149	75.07
537.576	75.23
538.004	75.41
538.432	75.51
538.86	75.65
539.287	75.8
539.715	76.02
540.143	76.29
540.57	76.61
540.998	76.95
541.425	77.21
541.852	77.54
542.28	77.82
542.707	78.09
543.134	78.39
543.561	78.64
543.988	78.9
544.415	79.15
544.842	79.41
545.269	79.65
545.696	79.89
546.123	80.22
546.549	80.43
546.976	80.62
547.403	80.83
547.829	81.04
548.256	81.29
548.682	81.49
549.108	81.73
549.535	81.94
549.961	82.08
550.387	82.22
550.813	82.36
551.24	82.5
551.666	82.58
552.092	82.64
552.518	82.71
552.943	82.71
553.369	82.78
553.795	82.77
554.221	82.68
554.646	82.61
555.072	82.42
555.498	82.23
555.923	82.06
556.349	81.9
556.774	81.72
557.199	81.51
557.625	81.36
558.05	81.11
558.475	80.86
558.9	80.64
559.325	80.4
559.75	80.18
560.175	79.91
560.6	79.59
561.025	79.2
561.449	78.81
561.874	78.36
562.299	77.87
562.723	77.42
563.148	76.88
563.572	76.3
563.997	75.73
564.421	75.09
564.846	74.52
565.27	73.9
565.694	73.35
566.118	72.7
566.542	72.13
566.966	71.54
567.39	70.96
567.814	70.47
568.238	70.06
568.662	69.65
569.086	69.33
569.509	69.03
569.933	68.8
570.357	68.61
570.78	68.47
571.204	68.38
571.627	68.33
572.05	68.32
572.474	68.33
572.897	68.38
573.32	68.42
573.743	68.49
574.166	68.53
574.589	68.57
575.012	68.63
575.435	68.78
575.858	68.87
576.281	69
576.704	69.11
577.126	69.21
577.549	69.24
577.972	69.35
578.394	69.46
578.817	69.56
579.239	69.69
579.661	69.8
580.084	69.83
580.506	69.88
580.928	69.85
581.35	69.81
581.772	69.71
582.194	69.65
582.616	69.59
583.038	69.51
583.46	69.38
583.882	69.15
584.303	68.81
584.725	68.41
585.147	67.94
585.568	67.53
585.99	67.19
586.411	66.95
586.833	66.68
587.254	66.39
587.675	66.12
588.096	65.91
588.518	65.75
588.939	65.69
589.36	65.69
589.781	65.75
590.202	65.74
590.623	65.67
591.043	65.47
591.464	65.29
591.885	65.07
592.305	64.88
592.726	64.62
593.147	64.33
593.567	64.02
593.987	63.68
594.408	63.34
594.828	63
595.248	62.66
595.669	62.31
596.089	61.91
596.509	61.51
596.929	61.06
597.349	60.6
597.769	60.15
598.189	59.71
598.608	59.36
599.028	59.03
599.448	58.71
599.867	58.4
600.287	58.15
600.706	57.88
601.126	57.61
601.545	57.38
601.965	57.19
602.384	57
602.803	56.81
603.222	56.58
603.641	56.33
604.061	56.08
604.48	55.79
604.898	55.5
605.317	55.22
605.736	54.93
606.155	54.62
606.574	54.31
606.992	54.02
607.411	53.73
607.829	53.41
608.248	53.11
608.666	52.78
609.085	52.47
609.503	52.14
609.921	51.8
610.339	51.48
610.758	51.2
611.176	50.86
611.594	50.48
612.012	50.08
612.43	49.68
612.847	49.28
613.265	48.94
613.683	48.65
614.101	48.39
614.518	48.13
614.936	47.88
615.353	47.62
615.771	47.42
616.188	47.25
616.606	47.12
617.023	47.01
617.44	46.89
617.857	46.7
618.274	46.47
618.691	46.21
619.108	45.94
619.525	45.66
619.942	45.37
620.359	45.04
620.776	44.71
621.192	44.36
621.609	44.05
622.026	43.77
622.442	43.54
622.859	43.33
623.275	43.1
623.691	42.89
624.108	42.69
624.524	42.51
624.94	42.34
625.356	42.19
625.772	42.04
626.188	41.9
626.604	41.73
627.02	41.55
627.436	41.37
627.852	41.24
628.268	41.14
628.683	41.06
629.099	40.97
629.514	40.9
629.93	40.84
630.345	40.79
630.761	40.72
631.176	40.66
631.591	40.58
632.007	40.5
632.422	40.43
632.837	40.35
633.252	40.24
633.667	40.14
634.082	40.02
634.497	39.9
634.911	39.76
635.326	39.59
635.741	39.39
636.155	39.17
636.57	38.93
636.984	38.65
637.399	38.35
637.813	38.06
638.228	37.76
638.642	37.48
639.056	37.17
639.47	36.88
639.884	36.59
640.298	36.31
640.712	36.06
641.126	35.8
641.54	35.55
641.954	35.29
642.368	34.99
642.781	34.72
643.195	34.44
643.609	34.15
644.022	33.87
644.436	33.61
644.849	33.32
645.262	33.02
645.676	32.74
646.089	32.5
646.502	32.3
646.915	32.16
647.328	32
647.741	31.83
648.154	31.69
648.567	31.55
648.98	31.44
649.393	31.35
649.805	31.29
650.218	31.2
650.631	31.08
651.043	30.85
651.456	30.48
651.868	30.01
652.28	29.52
652.693	29.07
653.105	28.69
653.517	28.37
653.929	28.11
654.341	27.86
654.753	27.67
655.165	27.49
655.577	27.41
655.989	27.42
656.401	27.55
656.813	27.73
657.224	27.84
657.636	27.87
658.047	27.84
658.459	27.72
658.87	27.59
659.282	27.4
659.693	27.19
660.104	26.96
660.515	26.76
660.926	26.52
661.338	26.29
661.749	26.02
662.159	25.76
662.57	25.5
662.981	25.25
663.392	25
663.803	24.77
664.213	24.55
664.624	24.36
665.035	24.15
665.445	23.95
665.855	23.74
666.266	23.56
666.676	23.39
667.086	23.2
667.497	23.03
667.907	22.86
668.317	22.7
668.727	22.56
669.137	22.4
669.547	22.26
669.956	22.12
670.366	22.01
670.776	21.89
671.186	21.79
671.595	21.7
672.005	21.63
672.414	21.58
672.824	21.52
673.233	21.47
673.642	21.43
674.052	21.4
674.461	21.38
674.87	21.34
675.279	21.34
675.688	21.34
676.097	21.34
676.506	21.36
676.915	21.39
677.323	21.42
677.732	21.46
678.141	21.52
678.549	21.58
678.958	21.66
679.366	21.75
679.775	21.83
680.183	21.93
680.592	22.06
681	22.2
681.408	22.33
681.816	22.47
682.224	22.51
682.632	22.45
683.04	22.33
683.448	22.22
683.856	22.17
684.264	22.2
684.671	22.24
685.079	22.32
685.487	22.43
685.894	22.62
686.302	22.91
686.709	23.36
687.116	23.99
687.524	24.76
687.931	25.61
688.338	26.5
688.745	27.41
689.152	28.34
689.559	29.33
689.966	30.33
690.373	31.35
690.78	32.37
691.187	33.41
691.593	34.46
692	35.53
692.407	36.62
692.813	37.73
693.22	38.82
693.626	39.92
694.032	41.01
694.439	42.13
694.845	43.25
695.251	44.35
695.657	45.41
696.063	46.47
696.469	47.49
696.875	48.5
697.281	49.45
697.687	50.4
698.093	51.36
698.498	52.35
698.904	53.32
699.31	54.3
699.715	55.29
700.12	56.34
700.526	57.38
700.931	58.45
701.337	59.49
701.742	60.48
702.147	61.53
702.552	62.57
702.957	63.53
703.362	64.48
703.767	65.38
704.172	66.27
704.577	67.1
704.981	67.89
705.386	68.65
705.791	69.45
706.195	70.27
706.6	71.03
707.004	71.74
707.408	72.45
707.813	73.15
708.217	73.81
708.621	74.45
709.025	75.07
709.43	75.7
709.834	76.34
710.237	76.9
710.641	77.43
711.045	77.95
711.449	78.47
711.853	78.97
712.256	79.34
712.66	79.61
713.064	79.79
713.467	79.85
713.87	79.77
714.274	79.55
714.677	79.27
715.08	78.98
715.484	78.69
715.887	78.43
716.29	78.23
716.693	78.26
717.096	78.56
717.499	79.07
717.901	79.77
718.304	80.58
718.707	81.46
719.109	82.34
719.512	83.12
719.915	83.85
720.317	84.52
720.719	85.1
721.122	85.56
721.524	85.85
721.926	86.03
722.328	86.18
722.731	86.28
723.133	86.42
723.535	86.58
723.937	86.85
724.338	87.09
724.74	87.34
725.142	87.63
725.544	87.91
725.945	88.22
726.347	88.45
726.748	88.66
727.15	88.88
727.551	89.16
727.952	89.49
728.354	89.88
728.755	90.32
729.156	90.81
729.557	91.26
729.958	91.73
730.359	92.2
730.76	92.64
731.161	93.02
731.562	93.42
731.962	93.68
732.363	93.95
732.763	94.16
733.164	94.36
733.564	94.52
733.965	94.6
734.365	94.62
734.766	94.58
735.166	94.56
735.566	94.57
735.966	94.57
736.366	94.62
736.766	94.59
737.166	94.53
737.566	94.45
737.966	94.35
738.365	94.35
738.765	94.42
739.165	94.53
739.564	94.65
739.964	94.71
740.363	94.75
740.763	94.79
741.162	94.9
741.561	95.01
741.96	95.12
742.36	95.24
742.759	95.32
743.158	95.36
743.557	95.35
743.955	95.36
744.354	95.34
744.753	95.36
745.152	95.32
745.55	95.23
745.949	95.12
746.348	94.96
746.746	94.78
747.144	94.59
747.543	94.35
747.941	94.14
748.339	93.86
748.737	93.63
749.136	93.37
749.534	93.14
749.932	92.97
750.33	92.79
750.727	92.63
751.125	92.46
751.523	92.22
751.921	92.04
752.318	91.83
752.716	91.67
753.113	91.52
753.511	91.33
753.908	91.17
754.305	90.86
754.703	90.2
755.1	88.85
755.497	86.35
755.894	82.7
756.291	78.19
756.688	73.37
757.085	68.79
757.482	64.64
757.878	60.81
758.275	57
758.672	53.12
759.068	49.57
759.465	46.8
759.861	45.47
760.258	45.62
760.654	46.93
761.05	48.9
761.447	50.91
761.843	52.75
762.239	54.61
762.635	56.78
763.031	59.39
763.427	62.29
763.822	65.33
764.218	68.3
764.614	71.07
765.01	73.6
765.405	75.86
765.801	77.89
766.196	79.7
766.592	81.19
766.987	82.39
767.382	83.28
767.778	83.95
768.173	84.45
768.568	84.75
768.963	85
769.358	85.19
769.753	85.33
770.148	85.38
770.542	85.31
770.937	85.23
771.332	85.14
771.726	85.08
772.121	84.98
772.515	84.84
772.91	84.71
773.304	84.54
773.699	84.33
774.093	84.07
774.487	83.9
774.881	83.8
775.275	83.61
