Data from N_2_DEC_ON_6N_Splice17_13-15-25-255.txt Node
Date: Sat Mar 07 13:15:25 EST 2020
User: sa697716
Spectrometer: NQ5500242
Trigger mode: 0
Integration Time (sec): 1.450000E-1
Scans to average: 20
Nonlinearity correction enabled: false
Boxcar width: 5
Storing dark spectrum: false
XAxis mode: Wavelengths
Number of Pixels in Spectrum: 512
>>>>>Begin Spectral Data<<<<<
187.83	207.07
188.298	219.76
188.766	186.33
189.233	162.18
189.701	158.77
190.169	189.36
190.636	173.63
191.104	207.05
191.571	14.21
192.039	-222.31
192.506	-556.61
192.974	129.03
193.441	217.72
193.908	62.01
194.375	40.16
194.842	-17.47
195.31	-15.64
195.777	-248.62
196.244	17.35
196.711	31.49
197.177	36.41
197.644	36.89
198.111	36.69
198.578	37
199.045	36.87
199.511	37
199.978	37.19
200.445	37.35
200.911	37.33
201.378	37.49
201.844	37.72
202.31	37.38
202.777	37.6
203.243	37.66
203.709	37.32
204.176	37.18
204.642	37.19
205.108	36.94
205.574	36.88
206.04	36.35
206.506	35.89
206.972	35.31
207.438	34.88
207.903	34.31
208.369	33.58
208.835	33.22
209.301	32.59
209.766	31.49
210.232	30.77
210.697	29.82
211.163	29.27
211.628	28.72
212.094	27.96
212.559	27.44
213.024	26.81
213.49	26.42
213.955	25.5
214.42	24.86
214.885	24.26
215.35	23.45
215.815	22.48
216.28	20.93
216.745	19.18
217.21	17.63
217.675	16
218.14	14.65
218.604	13.43
219.069	12.49
219.534	11.67
219.998	10.99
220.463	10.37
220.927	9.78
221.392	9.36
221.856	9.04
222.32	8.79
222.785	8.57
223.249	8.33
223.713	8.12
224.177	7.93
224.642	7.8
225.106	7.61
225.57	7.47
226.034	7.35
226.497	7.22
226.961	7.1
227.425	6.96
227.889	6.85
228.353	6.74
228.816	6.65
229.28	6.56
229.744	6.44
230.207	6.35
230.671	6.26
231.134	6.18
231.597	6.13
232.061	6.04
232.524	5.97
232.987	5.9
233.45	5.85
233.914	5.78
234.377	5.72
234.84	5.67
235.303	5.62
235.766	5.57
236.229	5.52
236.691	5.46
237.154	5.42
237.617	5.39
238.08	5.34
238.542	5.3
239.005	5.27
239.468	5.24
239.93	5.2
240.393	5.18
240.855	5.13
241.317	5.1
241.78	5.05
242.242	5.01
242.704	4.97
243.166	4.93
243.629	4.9
244.091	4.84
244.553	4.81
245.015	4.77
245.477	4.72
245.939	4.68
246.4	4.65
246.862	4.6
247.324	4.58
247.786	4.54
248.247	4.5
248.709	4.45
249.17	4.41
249.632	4.37
250.093	4.35
250.555	4.33
251.016	4.3
251.477	4.26
251.939	4.24
252.4	4.21
252.861	4.19
253.322	4.17
253.783	4.16
254.244	4.14
254.705	4.12
255.166	4.08
255.627	4.06
256.088	4.04
256.549	4.02
257.009	4
257.47	3.97
257.931	3.94
258.391	3.91
258.852	3.88
259.312	3.86
259.773	3.83
260.233	3.81
260.694	3.79
261.154	3.75
261.614	3.73
262.074	3.71
262.534	3.69
262.994	3.67
263.455	3.65
263.915	3.63
264.374	3.6
264.834	3.59
265.294	3.56
265.754	3.55
266.214	3.53
266.673	3.53
267.133	3.51
267.593	3.51
268.052	3.49
268.512	3.49
268.971	3.47
269.431	3.46
269.89	3.45
270.349	3.45
270.809	3.44
271.268	3.44
271.727	3.42
272.186	3.41
272.645	3.39
273.104	3.38
273.563	3.37
274.022	3.36
274.481	3.35
274.94	3.34
275.399	3.33
275.857	3.32
276.316	3.31
276.775	3.3
277.233	3.29
277.692	3.28
278.15	3.28
278.609	3.27
279.067	3.26
279.525	3.26
279.984	3.25
280.442	3.25
280.9	3.25
281.358	3.24
281.816	3.24
282.274	3.23
282.732	3.22
283.19	3.22
283.648	3.2
284.106	3.2
284.564	3.19
285.021	3.18
285.479	3.18
285.937	3.17
286.394	3.16
286.852	3.15
287.309	3.16
287.767	3.15
288.224	3.14
288.682	3.13
289.139	3.12
289.596	3.11
290.053	3.09
290.511	3.08
290.968	3.07
291.425	3.05
291.882	3.04
292.339	3.02
292.796	3.02
293.252	3
293.709	3
294.166	2.99
294.623	2.98
295.079	2.98
295.536	2.97
295.992	2.97
296.449	2.96
296.905	2.97
297.362	2.97
297.818	2.96
298.274	2.96
298.731	2.95
299.187	2.95
299.643	2.94
300.099	2.94
300.555	2.93
301.011	2.92
301.467	2.92
301.923	2.9
302.379	2.9
302.835	2.9
303.291	2.89
303.746	2.89
304.202	2.9
304.658	2.9
305.113	2.89
305.569	2.89
306.024	2.88
306.479	2.88
306.935	2.88
307.39	2.89
307.845	2.89
308.301	2.88
308.756	2.89
309.211	2.89
309.666	2.89
310.121	2.9
310.576	2.9
311.031	2.91
311.486	2.91
311.94	2.92
312.395	2.92
312.85	2.92
313.305	2.92
313.759	2.93
314.214	2.92
314.668	2.92
315.123	2.92
315.577	2.92
316.032	2.92
316.486	2.91
316.94	2.91
317.394	2.9
317.849	2.9
318.303	2.89
318.757	2.88
319.211	2.87
319.665	2.86
320.119	2.85
320.572	2.84
321.026	2.83
321.48	2.82
321.934	2.81
322.387	2.81
322.841	2.81
323.295	2.8
323.748	2.8
324.202	2.8
324.655	2.8
325.108	2.81
325.562	2.81
326.015	2.82
326.468	2.82
326.921	2.83
327.374	2.82
327.827	2.83
328.28	2.83
328.733	2.83
329.186	2.82
329.639	2.83
330.092	2.82
330.545	2.82
330.997	2.81
331.45	2.81
331.903	2.82
332.355	2.83
332.808	2.82
333.26	2.82
333.713	2.81
334.165	2.81
334.617	2.81
335.069	2.8
335.522	2.82
335.974	2.82
336.426	2.81
336.878	2.8
337.33	2.8
337.782	2.8
338.234	2.81
338.686	2.82
339.137	2.83
339.589	2.82
340.041	2.82
340.493	2.81
340.944	2.81
341.396	2.8
341.847	2.8
342.299	2.79
342.75	2.79
343.201	2.77
343.653	2.76
344.104	2.75
344.555	2.74
345.006	2.74
345.457	2.73
345.908	2.73
346.359	2.73
346.81	2.73
347.261	2.73
347.712	2.72
348.163	2.72
348.613	2.72
349.064	2.72
349.515	2.72
349.965	2.72
350.416	2.72
350.866	2.71
351.317	2.7
351.767	2.7
352.217	2.71
352.668	2.71
353.118	2.71
353.568	2.7
354.018	2.71
354.468	2.71
354.918	2.71
355.368	2.72
355.818	2.72
356.268	2.73
356.718	2.74
357.168	2.73
357.617	2.73
358.067	2.74
358.517	2.77
358.966	2.77
359.416	2.77
359.865	2.77
360.315	2.78
360.764	2.79
361.213	2.78
361.663	2.78
362.112	2.79
362.561	2.8
363.01	2.79
363.459	2.78
363.908	2.77
364.357	2.78
364.806	2.77
365.255	2.77
365.703	2.78
366.152	2.79
366.601	2.79
367.05	2.8
367.498	2.79
367.947	2.79
368.395	2.8
368.844	2.81
369.292	2.8
369.74	2.82
370.189	2.82
370.637	2.82
371.085	2.82
371.533	2.82
371.981	2.82
372.429	2.83
372.877	2.84
373.325	2.84
373.773	2.84
374.221	2.85
374.669	2.85
375.116	2.85
375.564	2.85
376.012	2.85
376.459	2.86
376.907	2.87
377.354	2.89
377.801	2.9
378.249	2.91
378.696	2.92
379.143	2.93
379.591	2.95
380.038	2.97
380.485	2.99
380.932	3
381.379	3.01
381.826	3.03
382.273	3.03
382.72	3.03
383.166	3.04
383.613	3.04
384.06	3.04
384.506	3.03
384.953	3.04
385.4	3.05
385.846	3.07
386.292	3.07
386.739	3.08
387.185	3.09
387.631	3.11
388.078	3.14
388.524	3.16
388.97	3.18
389.416	3.2
389.862	3.22
390.308	3.24
390.754	3.27
391.2	3.28
391.645	3.3
392.091	3.32
392.537	3.34
392.983	3.34
393.428	3.36
393.874	3.38
394.319	3.4
394.765	3.42
395.21	3.43
395.655	3.45
396.101	3.48
396.546	3.5
396.991	3.53
397.436	3.55
397.881	3.58
398.326	3.61
398.771	3.63
399.216	3.65
399.661	3.67
400.106	3.69
400.551	3.69
400.995	3.69
401.44	3.7
401.885	3.7
402.329	3.72
402.774	3.72
403.218	3.74
403.663	3.76
404.107	3.77
404.551	3.78
404.995	3.78
405.44	3.78
405.884	3.79
406.328	3.82
406.772	3.82
407.216	3.83
407.66	3.84
408.104	3.82
408.547	3.82
408.991	3.83
409.435	3.82
409.879	3.83
410.322	3.85
410.766	3.86
411.209	3.88
411.653	3.89
412.096	3.9
412.54	3.91
412.983	3.92
413.426	3.96
413.869	3.97
414.312	4
414.756	4.02
415.199	4.02
415.642	4.03
416.085	4.02
416.527	4.01
416.97	4.01
417.413	4.01
417.856	4.02
418.298	4
418.741	3.99
419.184	3.98
419.626	3.98
420.069	3.98
420.511	4
420.953	4
421.396	4.02
421.838	4.03
422.28	4.03
422.722	4.04
423.164	4.05
423.606	4.06
424.048	4.05
424.49	4.06
424.932	4.05
425.374	4.01
425.816	4.01
426.258	3.99
426.699	3.99
427.141	3.98
427.582	3.98
428.024	3.99
428.465	4
428.907	3.99
429.348	3.98
429.789	3.97
430.231	4
430.672	4.02
431.113	4.04
431.554	4.04
431.995	4.05
432.436	4.06
432.877	4.05
433.318	4.06
433.759	4.09
434.2	4.11
434.64	4.13
435.081	4.14
435.522	4.15
435.962	4.15
436.403	4.19
436.843	4.2
437.284	4.2
437.724	4.21
438.164	4.2
438.604	4.2
439.045	4.2
439.485	4.21
439.925	4.2
440.365	4.21
440.805	4.21
441.245	4.21
441.685	4.22
442.125	4.24
442.564	4.25
443.004	4.26
443.444	4.26
443.883	4.28
444.323	4.28
444.762	4.29
445.202	4.29
445.641	4.31
446.081	4.31
446.52	4.3
446.959	4.33
447.398	4.35
447.837	4.35
448.276	4.37
448.716	4.37
449.154	4.4
449.593	4.42
450.032	4.43
450.471	4.42
450.91	4.43
451.349	4.44
451.787	4.42
452.226	4.41
452.664	4.42
453.103	4.41
453.541	4.41
453.98	4.42
454.418	4.4
454.856	4.4
455.295	4.41
455.733	4.39
456.171	4.39
456.609	4.39
457.047	4.38
457.485	4.37
457.923	4.38
458.361	4.38
458.798	4.37
459.236	4.37
459.674	4.37
460.111	4.37
460.549	4.39
460.987	4.39
461.424	4.41
461.862	4.42
462.299	4.45
462.736	4.44
463.173	4.43
463.611	4.43
464.048	4.44
464.485	4.45
464.922	4.46
465.359	4.46
465.796	4.47
466.233	4.48
466.67	4.49
467.106	4.5
467.543	4.49
467.98	4.5
468.416	4.5
468.853	4.52
469.29	4.52
469.726	4.52
470.162	4.52
470.599	4.5
471.035	4.49
471.471	4.49
471.907	4.48
472.344	4.48
472.78	4.48
473.216	4.47
473.652	4.46
474.088	4.45
474.523	4.45
474.959	4.44
475.395	4.44
475.831	4.43
476.266	4.43
476.702	4.42
477.138	4.42
477.573	4.42
478.008	4.42
478.444	4.41
478.879	4.41
479.314	4.4
479.75	4.4
480.185	4.39
480.62	4.39
481.055	4.39
481.49	4.38
481.925	4.39
482.36	4.39
482.795	4.39
483.229	4.39
483.664	4.4
484.099	4.4
484.534	4.4
484.968	4.41
485.403	4.42
485.837	4.43
486.271	4.45
486.706	4.46
487.14	4.47
487.574	4.49
488.009	4.5
488.443	4.52
488.877	4.54
489.311	4.57
489.745	4.6
490.179	4.63
490.613	4.66
491.046	4.69
491.48	4.72
491.914	4.75
492.348	4.78
492.781	4.82
493.215	4.87
493.648	4.91
494.082	4.95
494.515	4.99
494.948	5.03
495.382	5.08
495.815	5.14
496.248	5.2
496.681	5.25
497.114	5.31
497.547	5.38
497.98	5.44
498.413	5.5
498.846	5.57
499.279	5.65
499.711	5.73
500.144	5.82
500.577	5.89
501.009	5.97
501.442	6.06
501.874	6.16
502.306	6.26
502.739	6.38
503.171	6.48
503.603	6.6
504.036	6.72
504.468	6.85
504.9	6.96
505.332	7.1
505.764	7.24
506.196	7.38
506.627	7.53
507.059	7.7
507.491	7.84
507.923	8.01
508.354	8.19
508.786	8.37
509.217	8.55
509.649	8.74
510.08	8.94
510.512	9.15
510.943	9.35
511.374	9.55
511.805	9.76
512.237	9.96
512.668	10.17
513.099	10.37
513.53	10.59
513.961	10.81
514.391	11.04
514.822	11.28
515.253	11.5
515.684	11.73
516.114	11.98
516.545	12.21
516.975	12.46
517.406	12.71
517.836	12.95
518.267	13.2
518.697	13.43
519.127	13.66
519.558	13.89
519.988	14.13
520.418	14.35
520.848	14.57
521.278	14.8
521.708	15.08
522.138	15.3
522.567	15.5
522.997	15.7
523.427	15.92
523.857	16.12
524.286	16.31
524.716	16.5
525.145	16.7
525.575	16.88
526.004	17.05
526.433	17.15
526.863	17.31
527.292	17.47
527.721	17.62
528.15	17.75
528.579	17.88
529.008	18.01
529.437	18.12
529.866	18.23
530.295	18.34
530.724	18.46
531.152	18.58
531.581	18.68
532.01	18.77
532.438	18.87
532.867	18.96
533.295	19.05
533.723	19.12
534.152	19.19
534.58	19.26
535.008	19.32
535.436	19.38
535.865	19.41
536.293	19.47
536.721	19.52
537.149	19.56
537.576	19.6
538.004	19.63
538.432	19.67
538.86	19.7
539.287	19.74
539.715	19.77
540.143	19.79
540.57	19.83
540.998	19.84
541.425	19.86
541.852	19.88
542.28	19.91
542.707	19.92
543.134	19.95
543.561	19.99
543.988	20
544.415	20.02
544.842	20.03
545.269	20.07
545.696	20.1
546.123	20.12
546.549	20.15
546.976	20.17
547.403	20.2
547.829	20.2
548.256	20.21
548.682	20.23
549.108	20.24
549.535	20.24
549.961	20.25
550.387	20.25
550.813	20.25
551.24	20.24
551.666	20.22
552.092	20.2
552.518	20.2
552.943	20.18
553.369	20.16
553.795	20.15
554.221	20.12
554.646	20.08
555.072	20.05
555.498	20.01
555.923	19.97
556.349	19.93
556.774	19.88
557.199	19.83
557.625	19.78
558.05	19.71
558.475	19.66
558.9	19.6
559.325	19.54
559.75	19.47
560.175	19.42
560.6	19.33
561.025	19.26
561.449	19.17
561.874	19.08
562.299	18.97
562.723	18.87
563.148	18.76
563.572	18.65
563.997	18.53
564.421	18.4
564.846	18.26
565.27	18.14
565.694	18.03
566.118	17.91
566.542	17.79
566.966	17.67
567.39	17.55
567.814	17.43
568.238	17.31
568.662	17.18
569.086	17.06
569.509	16.95
569.933	16.84
570.357	16.71
570.78	16.58
571.204	16.46
571.627	16.34
572.05	16.23
572.474	16.12
572.897	16.01
573.32	15.9
573.743	15.8
574.166	15.69
574.589	15.58
575.012	15.5
575.435	15.4
575.858	15.31
576.281	15.21
576.704	15.12
577.126	15.02
577.549	14.93
577.972	14.85
578.394	14.76
578.817	14.68
579.239	14.59
579.661	14.51
580.084	14.44
580.506	14.37
580.928	14.3
581.35	14.24
581.772	14.18
582.194	14.11
582.616	14.05
583.038	13.98
583.46	13.92
583.882	13.87
584.303	13.8
584.725	13.73
585.147	13.68
585.568	13.62
585.99	13.57
586.411	13.51
586.833	13.47
587.254	13.41
587.675	13.35
588.096	13.31
588.518	13.25
588.939	13.21
589.36	13.18
589.781	13.13
590.202	13.11
590.623	13.07
591.043	13.03
591.464	12.99
591.885	12.96
592.305	12.93
592.726	12.9
593.147	12.88
593.567	12.84
593.987	12.8
594.408	12.77
594.828	12.72
595.248	12.68
595.669	12.66
596.089	12.62
596.509	12.6
596.929	12.57
597.349	12.53
597.769	12.5
598.189	12.48
598.608	12.45
599.028	12.42
599.448	12.4
599.867	12.38
600.287	12.34
600.706	12.31
601.126	12.29
601.545	12.26
601.965	12.24
602.384	12.2
602.803	12.15
603.222	12.12
603.641	12.08
604.061	12.04
604.48	11.99
604.898	11.93
605.317	11.88
605.736	11.82
606.155	11.77
606.574	11.7
606.992	11.65
607.411	11.6
607.829	11.51
608.248	11.43
608.666	11.35
609.085	11.29
609.503	11.24
609.921	11.19
610.339	11.12
610.758	11.06
611.176	10.99
611.594	10.92
612.012	10.86
612.43	10.83
612.847	10.78
613.265	10.73
613.683	10.67
614.101	10.61
614.518	10.55
614.936	10.5
615.353	10.43
615.771	10.38
616.188	10.32
616.606	10.28
617.023	10.21
617.44	10.17
617.857	10.12
618.274	10.07
618.691	10.03
619.108	9.99
619.525	9.94
619.942	9.91
620.359	9.88
620.776	9.85
621.192	9.82
621.609	9.8
622.026	9.76
622.442	9.74
622.859	9.71
623.275	9.68
623.691	9.66
624.108	9.65
624.524	9.64
624.94	9.61
625.356	9.6
625.772	9.59
626.188	9.58
626.604	9.57
627.02	9.56
627.436	9.56
627.852	9.56
628.268	9.55
628.683	9.55
629.099	9.54
629.514	9.53
629.93	9.51
630.345	9.5
630.761	9.48
631.176	9.46
631.591	9.42
632.007	9.4
632.422	9.36
632.837	9.32
633.252	9.27
633.667	9.23
634.082	9.17
634.497	9.13
634.911	9.07
635.326	9.01
635.741	8.95
636.155	8.88
636.57	8.81
636.984	8.74
637.399	8.67
637.813	8.58
638.228	8.5
638.642	8.43
639.056	8.34
639.47	8.25
639.884	8.17
640.298	8.08
640.712	7.99
641.126	7.9
641.54	7.81
641.954	7.71
642.368	7.63
642.781	7.54
643.195	7.46
643.609	7.39
644.022	7.3
644.436	7.22
644.849	7.14
645.262	7.08
645.676	7.01
646.089	6.95
646.502	6.89
646.915	6.83
647.328	6.79
647.741	6.73
648.154	6.68
648.567	6.64
648.98	6.6
649.393	6.56
649.805	6.53
650.218	6.5
650.631	6.46
651.043	6.43
651.456	6.4
651.868	6.36
652.28	6.34
652.693	6.3
653.105	6.27
653.517	6.23
653.929	6.2
654.341	6.16
654.753	6.11
655.165	6.06
655.577	6.01
655.989	5.96
656.401	5.91
656.813	5.86
657.224	5.8
657.636	5.72
658.047	5.67
658.459	5.6
658.87	5.54
659.282	5.47
659.693	5.42
660.104	5.34
660.515	5.29
660.926	5.22
661.338	5.15
661.749	5.09
662.159	5.04
662.57	4.98
662.981	4.93
663.392	4.89
663.803	4.85
664.213	4.81
664.624	4.77
665.035	4.73
665.445	4.7
665.855	4.67
666.266	4.65
666.676	4.63
667.086	4.6
667.497	4.58
667.907	4.57
668.317	4.56
668.727	4.54
669.137	4.53
669.547	4.53
669.956	4.51
670.366	4.51
670.776	4.51
671.186	4.51
671.595	4.51
672.005	4.5
672.414	4.51
672.824	4.5
673.233	4.51
673.642	4.52
674.052	4.53
674.461	4.54
674.87	4.55
675.279	4.57
675.688	4.59
676.097	4.62
676.506	4.63
676.915	4.65
677.323	4.69
677.732	4.71
678.141	4.74
678.549	4.76
678.958	4.8
679.366	4.84
679.775	4.88
680.183	4.93
680.592	4.98
681	5.05
681.408	5.13
681.816	5.19
682.224	5.28
682.632	5.37
683.04	5.47
683.448	5.57
683.856	5.68
684.264	5.81
684.671	5.95
685.079	6.09
685.487	6.26
685.894	6.42
686.302	6.63
686.709	6.85
687.116	7.08
687.524	7.33
687.931	7.61
688.338	7.89
688.745	8.19
689.152	8.52
689.559	8.89
689.966	9.24
690.373	9.62
690.78	10.02
691.187	10.42
691.593	10.84
692	11.27
692.407	11.69
692.813	12.15
693.22	12.61
693.626	13.06
694.032	13.51
694.439	13.98
694.845	14.45
695.251	14.91
695.657	15.37
696.063	15.84
696.469	16.32
696.875	16.79
697.281	17.26
697.687	17.74
698.093	18.22
698.498	18.67
698.904	19.12
699.31	19.57
699.715	20.03
700.12	20.48
700.526	20.92
700.931	21.34
701.337	21.78
701.742	22.2
702.147	22.58
702.552	22.97
702.957	23.35
703.362	23.74
703.767	24.11
704.172	24.47
704.577	24.82
704.981	25.17
705.386	25.51
705.791	25.84
706.195	26.17
706.6	26.52
707.004	26.85
707.408	27.18
707.813	27.51
708.217	27.83
708.621	28.16
709.025	28.48
709.43	28.79
709.834	29.11
710.237	29.41
710.641	29.69
711.045	29.97
711.449	30.26
711.853	30.55
712.256	30.83
712.66	31.08
713.064	31.32
713.467	31.58
713.87	31.84
714.274	32.09
714.677	32.34
715.08	32.56
715.484	32.79
715.887	33.04
716.29	33.25
716.693	33.46
717.096	33.69
717.499	33.94
717.901	34.14
718.304	34.34
718.707	34.54
719.109	34.74
719.512	34.95
719.915	35.16
720.317	35.32
720.719	35.48
721.122	35.66
721.524	35.84
721.926	36.02
722.328	36.18
722.731	36.33
723.133	36.47
723.535	36.61
723.937	36.73
724.338	36.87
724.74	37.01
725.142	37.24
725.544	37.37
725.945	37.5
726.347	37.59
726.748	37.7
727.15	37.81
727.551	37.96
727.952	38.06
728.354	38.21
728.755	38.29
729.156	38.38
729.557	38.39
729.958	38.46
730.359	38.54
730.76	38.64
731.161	38.71
731.562	38.8
731.962	38.84
732.363	38.93
732.763	38.97
733.164	39.05
733.564	39.12
733.965	39.17
734.365	39.26
734.766	39.31
735.166	39.36
735.566	39.42
735.966	39.49
736.366	39.53
736.766	39.58
737.166	39.63
737.566	39.66
737.966	39.69
738.365	39.74
738.765	39.77
739.165	39.81
739.564	39.84
739.964	39.89
740.363	39.91
740.763	39.97
741.162	39.99
741.561	40
741.96	40.03
742.36	40.04
742.759	40.07
743.158	40.1
743.557	40.1
743.955	40.12
744.354	40.12
744.753	40.15
745.152	40.16
745.55	40.17
745.949	40.2
746.348	40.25
746.746	40.27
747.144	40.29
747.543	40.28
747.941	40.31
748.339	40.32
748.737	40.34
749.136	40.35
749.534	40.36
749.932	40.38
750.33	40.4
750.727	40.41
751.125	40.41
751.523	40.42
751.921	40.44
752.318	40.44
752.716	40.46
753.113	40.48
753.511	40.48
753.908	40.53
754.305	40.55
754.703	40.53
755.1	40.55
755.497	40.58
755.894	40.56
756.291	40.57
756.688	40.59
757.085	40.62
757.482	40.61
757.878	40.62
758.275	40.6
758.672	40.58
759.068	40.61
759.465	40.59
759.861	40.59
760.258	40.61
760.654	40.61
761.05	40.59
761.447	40.57
761.843	40.59
762.239	40.58
762.635	40.55
763.031	40.57
763.427	40.54
763.822	40.55
764.218	40.56
764.614	40.58
765.01	40.57
765.405	40.57
765.801	40.54
766.196	40.53
766.592	40.53
766.987	40.53
767.382	40.52
767.778	40.53
768.173	40.51
768.568	40.5
768.963	40.5
769.358	40.51
769.753	40.52
770.148	40.54
770.542	40.54
770.937	40.55
771.332	40.55
771.726	40.55
772.121	40.54
772.515	40.55
772.91	40.52
773.304	40.51
773.699	40.49
774.093	40.47
774.487	40.46
774.881	40.47
775.275	40.45
775.669	40.46
776.063	40.44
776.457	40.43
776.851	40.4
777.245	40.4
777.638	40.39
778.032	40.4
778.425	40.43
778.819	40.43
779.212	40.42
779.606	40.42
779.999	40.41
780.392	40.43
780.786	40.43
781.179	40.46
781.572	40.47
781.965	40.47
782.358	40.48
782.751	40.47
783.143	40.47
783.536	40.46
783.929	40.47
784.322	40.48
784.714	40.49
785.107	40.5
