Data from N_2_DIV_PA_2N_Splice17_13-38-55-079.txt Node
Date: Sat Mar 07 13:38:55 EST 2020
User: sa697716
Spectrometer: NQ5500242
Trigger mode: 0
Integration Time (sec): 1.450000E-1
Scans to average: 20
Nonlinearity correction enabled: false
Boxcar width: 5
Storing dark spectrum: false
XAxis mode: Wavelengths
Number of Pixels in Spectrum: 512
>>>>>Begin Spectral Data<<<<<
187.83	219.43
188.298	232.39
188.766	203.55
189.233	173.71
189.701	189.51
190.169	208.37
190.636	227.91
191.104	249
191.571	-62.89
192.039	-272.81
192.506	-836.86
192.974	46.01
193.441	37.26
193.908	-11.45
194.375	35.45
194.842	-9.47
195.31	-32.23
195.777	-22.39
196.244	84.09
196.711	89.33
197.177	90.97
197.644	91.26
198.111	92.07
198.578	92.37
199.045	93
199.511	92.46
199.978	92.7
200.445	93.38
200.911	93.58
201.378	93.62
201.844	93.63
202.31	93.21
202.777	93.03
203.243	92.55
203.709	91.98
204.176	90.86
204.642	90.52
205.108	90.02
205.574	88.83
206.04	87.77
206.506	86.94
206.972	86.09
207.438	84.97
207.903	83.45
208.369	81.62
208.835	79.85
209.301	78.11
209.766	75.62
210.232	73.49
210.697	71.31
211.163	69.21
211.628	67.19
212.094	65.23
212.559	63.89
213.024	62.16
213.49	60.91
213.955	59.2
214.42	57.49
214.885	55.54
215.35	52.91
215.815	49.9
216.28	45.84
216.745	41.4
217.21	37.07
217.675	32.89
218.14	29.42
218.604	26.33
219.069	23.8
219.534	21.73
219.998	20.02
220.463	18.62
220.927	17.3
221.392	16.33
221.856	15.56
222.32	14.88
222.785	14.29
223.249	13.78
223.713	13.32
224.177	12.95
224.642	12.58
225.106	12.21
225.57	11.89
226.034	11.64
226.497	11.38
226.961	11.12
227.425	10.9
227.889	10.67
228.353	10.46
228.816	10.25
229.28	10.05
229.744	9.86
230.207	9.69
230.671	9.52
231.134	9.36
231.597	9.24
232.061	9.1
232.524	8.97
232.987	8.85
233.45	8.74
233.914	8.63
234.377	8.52
234.84	8.42
235.303	8.35
235.766	8.26
236.229	8.17
236.691	8.08
237.154	8.01
237.617	7.94
238.08	7.87
238.542	7.79
239.005	7.74
239.468	7.68
239.93	7.61
240.393	7.54
240.855	7.47
241.317	7.4
241.78	7.33
242.242	7.25
242.704	7.19
243.166	7.13
243.629	7.09
244.091	7.01
244.553	6.94
245.015	6.88
245.477	6.81
245.939	6.75
246.4	6.69
246.862	6.62
247.324	6.58
247.786	6.51
248.247	6.45
248.709	6.38
249.17	6.31
249.632	6.29
250.093	6.25
250.555	6.2
251.016	6.17
251.477	6.14
251.939	6.12
252.4	6.08
252.861	6.04
253.322	6.02
253.783	6
254.244	5.98
254.705	5.93
255.166	5.9
255.627	5.86
256.088	5.82
256.549	5.79
257.009	5.74
257.47	5.7
257.931	5.66
258.391	5.61
258.852	5.55
259.312	5.51
259.773	5.47
260.233	5.43
260.694	5.39
261.154	5.34
261.614	5.31
262.074	5.26
262.534	5.23
262.994	5.19
263.455	5.16
263.915	5.13
264.374	5.1
264.834	5.07
265.294	5.04
265.754	5.01
266.214	4.99
266.673	4.96
267.133	4.95
267.593	4.93
268.052	4.92
268.512	4.9
268.971	4.89
269.431	4.88
269.89	4.86
270.349	4.85
270.809	4.85
271.268	4.84
271.727	4.82
272.186	4.81
272.645	4.8
273.104	4.78
273.563	4.77
274.022	4.76
274.481	4.76
274.94	4.76
275.399	4.75
275.857	4.74
276.316	4.73
276.775	4.72
277.233	4.72
277.692	4.72
278.15	4.72
278.609	4.72
279.067	4.72
279.525	4.72
279.984	4.71
280.442	4.71
280.9	4.72
281.358	4.72
281.816	4.72
282.274	4.72
282.732	4.72
283.19	4.72
283.648	4.7
284.106	4.7
284.564	4.7
285.021	4.7
285.479	4.69
285.937	4.68
286.394	4.67
286.852	4.65
287.309	4.64
287.767	4.63
288.224	4.61
288.682	4.6
289.139	4.58
289.596	4.56
290.053	4.53
290.511	4.5
290.968	4.48
291.425	4.46
291.882	4.46
292.339	4.44
292.796	4.43
293.252	4.42
293.709	4.4
294.166	4.4
294.623	4.39
295.079	4.38
295.536	4.38
295.992	4.37
296.449	4.36
296.905	4.35
297.362	4.35
297.818	4.34
298.274	4.34
298.731	4.33
299.187	4.31
299.643	4.31
300.099	4.31
300.555	4.31
301.011	4.3
301.467	4.31
301.923	4.3
302.379	4.31
302.835	4.32
303.291	4.33
303.746	4.33
304.202	4.34
304.658	4.35
305.113	4.36
305.569	4.36
306.024	4.36
306.479	4.35
306.935	4.35
307.39	4.36
307.845	4.36
308.301	4.36
308.756	4.38
309.211	4.38
309.666	4.39
310.121	4.39
310.576	4.39
311.031	4.4
311.486	4.41
311.94	4.42
312.395	4.42
312.85	4.42
313.305	4.42
313.759	4.42
314.214	4.42
314.668	4.42
315.123	4.42
315.577	4.41
316.032	4.41
316.486	4.41
316.94	4.41
317.394	4.4
317.849	4.38
318.303	4.37
318.757	4.35
319.211	4.34
319.665	4.32
320.119	4.3
320.572	4.29
321.026	4.27
321.48	4.26
321.934	4.24
322.387	4.24
322.841	4.24
323.295	4.24
323.748	4.23
324.202	4.24
324.655	4.24
325.108	4.26
325.562	4.26
326.015	4.28
326.468	4.29
326.921	4.29
327.374	4.29
327.827	4.3
328.28	4.31
328.733	4.31
329.186	4.31
329.639	4.32
330.092	4.32
330.545	4.32
330.997	4.32
331.45	4.33
331.903	4.34
332.355	4.35
332.808	4.35
333.26	4.35
333.713	4.35
334.165	4.35
334.617	4.36
335.069	4.35
335.522	4.36
335.974	4.37
336.426	4.36
336.878	4.35
337.33	4.34
337.782	4.35
338.234	4.36
338.686	4.36
339.137	4.37
339.589	4.35
340.041	4.35
340.493	4.33
340.944	4.31
341.396	4.3
341.847	4.28
342.299	4.27
342.75	4.25
343.201	4.22
343.653	4.2
344.104	4.18
344.555	4.16
345.006	4.14
345.457	4.12
345.908	4.12
346.359	4.11
346.81	4.11
347.261	4.1
347.712	4.09
348.163	4.09
348.613	4.09
349.064	4.09
349.515	4.09
349.965	4.1
350.416	4.09
350.866	4.1
351.317	4.1
351.767	4.11
352.217	4.1
352.668	4.11
353.118	4.11
353.568	4.11
354.018	4.12
354.468	4.13
354.918	4.14
355.368	4.15
355.818	4.15
356.268	4.15
356.718	4.16
357.168	4.17
357.617	4.17
358.067	4.17
358.517	4.18
358.966	4.19
359.416	4.18
359.865	4.18
360.315	4.18
360.764	4.19
361.213	4.19
361.663	4.18
362.112	4.19
362.561	4.21
363.01	4.21
363.459	4.19
363.908	4.18
364.357	4.2
364.806	4.2
365.255	4.21
365.703	4.22
366.152	4.24
366.601	4.25
367.05	4.25
367.498	4.24
367.947	4.25
368.395	4.26
368.844	4.27
369.292	4.27
369.74	4.28
370.189	4.28
370.637	4.28
371.085	4.26
371.533	4.26
371.981	4.26
372.429	4.28
372.877	4.28
373.325	4.29
373.773	4.3
374.221	4.3
374.669	4.3
375.116	4.3
375.564	4.3
376.012	4.32
376.459	4.33
376.907	4.36
377.354	4.36
377.801	4.38
378.249	4.39
378.696	4.39
379.143	4.41
379.591	4.42
380.038	4.44
380.485	4.45
380.932	4.48
381.379	4.49
381.826	4.5
382.273	4.52
382.72	4.52
383.166	4.54
383.613	4.56
384.06	4.57
384.506	4.59
384.953	4.61
385.4	4.64
385.846	4.65
386.292	4.67
386.739	4.69
387.185	4.7
387.631	4.72
388.078	4.74
388.524	4.77
388.97	4.79
389.416	4.83
389.862	4.86
390.308	4.89
390.754	4.93
391.2	4.97
391.645	5
392.091	5.05
392.537	5.09
392.983	5.12
393.428	5.16
393.874	5.19
394.319	5.22
394.765	5.25
395.21	5.28
395.655	5.31
396.101	5.34
396.546	5.37
396.991	5.41
397.436	5.47
397.881	5.52
398.326	5.56
398.771	5.61
399.216	5.65
399.661	5.7
400.106	5.75
400.551	5.79
400.995	5.82
401.44	5.86
401.885	5.88
402.329	5.92
402.774	5.96
403.218	6.01
403.663	6.04
404.107	6.08
404.551	6.12
404.995	6.15
405.44	6.17
405.884	6.22
406.328	6.26
406.772	6.3
407.216	6.33
407.66	6.35
408.104	6.36
408.547	6.39
408.991	6.42
409.435	6.45
409.879	6.49
410.322	6.54
410.766	6.59
411.209	6.62
411.653	6.67
412.096	6.72
412.54	6.76
412.983	6.82
413.426	6.88
413.869	6.92
414.312	6.98
414.756	7.02
415.199	7.04
415.642	7.06
416.085	7.08
416.527	7.07
416.97	7.07
417.413	7.09
417.856	7.08
418.298	7.08
418.741	7.09
419.184	7.08
419.626	7.09
420.069	7.11
420.511	7.13
420.953	7.16
421.396	7.2
421.838	7.21
422.28	7.23
422.722	7.27
423.164	7.28
423.606	7.3
424.048	7.33
424.49	7.33
424.932	7.32
425.374	7.3
425.816	7.27
426.258	7.25
426.699	7.25
427.141	7.26
427.582	7.28
428.024	7.3
428.465	7.31
428.907	7.29
429.348	7.29
429.789	7.32
430.231	7.37
430.672	7.43
431.113	7.47
431.554	7.49
431.995	7.5
432.436	7.5
432.877	7.51
433.318	7.54
433.759	7.58
434.2	7.63
434.64	7.64
435.081	7.64
435.522	7.64
435.962	7.64
436.403	7.66
436.843	7.69
437.284	7.69
437.724	7.7
438.164	7.69
438.604	7.7
439.045	7.7
439.485	7.7
439.925	7.69
440.365	7.7
440.805	7.69
441.245	7.69
441.685	7.7
442.125	7.72
442.564	7.71
443.004	7.72
443.444	7.72
443.883	7.73
444.323	7.71
444.762	7.71
445.202	7.71
445.641	7.74
446.081	7.74
446.52	7.72
446.959	7.72
447.398	7.73
447.837	7.72
448.276	7.71
448.716	7.69
449.154	7.71
449.593	7.72
450.032	7.69
450.471	7.65
450.91	7.63
451.349	7.63
451.787	7.59
452.226	7.55
452.664	7.53
453.103	7.49
453.541	7.48
453.98	7.45
454.418	7.41
454.856	7.39
455.295	7.38
455.733	7.35
456.171	7.33
456.609	7.34
457.047	7.31
457.485	7.29
457.923	7.29
458.361	7.27
458.798	7.27
459.236	7.27
459.674	7.26
460.111	7.25
460.549	7.27
460.987	7.26
461.424	7.25
461.862	7.26
462.299	7.29
462.736	7.28
463.173	7.28
463.611	7.3
464.048	7.3
464.485	7.32
464.922	7.32
465.359	7.31
465.796	7.34
466.233	7.36
466.67	7.36
467.106	7.36
467.543	7.35
467.98	7.35
468.416	7.32
468.853	7.31
469.29	7.29
469.726	7.28
470.162	7.28
470.599	7.25
471.035	7.22
471.471	7.2
471.907	7.17
472.344	7.17
472.78	7.17
473.216	7.15
473.652	7.14
474.088	7.13
474.523	7.12
474.959	7.1
475.395	7.07
475.831	7.06
476.266	7.04
476.702	7.01
477.138	6.99
477.573	6.98
478.008	6.95
478.444	6.92
478.879	6.91
479.314	6.87
479.75	6.86
480.185	6.82
480.62	6.81
481.055	6.78
481.49	6.77
481.925	6.74
482.36	6.72
482.795	6.71
483.229	6.69
483.664	6.68
484.099	6.67
484.534	6.65
484.968	6.64
485.403	6.63
485.837	6.63
486.271	6.62
486.706	6.62
487.14	6.6
487.574	6.6
488.009	6.6
488.443	6.59
488.877	6.59
489.311	6.59
489.745	6.6
490.179	6.61
490.613	6.62
491.046	6.61
491.48	6.62
491.914	6.62
492.348	6.63
492.781	6.64
493.215	6.64
493.648	6.65
494.082	6.66
494.515	6.66
494.948	6.66
495.382	6.66
495.815	6.67
496.248	6.68
496.681	6.7
497.114	6.71
497.547	6.73
497.98	6.74
498.413	6.75
498.846	6.77
499.279	6.79
499.711	6.8
500.144	6.82
500.577	6.83
501.009	6.85
501.442	6.88
501.874	6.9
502.306	6.91
502.739	6.96
503.171	6.98
503.603	7
504.036	7.02
504.468	7.05
504.9	7.08
505.332	7.1
505.764	7.14
506.196	7.17
506.627	7.2
507.059	7.24
507.491	7.25
507.923	7.3
508.354	7.36
508.786	7.41
509.217	7.47
509.649	7.53
510.08	7.6
510.512	7.66
510.943	7.72
511.374	7.8
511.805	7.87
512.237	7.96
512.668	8.03
513.099	8.09
513.53	8.17
513.961	8.26
514.391	8.35
514.822	8.45
515.253	8.54
515.684	8.64
516.114	8.73
516.545	8.83
516.975	8.93
517.406	9.04
517.836	9.14
518.267	9.26
518.697	9.36
519.127	9.47
519.558	9.58
519.988	9.69
520.418	9.79
520.848	9.91
521.278	10.02
521.708	10.34
522.138	10.46
522.567	10.57
522.997	10.67
523.427	10.78
523.857	10.89
524.286	10.99
524.716	11.11
525.145	11.22
525.575	11.32
526.004	11.43
526.433	11.34
526.863	11.44
527.292	11.54
527.721	11.65
528.15	11.75
528.579	11.83
529.008	11.93
529.437	12.02
529.866	12.1
530.295	12.19
530.724	12.26
531.152	12.33
531.581	12.4
532.01	12.48
532.438	12.54
532.867	12.61
533.295	12.67
533.723	12.73
534.152	12.78
534.58	12.82
535.008	12.86
535.436	12.92
535.865	12.97
536.293	13
536.721	13.04
537.149	13.08
537.576	13.11
538.004	13.14
538.432	13.16
538.86	13.2
539.287	13.23
539.715	13.27
540.143	13.29
540.57	13.31
540.998	13.34
541.425	13.38
541.852	13.4
542.28	13.41
542.707	13.44
543.134	13.46
543.561	13.49
543.988	13.52
544.415	13.53
544.842	13.55
545.269	13.57
545.696	13.59
546.123	13.61
546.549	13.63
546.976	13.66
547.403	13.66
547.829	13.68
548.256	13.69
548.682	13.69
549.108	13.72
549.535	13.73
549.961	13.75
550.387	13.75
550.813	13.75
551.24	13.75
551.666	13.75
552.092	13.74
552.518	13.74
552.943	13.73
553.369	13.72
553.795	13.7
554.221	13.68
554.646	13.64
555.072	13.62
555.498	13.58
555.923	13.55
556.349	13.5
556.774	13.46
557.199	13.41
557.625	13.37
558.05	13.32
558.475	13.27
558.9	13.21
559.325	13.17
559.75	13.11
560.175	13.05
560.6	12.98
561.025	12.91
561.449	12.84
561.874	12.77
562.299	12.7
562.723	12.62
563.148	12.53
563.572	12.44
563.997	12.36
564.421	12.26
564.846	12.17
565.27	12.09
565.694	12.01
566.118	11.92
566.542	11.83
566.966	11.74
567.39	11.66
567.814	11.57
568.238	11.48
568.662	11.39
569.086	11.31
569.509	11.23
569.933	11.16
570.357	11.08
570.78	11.01
571.204	10.94
571.627	10.86
572.05	10.79
572.474	10.72
572.897	10.66
573.32	10.6
573.743	10.54
574.166	10.49
574.589	10.42
575.012	10.36
575.435	10.3
575.858	10.24
576.281	10.19
576.704	10.14
577.126	10.1
577.549	10.06
577.972	10.01
578.394	9.96
578.817	9.92
579.239	9.88
579.661	9.85
580.084	9.83
580.506	9.81
580.928	9.77
581.35	9.75
581.772	9.71
582.194	9.67
582.616	9.64
583.038	9.62
583.46	9.58
583.882	9.55
584.303	9.5
584.725	9.46
585.147	9.45
585.568	9.43
585.99	9.4
586.411	9.38
586.833	9.36
587.254	9.33
587.675	9.3
588.096	9.28
588.518	9.25
588.939	9.26
589.36	9.23
589.781	9.19
590.202	9.19
590.623	9.17
591.043	9.14
591.464	9.12
591.885	9.09
592.305	9.07
592.726	9.06
593.147	9.05
593.567	9.02
593.987	9
594.408	8.97
594.828	8.95
595.248	8.94
595.669	8.93
596.089	8.92
596.509	8.9
596.929	8.89
597.349	8.86
597.769	8.84
598.189	8.82
598.608	8.81
599.028	8.79
599.448	8.76
599.867	8.73
600.287	8.7
600.706	8.68
601.126	8.65
601.545	8.63
601.965	8.62
602.384	8.6
602.803	8.57
603.222	8.54
603.641	8.52
604.061	8.5
604.48	8.48
604.898	8.46
605.317	8.44
605.736	8.42
606.155	8.39
606.574	8.37
606.992	8.34
607.411	8.32
607.829	8.26
608.248	8.21
608.666	8.19
609.085	8.17
609.503	8.14
609.921	8.12
610.339	8.09
610.758	8.06
611.176	8.02
611.594	8.01
612.012	7.98
612.43	7.99
612.847	7.97
613.265	7.95
613.683	7.91
614.101	7.89
614.518	7.86
614.936	7.84
615.353	7.82
615.771	7.8
616.188	7.78
616.606	7.76
617.023	7.73
617.44	7.72
617.857	7.7
618.274	7.68
618.691	7.66
619.108	7.65
619.525	7.63
619.942	7.62
620.359	7.61
620.776	7.6
621.192	7.6
621.609	7.61
622.026	7.6
622.442	7.6
622.859	7.59
623.275	7.58
623.691	7.56
624.108	7.56
624.524	7.55
624.94	7.55
625.356	7.56
625.772	7.54
626.188	7.54
626.604	7.53
627.02	7.52
627.436	7.53
627.852	7.54
628.268	7.54
628.683	7.55
629.099	7.55
629.514	7.55
629.93	7.55
630.345	7.56
630.761	7.55
631.176	7.55
631.591	7.55
632.007	7.55
632.422	7.53
632.837	7.52
633.252	7.51
633.667	7.49
634.082	7.47
634.497	7.46
634.911	7.44
635.326	7.42
635.741	7.4
636.155	7.37
636.57	7.37
636.984	7.36
637.399	7.35
637.813	7.32
638.228	7.3
638.642	7.28
639.056	7.26
639.47	7.25
639.884	7.24
640.298	7.22
640.712	7.21
641.126	7.17
641.54	7.14
641.954	7.11
642.368	7.09
642.781	7.08
643.195	7.07
643.609	7.06
644.022	7.03
644.436	7.02
644.849	7
645.262	6.97
645.676	6.95
646.089	6.94
646.502	6.93
646.915	6.93
647.328	6.91
647.741	6.9
648.154	6.88
648.567	6.88
648.98	6.85
649.393	6.86
649.805	6.87
650.218	6.86
650.631	6.85
651.043	6.85
651.456	6.84
651.868	6.83
652.28	6.82
652.693	6.82
653.105	6.8
653.517	6.8
653.929	6.8
654.341	6.79
654.753	6.77
655.165	6.76
655.577	6.76
655.989	6.74
656.401	6.75
656.813	6.75
657.224	6.74
657.636	6.72
658.047	6.7
658.459	6.68
658.87	6.66
659.282	6.65
659.693	6.63
660.104	6.61
660.515	6.6
660.926	6.57
661.338	6.54
661.749	6.53
662.159	6.52
662.57	6.52
662.981	6.51
663.392	6.51
663.803	6.51
664.213	6.49
664.624	6.48
665.035	6.48
665.445	6.48
665.855	6.48
666.266	6.49
666.676	6.5
667.086	6.48
667.497	6.47
667.907	6.48
668.317	6.47
668.727	6.48
669.137	6.48
669.547	6.48
669.956	6.48
670.366	6.49
670.776	6.49
671.186	6.49
671.595	6.5
672.005	6.5
672.414	6.51
672.824	6.51
673.233	6.52
673.642	6.53
674.052	6.55
674.461	6.56
674.87	6.56
675.279	6.58
675.688	6.59
676.097	6.62
676.506	6.63
676.915	6.64
677.323	6.67
677.732	6.68
678.141	6.7
678.549	6.71
678.958	6.74
679.366	6.77
679.775	6.78
680.183	6.81
680.592	6.83
681	6.87
681.408	6.9
681.816	6.93
682.224	6.97
682.632	7.02
683.04	7.05
683.448	7.09
683.856	7.11
684.264	7.16
684.671	7.19
685.079	7.22
685.487	7.27
685.894	7.34
686.302	7.39
686.709	7.44
687.116	7.49
687.524	7.57
687.931	7.66
688.338	7.75
688.745	7.85
689.152	7.96
689.559	8.1
689.966	8.22
690.373	8.36
690.78	8.52
691.187	8.69
691.593	8.87
692	9.07
692.407	9.26
692.813	9.49
693.22	9.73
693.626	9.98
694.032	10.24
694.439	10.52
694.845	10.81
695.251	11.1
695.657	11.41
696.063	11.73
696.469	12.07
696.875	12.42
697.281	12.78
697.687	13.16
698.093	13.55
698.498	13.92
698.904	14.32
699.31	14.71
699.715	15.13
700.12	15.56
700.526	15.99
700.931	16.41
701.337	16.84
701.742	17.26
702.147	17.67
702.552	18.11
702.957	18.54
703.362	18.98
703.767	19.41
704.172	19.82
704.577	20.24
704.981	20.68
705.386	21.13
705.791	21.58
706.195	22.01
706.6	22.47
707.004	22.91
707.408	23.35
707.813	23.8
708.217	24.25
708.621	24.72
709.025	25.16
709.43	25.61
709.834	26.04
710.237	26.46
710.641	26.9
711.045	27.32
711.449	27.76
711.853	28.21
712.256	28.62
712.66	29.05
713.064	29.48
713.467	29.93
713.87	30.36
714.274	30.76
714.677	31.21
715.08	31.64
715.484	32.08
715.887	32.53
716.29	32.93
716.693	33.37
717.096	33.8
717.499	34.2
717.901	34.6
718.304	35.01
718.707	35.44
719.109	35.84
719.512	36.19
719.915	36.55
720.317	36.9
720.719	37.25
721.122	37.59
721.524	37.93
721.926	38.29
722.328	38.63
722.731	38.94
723.133	39.26
723.535	39.58
723.937	39.92
724.338	40.25
724.74	40.56
725.142	41
725.544	41.29
725.945	41.61
726.347	41.86
726.748	42.1
727.15	42.36
727.551	42.64
727.952	42.87
728.354	43.12
728.755	43.34
729.156	43.56
729.557	43.65
729.958	43.85
730.359	44.04
730.76	44.25
731.161	44.47
731.562	44.68
731.962	44.83
732.363	45.02
732.763	45.19
733.164	45.36
733.564	45.54
733.965	45.71
734.365	45.89
734.766	46.04
735.166	46.22
735.566	46.35
735.966	46.49
736.366	46.64
736.766	46.76
737.166	46.9
737.566	47.02
737.966	47.14
738.365	47.26
738.765	47.37
739.165	47.46
739.564	47.56
739.964	47.66
740.363	47.76
740.763	47.85
741.162	47.96
741.561	48.05
741.96	48.11
742.36	48.19
742.759	48.27
743.158	48.36
743.557	48.4
743.955	48.46
744.354	48.54
744.753	48.63
745.152	48.72
745.55	48.75
745.949	48.83
746.348	48.91
746.746	48.95
747.144	48.99
747.543	49.01
747.941	49.08
748.339	49.11
748.737	49.12
749.136	49.12
749.534	49.1
749.932	49.15
750.33	49.14
750.727	49.16
751.125	49.19
751.523	49.22
751.921	49.26
752.318	49.29
752.716	49.32
753.113	49.37
753.511	49.44
753.908	49.52
754.305	49.55
754.703	49.59
755.1	49.61
755.497	49.63
755.894	49.65
756.291	49.68
756.688	49.72
757.085	49.74
757.482	49.75
757.878	49.75
758.275	49.77
758.672	49.78
759.068	49.82
759.465	49.84
759.861	49.86
760.258	49.9
760.654	49.92
761.05	49.95
761.447	49.99
761.843	50.02
762.239	50.05
762.635	50.03
763.031	50.06
763.427	50.05
763.822	50.06
764.218	50.08
764.614	50.09
765.01	50.09
765.405	50.06
765.801	50.05
766.196	50.03
766.592	50.03
766.987	50.05
767.382	50.02
767.778	50.05
768.173	50.07
768.568	50.08
768.963	50.09
769.358	50.12
769.753	50.13
770.148	50.16
770.542	50.19
770.937	50.2
771.332	50.21
771.726	50.22
772.121	50.23
772.515	50.22
772.91	50.23
773.304	50.23
773.699	50.24
774.093	50.25
774.487	50.26
774.881	50.28
775.275	50.27
775.669	50.24
776.063	50.25
776.457	50.26
776.851	50.27
777.245	50.26
777.638	50.26
778.032	50.25
778.425	50.26
778.819	50.25
779.212	50.26
779.606	50.3
779.999	50.32
780.392	50.34
780.786	50.33
781.179	50.35
781.572	50.37
781.965	50.38
782.358	50.36
782.751	50.35
783.143	50.34
783.536	50.35
783.929	50.31
784.322	50.35
784.714	50.37
785.107	50.39
785.499	50.36
785.891	50.38
786.284	50.39
786.676	50.43
787.068	50.45
