Data from N_2_DEC_NC_4N_Splice17_13-26-47-905.txt Node
Date: Sat Mar 07 13:26:47 EST 2020
User: sa697716
Spectrometer: NQ5500242
Trigger mode: 0
Integration Time (sec): 1.450000E-1
Scans to average: 20
Nonlinearity correction enabled: false
Boxcar width: 5
Storing dark spectrum: false
XAxis mode: Wavelengths
Number of Pixels in Spectrum: 512
>>>>>Begin Spectral Data<<<<<
187.83	211.6
188.298	235.18
188.766	203.86
189.233	172.54
189.701	179.42
190.169	191.94
190.636	193.88
191.104	324.95
191.571	68.01
192.039	117.22
192.506	-60.95
192.974	151.21
193.441	272.53
193.908	101.57
194.375	111.69
194.842	69.77
195.31	35.39
195.777	-80.68
196.244	43.43
196.711	38.66
197.177	41.81
197.644	41.84
198.111	41.43
198.578	42.04
199.045	42.99
199.511	43
199.978	43
200.445	43.29
200.911	43.22
201.378	43.05
201.844	43.24
202.31	43.27
202.777	43.13
203.243	43.17
203.709	42.92
204.176	42.23
204.642	42.07
205.108	42.12
205.574	41.75
206.04	41.23
206.506	40.94
206.972	40.78
207.438	40.1
207.903	39.53
208.369	39
208.835	38.37
209.301	37.76
209.766	36.5
210.232	35.57
210.697	34.8
211.163	34.42
211.628	33.6
212.094	32.56
212.559	32.05
213.024	31.49
213.49	30.82
213.955	30.01
214.42	29.34
214.885	28.72
215.35	27.97
215.815	26.83
216.28	25.26
216.745	23.77
217.21	22.39
217.675	20.95
218.14	19.73
218.604	18.68
219.069	17.79
219.534	17.06
219.998	16.51
220.463	16.05
220.927	15.54
221.392	15.18
221.856	14.9
222.32	14.64
222.785	14.44
223.249	14.22
223.713	14.03
224.177	13.89
224.642	13.72
225.106	13.54
225.57	13.33
226.034	13.21
226.497	13.08
226.961	12.95
227.425	12.83
227.889	12.69
228.353	12.57
228.816	12.43
229.28	12.28
229.744	12.16
230.207	12.03
230.671	11.9
231.134	11.76
231.597	11.66
232.061	11.54
232.524	11.43
232.987	11.32
233.45	11.24
233.914	11.14
234.377	11.05
234.84	10.96
235.303	10.88
235.766	10.82
236.229	10.74
236.691	10.67
237.154	10.58
237.617	10.51
238.08	10.44
238.542	10.34
239.005	10.28
239.468	10.21
239.93	10.14
240.393	10.07
240.855	9.98
241.317	9.91
241.78	9.84
242.242	9.76
242.704	9.7
243.166	9.63
243.629	9.58
244.091	9.51
244.553	9.45
245.015	9.38
245.477	9.32
245.939	9.27
246.4	9.22
246.862	9.18
247.324	9.14
247.786	9.08
248.247	9.03
248.709	8.97
249.17	8.92
249.632	8.9
250.093	8.86
250.555	8.82
251.016	8.78
251.477	8.74
251.939	8.71
252.4	8.69
252.861	8.65
253.322	8.63
253.783	8.59
254.244	8.56
254.705	8.52
255.166	8.48
255.627	8.45
256.088	8.41
256.549	8.37
257.009	8.32
257.47	8.26
257.931	8.21
258.391	8.15
258.852	8.11
259.312	8.07
259.773	8.02
260.233	7.98
260.694	7.93
261.154	7.88
261.614	7.84
262.074	7.79
262.534	7.76
262.994	7.73
263.455	7.69
263.915	7.66
264.374	7.63
264.834	7.61
265.294	7.58
265.754	7.56
266.214	7.54
266.673	7.52
267.133	7.51
267.593	7.49
268.052	7.48
268.512	7.46
268.971	7.44
269.431	7.42
269.89	7.4
270.349	7.38
270.809	7.36
271.268	7.33
271.727	7.31
272.186	7.29
272.645	7.27
273.104	7.24
273.563	7.21
274.022	7.19
274.481	7.18
274.94	7.17
275.399	7.14
275.857	7.12
276.316	7.1
276.775	7.08
277.233	7.06
277.692	7.04
278.15	7.02
278.609	7.01
279.067	6.99
279.525	6.96
279.984	6.93
280.442	6.91
280.9	6.89
281.358	6.86
281.816	6.84
282.274	6.82
282.732	6.79
283.19	6.76
283.648	6.73
284.106	6.71
284.564	6.68
285.021	6.65
285.479	6.61
285.937	6.58
286.394	6.55
286.852	6.52
287.309	6.49
287.767	6.46
288.224	6.43
288.682	6.4
289.139	6.37
289.596	6.34
290.053	6.32
290.511	6.3
290.968	6.29
291.425	6.27
291.882	6.25
292.339	6.24
292.796	6.23
293.252	6.21
293.709	6.2
294.166	6.2
294.623	6.19
295.079	6.17
295.536	6.16
295.992	6.14
296.449	6.13
296.905	6.12
297.362	6.1
297.818	6.08
298.274	6.07
298.731	6.06
299.187	6.03
299.643	6.02
300.099	6.01
300.555	6.01
301.011	6
301.467	5.99
301.923	5.97
302.379	5.97
302.835	5.96
303.291	5.96
303.746	5.95
304.202	5.95
304.658	5.94
305.113	5.94
305.569	5.93
306.024	5.92
306.479	5.91
306.935	5.9
307.39	5.9
307.845	5.89
308.301	5.89
308.756	5.89
309.211	5.88
309.666	5.88
310.121	5.88
310.576	5.87
311.031	5.87
311.486	5.87
311.94	5.87
312.395	5.86
312.85	5.86
313.305	5.85
313.759	5.84
314.214	5.84
314.668	5.83
315.123	5.81
315.577	5.8
316.032	5.8
316.486	5.79
316.94	5.78
317.394	5.76
317.849	5.74
318.303	5.73
318.757	5.72
319.211	5.71
319.665	5.7
320.119	5.7
320.572	5.69
321.026	5.68
321.48	5.67
321.934	5.66
322.387	5.66
322.841	5.65
323.295	5.66
323.748	5.65
324.202	5.65
324.655	5.64
325.108	5.63
325.562	5.64
326.015	5.63
326.468	5.62
326.921	5.62
327.374	5.62
327.827	5.62
328.28	5.61
328.733	5.61
329.186	5.6
329.639	5.6
330.092	5.6
330.545	5.59
330.997	5.59
331.45	5.59
331.903	5.59
332.355	5.59
332.808	5.58
333.26	5.58
333.713	5.57
334.165	5.56
334.617	5.56
335.069	5.55
335.522	5.55
335.974	5.53
336.426	5.52
336.878	5.51
337.33	5.49
337.782	5.48
338.234	5.48
338.686	5.47
339.137	5.47
339.589	5.44
340.041	5.44
340.493	5.42
340.944	5.41
341.396	5.4
341.847	5.39
342.299	5.37
342.75	5.36
343.201	5.34
343.653	5.33
344.104	5.31
344.555	5.3
345.006	5.28
345.457	5.28
345.908	5.27
346.359	5.26
346.81	5.27
347.261	5.26
347.712	5.26
348.163	5.25
348.613	5.26
349.064	5.26
349.515	5.25
349.965	5.26
350.416	5.25
350.866	5.25
351.317	5.23
351.767	5.23
352.217	5.23
352.668	5.22
353.118	5.23
353.568	5.21
354.018	5.22
354.468	5.23
354.918	5.22
355.368	5.23
355.818	5.23
356.268	5.23
356.718	5.23
357.168	5.22
357.617	5.22
358.067	5.23
358.517	5.23
358.966	5.24
359.416	5.24
359.865	5.23
360.315	5.24
360.764	5.25
361.213	5.25
361.663	5.25
362.112	5.26
362.561	5.28
363.01	5.27
363.459	5.27
363.908	5.27
364.357	5.28
364.806	5.29
365.255	5.29
365.703	5.3
366.152	5.31
366.601	5.33
367.05	5.34
367.498	5.33
367.947	5.35
368.395	5.36
368.844	5.37
369.292	5.36
369.74	5.37
370.189	5.38
370.637	5.38
371.085	5.38
371.533	5.39
371.981	5.39
372.429	5.4
372.877	5.4
373.325	5.41
373.773	5.42
374.221	5.43
374.669	5.43
375.116	5.44
375.564	5.44
376.012	5.47
376.459	5.48
376.907	5.5
377.354	5.51
377.801	5.53
378.249	5.56
378.696	5.56
379.143	5.58
379.591	5.61
380.038	5.63
380.485	5.66
380.932	5.67
381.379	5.69
381.826	5.73
382.273	5.75
382.72	5.76
383.166	5.78
383.613	5.82
384.06	5.85
384.506	5.88
384.953	5.91
385.4	5.94
385.846	5.98
386.292	6
386.739	6.03
387.185	6.06
387.631	6.11
388.078	6.14
388.524	6.18
388.97	6.22
389.416	6.27
389.862	6.31
390.308	6.36
390.754	6.4
391.2	6.45
391.645	6.5
392.091	6.55
392.537	6.58
392.983	6.63
393.428	6.69
393.874	6.73
394.319	6.77
394.765	6.81
395.21	6.84
395.655	6.88
396.101	6.92
396.546	6.95
396.991	7
397.436	7.05
397.881	7.1
398.326	7.14
398.771	7.17
399.216	7.2
399.661	7.26
400.106	7.31
400.551	7.35
400.995	7.38
401.44	7.42
401.885	7.46
402.329	7.49
402.774	7.51
403.218	7.56
403.663	7.6
404.107	7.63
404.551	7.66
404.995	7.68
405.44	7.7
405.884	7.73
406.328	7.75
406.772	7.77
407.216	7.79
407.66	7.8
408.104	7.78
408.547	7.79
408.991	7.81
409.435	7.81
409.879	7.83
410.322	7.84
410.766	7.85
411.209	7.86
411.653	7.88
412.096	7.89
412.54	7.9
412.983	7.92
413.426	7.97
413.869	7.98
414.312	8.02
414.756	8.03
415.199	8.04
415.642	8.05
416.085	8.06
416.527	8.06
416.97	8.05
417.413	8.05
417.856	8.05
418.298	8.03
418.741	8.04
419.184	8.02
419.626	8.04
420.069	8.05
420.511	8.06
420.953	8.07
421.396	8.08
421.838	8.08
422.28	8.09
422.722	8.12
423.164	8.12
423.606	8.11
424.048	8.11
424.49	8.11
424.932	8.09
425.374	8.08
425.816	8.05
426.258	8.04
426.699	8.03
427.141	8.02
427.582	8.01
428.024	8
428.465	7.99
428.907	7.97
429.348	7.95
429.789	7.94
430.231	7.94
430.672	7.95
431.113	7.95
431.554	7.96
431.995	7.96
432.436	7.96
432.877	7.96
433.318	7.98
433.759	8
434.2	8.02
434.64	8.04
435.081	8.04
435.522	8.04
435.962	8.05
436.403	8.07
436.843	8.07
437.284	8.08
437.724	8.09
438.164	8.08
438.604	8.1
439.045	8.11
439.485	8.13
439.925	8.13
440.365	8.16
440.805	8.16
441.245	8.2
441.685	8.24
442.125	8.25
442.564	8.28
443.004	8.31
443.444	8.35
443.883	8.38
444.323	8.38
444.762	8.43
445.202	8.47
445.641	8.52
446.081	8.54
446.52	8.57
446.959	8.62
447.398	8.65
447.837	8.69
448.276	8.71
448.716	8.76
449.154	8.82
449.593	8.85
450.032	8.87
450.471	8.88
450.91	8.91
451.349	8.94
451.787	8.94
452.226	8.95
452.664	8.98
453.103	8.98
453.541	8.99
453.98	9
454.418	9
454.856	9.01
455.295	9.01
455.733	9
456.171	9
456.609	9.02
457.047	9.02
457.485	9.01
457.923	9.02
458.361	9.02
458.798	9.02
459.236	9.02
459.674	9.01
460.111	9.01
460.549	9.02
460.987	9.03
461.424	9.01
461.862	9
462.299	9.01
462.736	9.01
463.173	9
463.611	9.01
464.048	9.01
464.485	9.02
464.922	9.03
465.359	9.03
465.796	9.04
466.233	9.06
466.67	9.07
467.106	9.08
467.543	9.07
467.98	9.07
468.416	9.05
468.853	9.06
469.29	9.07
469.726	9.08
470.162	9.09
470.599	9.1
471.035	9.09
471.471	9.09
471.907	9.08
472.344	9.11
472.78	9.11
473.216	9.12
473.652	9.12
474.088	9.11
474.523	9.12
474.959	9.12
475.395	9.11
475.831	9.12
476.266	9.14
476.702	9.15
477.138	9.15
477.573	9.17
478.008	9.18
478.444	9.18
478.879	9.19
479.314	9.18
479.75	9.2
480.185	9.2
480.62	9.2
481.055	9.19
481.49	9.2
481.925	9.22
482.36	9.22
482.795	9.23
483.229	9.25
483.664	9.27
484.099	9.29
484.534	9.3
484.968	9.32
485.403	9.35
485.837	9.39
486.271	9.41
486.706	9.43
487.14	9.46
487.574	9.49
488.009	9.53
488.443	9.56
488.877	9.61
489.311	9.66
489.745	9.71
490.179	9.77
490.613	9.83
491.046	9.89
491.48	9.96
491.914	10.03
492.348	10.1
492.781	10.18
493.215	10.26
493.648	10.34
494.082	10.42
494.515	10.5
494.948	10.58
495.382	10.66
495.815	10.76
496.248	10.87
496.681	10.96
497.114	11.07
497.547	11.17
497.98	11.28
498.413	11.39
498.846	11.51
499.279	11.63
499.711	11.74
500.144	11.87
500.577	12
501.009	12.12
501.442	12.26
501.874	12.4
502.306	12.54
502.739	12.69
503.171	12.86
503.603	13.03
504.036	13.2
504.468	13.38
504.9	13.55
505.332	13.73
505.764	13.93
506.196	14.12
506.627	14.32
507.059	14.53
507.491	14.73
507.923	14.94
508.354	15.14
508.786	15.35
509.217	15.57
509.649	15.79
510.08	16.02
510.512	16.25
510.943	16.47
511.374	16.68
511.805	16.91
512.237	17.13
512.668	17.36
513.099	17.58
513.53	17.81
513.961	18.04
514.391	18.27
514.822	18.5
515.253	18.73
515.684	18.97
516.114	19.2
516.545	19.43
516.975	19.66
517.406	19.88
517.836	20.11
518.267	20.33
518.697	20.54
519.127	20.75
519.558	20.96
519.988	21.18
520.418	21.37
520.848	21.55
521.278	21.75
521.708	22.09
522.138	22.29
522.567	22.46
522.997	22.63
523.427	22.81
523.857	22.96
524.286	23.1
524.716	23.24
525.145	23.4
525.575	23.55
526.004	23.7
526.433	23.66
526.863	23.79
527.292	23.91
527.721	24.03
528.15	24.14
528.579	24.26
529.008	24.37
529.437	24.47
529.866	24.56
530.295	24.65
530.724	24.75
531.152	24.84
531.581	24.91
532.01	25.01
532.438	25.08
532.867	25.15
533.295	25.22
533.723	25.27
534.152	25.33
534.58	25.38
535.008	25.43
535.436	25.47
535.865	25.53
536.293	25.58
536.721	25.61
537.149	25.64
537.576	25.67
538.004	25.71
538.432	25.74
538.86	25.78
539.287	25.8
539.715	25.84
540.143	25.86
540.57	25.88
540.998	25.89
541.425	25.9
541.852	25.92
542.28	25.95
542.707	25.96
543.134	25.98
543.561	26.01
543.988	26.01
544.415	26.01
544.842	26.02
545.269	26.04
545.696	26.07
546.123	26.09
546.549	26.11
546.976	26.14
547.403	26.16
547.829	26.15
548.256	26.16
548.682	26.18
549.108	26.2
549.535	26.23
549.961	26.22
550.387	26.21
550.813	26.21
551.24	26.21
551.666	26.2
552.092	26.19
552.518	26.2
552.943	26.2
553.369	26.19
553.795	26.17
554.221	26.16
554.646	26.14
555.072	26.14
555.498	26.11
555.923	26.09
556.349	26.05
556.774	26.03
557.199	25.99
557.625	25.98
558.05	25.95
558.475	25.92
558.9	25.88
559.325	25.86
559.75	25.81
560.175	25.77
560.6	25.72
561.025	25.66
561.449	25.61
561.874	25.55
562.299	25.48
562.723	25.4
563.148	25.33
563.572	25.25
563.997	25.18
564.421	25.09
564.846	25.01
565.27	24.95
565.694	24.87
566.118	24.79
566.542	24.69
566.966	24.6
567.39	24.51
567.814	24.43
568.238	24.34
568.662	24.25
569.086	24.17
569.509	24.08
569.933	23.98
570.357	23.89
570.78	23.79
571.204	23.71
571.627	23.62
572.05	23.54
572.474	23.46
572.897	23.37
573.32	23.28
573.743	23.19
574.166	23.12
574.589	23.04
575.012	22.96
575.435	22.89
575.858	22.82
576.281	22.76
576.704	22.67
577.126	22.59
577.549	22.52
577.972	22.45
578.394	22.39
578.817	22.31
579.239	22.24
579.661	22.18
580.084	22.1
580.506	22.05
580.928	22
581.35	21.95
581.772	21.91
582.194	21.85
582.616	21.81
583.038	21.73
583.46	21.66
583.882	21.62
584.303	21.57
584.725	21.52
585.147	21.48
585.568	21.43
585.99	21.35
586.411	21.3
586.833	21.26
587.254	21.21
587.675	21.18
588.096	21.15
588.518	21.13
588.939	21.11
589.36	21.07
589.781	21.04
590.202	21.01
590.623	20.99
591.043	20.96
591.464	20.94
591.885	20.93
592.305	20.9
592.726	20.89
593.147	20.87
593.567	20.83
593.987	20.81
594.408	20.78
594.828	20.75
595.248	20.75
595.669	20.74
596.089	20.72
596.509	20.7
596.929	20.68
597.349	20.67
597.769	20.63
598.189	20.62
598.608	20.61
599.028	20.6
599.448	20.57
599.867	20.54
600.287	20.49
600.706	20.47
601.126	20.44
601.545	20.4
601.965	20.35
602.384	20.32
602.803	20.27
603.222	20.22
603.641	20.17
604.061	20.13
604.48	20.08
604.898	20.02
605.317	19.97
605.736	19.91
606.155	19.86
606.574	19.8
606.992	19.74
607.411	19.68
607.829	19.57
608.248	19.5
608.666	19.43
609.085	19.36
609.503	19.3
609.921	19.22
610.339	19.16
610.758	19.1
611.176	19.02
611.594	18.95
612.012	18.87
612.43	18.84
612.847	18.78
613.265	18.71
613.683	18.65
614.101	18.59
614.518	18.52
614.936	18.45
615.353	18.37
615.771	18.32
616.188	18.25
616.606	18.2
617.023	18.14
617.44	18.09
617.857	18.05
618.274	18.01
618.691	17.98
619.108	17.95
619.525	17.91
619.942	17.88
620.359	17.85
620.776	17.83
621.192	17.81
621.609	17.79
622.026	17.77
622.442	17.74
622.859	17.72
623.275	17.69
623.691	17.65
624.108	17.63
624.524	17.62
624.94	17.62
625.356	17.6
625.772	17.59
626.188	17.58
626.604	17.57
627.02	17.56
627.436	17.56
627.852	17.55
628.268	17.56
628.683	17.55
629.099	17.54
629.514	17.53
629.93	17.53
630.345	17.52
630.761	17.48
631.176	17.46
631.591	17.41
632.007	17.39
632.422	17.36
632.837	17.32
633.252	17.28
633.667	17.23
634.082	17.16
634.497	17.09
634.911	17.02
635.326	16.95
635.741	16.88
636.155	16.83
636.57	16.75
636.984	16.66
637.399	16.56
637.813	16.47
638.228	16.38
638.642	16.28
639.056	16.18
639.47	16.09
639.884	16
640.298	15.89
640.712	15.77
641.126	15.66
641.54	15.54
641.954	15.44
642.368	15.33
642.781	15.23
643.195	15.13
643.609	15.03
644.022	14.91
644.436	14.8
644.849	14.69
645.262	14.6
645.676	14.5
646.089	14.41
646.502	14.32
646.915	14.24
647.328	14.16
647.741	14.07
648.154	14.01
648.567	13.95
648.98	13.89
649.393	13.83
649.805	13.77
650.218	13.71
650.631	13.66
651.043	13.61
651.456	13.56
651.868	13.49
652.28	13.44
652.693	13.38
653.105	13.31
653.517	13.25
653.929	13.19
654.341	13.11
654.753	13.02
655.165	12.93
655.577	12.84
655.989	12.75
656.401	12.65
656.813	12.56
657.224	12.45
657.636	12.33
658.047	12.22
658.459	12.1
658.87	11.98
659.282	11.86
659.693	11.74
660.104	11.62
660.515	11.48
660.926	11.35
661.338	11.2
661.749	11.07
662.159	10.96
662.57	10.84
662.981	10.74
663.392	10.63
663.803	10.54
664.213	10.43
664.624	10.34
665.035	10.25
665.445	10.17
665.855	10.1
666.266	10.03
666.676	9.95
667.086	9.87
667.497	9.8
667.907	9.73
668.317	9.67
668.727	9.62
669.137	9.56
669.547	9.52
669.956	9.48
670.366	9.45
670.776	9.41
671.186	9.38
671.595	9.36
672.005	9.33
672.414	9.32
672.824	9.3
673.233	9.29
673.642	9.29
674.052	9.29
674.461	9.29
674.87	9.29
675.279	9.31
675.688	9.32
676.097	9.34
676.506	9.36
676.915	9.39
677.323	9.44
677.732	9.48
678.141	9.53
678.549	9.57
678.958	9.62
679.366	9.7
679.775	9.77
680.183	9.88
680.592	10
681	10.14
681.408	10.27
681.816	10.41
682.224	10.59
682.632	10.79
683.04	11
683.448	11.24
683.856	11.47
684.264	11.74
684.671	12.01
685.079	12.3
685.487	12.61
685.894	12.95
686.302	13.3
686.709	13.67
687.116	14.04
687.524	14.44
687.931	14.85
688.338	15.29
688.745	15.73
689.152	16.17
689.559	16.63
689.966	17.1
690.373	17.56
690.78	18.04
691.187	18.49
691.593	18.95
692	19.41
692.407	19.88
692.813	20.33
693.22	20.76
693.626	21.2
694.032	21.63
694.439	22.04
694.845	22.47
695.251	22.87
695.657	23.27
696.063	23.68
696.469	24.05
696.875	24.41
697.281	24.78
697.687	25.15
698.093	25.5
698.498	25.84
698.904	26.17
699.31	26.48
699.715	26.82
700.12	27.13
700.526	27.41
700.931	27.72
701.337	28
701.742	28.27
702.147	28.53
702.552	28.79
702.957	29.02
703.362	29.26
703.767	29.46
704.172	29.66
704.577	29.86
704.981	30.08
705.386	30.28
705.791	30.48
706.195	30.68
706.6	30.86
707.004	31.03
707.408	31.23
707.813	31.41
708.217	31.59
708.621	31.77
709.025	31.93
709.43	32.09
709.834	32.25
710.237	32.39
710.641	32.53
711.045	32.68
711.449	32.84
711.853	32.99
712.256	33.14
712.66	33.28
713.064	33.42
713.467	33.57
713.87	33.7
714.274	33.82
714.677	33.94
715.08	34.07
715.484	34.19
715.887	34.32
716.29	34.42
716.693	34.51
717.096	34.62
717.499	34.72
717.901	34.82
718.304	34.91
718.707	35.01
719.109	35.12
719.512	35.22
719.915	35.31
720.317	35.38
720.719	35.43
721.122	35.51
721.524	35.6
721.926	35.68
722.328	35.75
722.731	35.81
723.133	35.87
723.535	35.92
723.937	35.98
724.338	36.04
724.74	36.12
725.142	36.28
725.544	36.33
725.945	36.43
726.347	36.45
726.748	36.49
727.15	36.56
727.551	36.63
727.952	36.67
728.354	36.73
728.755	36.77
729.156	36.8
729.557	36.76
729.958	36.79
730.359	36.79
730.76	36.86
731.161	36.91
731.562	36.95
731.962	36.96
732.363	37
732.763	37.02
733.164	37.03
733.564	37.06
733.965	37.08
734.365	37.13
734.766	37.14
735.166	37.16
735.566	37.2
735.966	37.21
736.366	37.24
736.766	37.25
737.166	37.27
737.566	37.31
737.966	37.33
738.365	37.34
738.765	37.36
739.165	37.38
739.564	37.41
739.964	37.4
740.363	37.41
740.763	37.43
741.162	37.45
741.561	37.45
741.96	37.46
742.36	37.48
742.759	37.52
743.158	37.5
743.557	37.49
743.955	37.49
744.354	37.51
744.753	37.52
745.152	37.54
745.55	37.55
745.949	37.57
746.348	37.56
746.746	37.55
747.144	37.54
747.543	37.57
747.941	37.6
748.339	37.62
748.737	37.62
749.136	37.62
749.534	37.6
749.932	37.58
750.33	37.59
750.727	37.61
751.125	37.63
751.523	37.62
751.921	37.61
752.318	37.61
752.716	37.61
753.113	37.63
753.511	37.64
753.908	37.66
754.305	37.68
754.703	37.67
755.1	37.67
755.497	37.64
755.894	37.64
756.291	37.67
756.688	37.64
757.085	37.63
757.482	37.59
757.878	37.58
758.275	37.56
758.672	37.54
759.068	37.55
759.465	37.53
759.861	37.55
760.258	37.55
760.654	37.53
761.05	37.55
761.447	37.56
761.843	37.58
762.239	37.56
762.635	37.58
763.031	37.58
763.427	37.57
763.822	37.59
764.218	37.62
764.614	37.63
765.01	37.61
765.405	37.61
765.801	37.59
766.196	37.62
766.592	37.63
766.987	37.63
767.382	37.63
767.778	37.65
768.173	37.65
768.568	37.64
768.963	37.63
769.358	37.64
769.753	37.64
770.148	37.66
770.542	37.63
770.937	37.64
771.332	37.64
771.726	37.64
772.121	37.64
772.515	37.64
772.91	37.63
773.304	37.65
773.699	37.65
774.093	37.66
774.487	37.65
774.881	37.68
775.275	37.67
775.669	37.67
776.063	37.66
776.457	37.66
776.851	37.63
777.245	37.62
777.638	37.59
778.032	37.6
778.425	37.61
