Data from N_2_DIV_IL_4N_Splice17_13-37-44-170.txt Node
Date: Sat Mar 07 13:37:44 EST 2020
User: sa697716
Spectrometer: NQ5500242
Trigger mode: 0
Integration Time (sec): 1.450000E-1
Scans to average: 20
Nonlinearity correction enabled: false
Boxcar width: 5
Storing dark spectrum: false
XAxis mode: Wavelengths
Number of Pixels in Spectrum: 512
>>>>>Begin Spectral Data<<<<<
187.83	249.55
188.298	257.68
188.766	220.38
189.233	181.16
189.701	191.7
190.169	208.67
190.636	206.07
191.104	230.17
191.571	-138.06
192.039	-197.45
192.506	-556.77
192.974	118.25
193.441	125.31
193.908	43.21
194.375	-25.89
194.842	-37.29
195.31	-20.42
195.777	-215.2
196.244	65.12
196.711	86.13
197.177	88.14
197.644	88.61
198.111	88.85
198.578	89.28
199.045	90.09
199.511	90.39
199.978	90.18
200.445	90.52
200.911	90.3
201.378	90.54
201.844	90.1
202.31	89.87
202.777	89.46
203.243	89.13
203.709	88.54
204.176	87.23
204.642	86.68
205.108	86.45
205.574	85.52
206.04	84.98
206.506	84.16
206.972	83.34
207.438	82.52
207.903	81.34
208.369	79.62
208.835	77.92
209.301	76.53
209.766	74.18
210.232	71.57
210.697	69.07
211.163	66.83
211.628	64.88
212.094	62.82
212.559	61.21
213.024	59.85
213.49	58.54
213.955	57.01
214.42	55.18
214.885	53.44
215.35	51.25
215.815	48.44
216.28	44.82
216.745	40.6
217.21	36.44
217.675	32.38
218.14	28.78
218.604	25.73
219.069	23.19
219.534	21.14
219.998	19.37
220.463	17.99
220.927	16.76
221.392	15.79
221.856	15.01
222.32	14.36
222.785	13.81
223.249	13.32
223.713	12.9
224.177	12.54
224.642	12.17
225.106	11.82
225.57	11.46
226.034	11.18
226.497	10.92
226.961	10.63
227.425	10.37
227.889	10.12
228.353	9.9
228.816	9.68
229.28	9.44
229.744	9.25
230.207	9.08
230.671	8.92
231.134	8.74
231.597	8.6
232.061	8.45
232.524	8.31
232.987	8.19
233.45	8.07
233.914	7.94
234.377	7.83
234.84	7.72
235.303	7.63
235.766	7.53
236.229	7.45
236.691	7.34
237.154	7.27
237.617	7.19
238.08	7.11
238.542	7.03
239.005	6.97
239.468	6.9
239.93	6.83
240.393	6.76
240.855	6.66
241.317	6.58
241.78	6.52
242.242	6.43
242.704	6.37
243.166	6.31
243.629	6.25
244.091	6.17
244.553	6.1
245.015	6.04
245.477	5.97
245.939	5.92
246.4	5.86
246.862	5.8
247.324	5.74
247.786	5.68
248.247	5.61
248.709	5.55
249.17	5.49
249.632	5.43
250.093	5.39
250.555	5.34
251.016	5.29
251.477	5.24
251.939	5.21
252.4	5.16
252.861	5.11
253.322	5.07
253.783	5.03
254.244	4.99
254.705	4.95
255.166	4.9
255.627	4.86
256.088	4.83
256.549	4.79
257.009	4.73
257.47	4.69
257.931	4.65
258.391	4.59
258.852	4.54
259.312	4.5
259.773	4.45
260.233	4.41
260.694	4.37
261.154	4.32
261.614	4.28
262.074	4.23
262.534	4.19
262.994	4.15
263.455	4.12
263.915	4.09
264.374	4.05
264.834	4.02
265.294	3.98
265.754	3.96
266.214	3.92
266.673	3.89
267.133	3.88
267.593	3.86
268.052	3.84
268.512	3.82
268.971	3.81
269.431	3.79
269.89	3.77
270.349	3.77
270.809	3.75
271.268	3.74
271.727	3.72
272.186	3.71
272.645	3.7
273.104	3.69
273.563	3.68
274.022	3.66
274.481	3.66
274.94	3.65
275.399	3.64
275.857	3.63
276.316	3.62
276.775	3.61
277.233	3.6
277.692	3.59
278.15	3.59
278.609	3.59
279.067	3.58
279.525	3.58
279.984	3.58
280.442	3.58
280.9	3.58
281.358	3.59
281.816	3.6
282.274	3.6
282.732	3.6
283.19	3.59
283.648	3.58
284.106	3.58
284.564	3.57
285.021	3.58
285.479	3.58
285.937	3.57
286.394	3.57
286.852	3.55
287.309	3.55
287.767	3.53
288.224	3.53
288.682	3.51
289.139	3.5
289.596	3.48
290.053	3.45
290.511	3.42
290.968	3.4
291.425	3.37
291.882	3.36
292.339	3.34
292.796	3.33
293.252	3.31
293.709	3.29
294.166	3.28
294.623	3.27
295.079	3.26
295.536	3.26
295.992	3.25
296.449	3.24
296.905	3.24
297.362	3.23
297.818	3.22
298.274	3.22
298.731	3.21
299.187	3.19
299.643	3.18
300.099	3.18
300.555	3.18
301.011	3.17
301.467	3.17
301.923	3.16
302.379	3.16
302.835	3.17
303.291	3.17
303.746	3.17
304.202	3.18
304.658	3.18
305.113	3.18
305.569	3.18
306.024	3.19
306.479	3.18
306.935	3.18
307.39	3.19
307.845	3.19
308.301	3.19
308.756	3.2
309.211	3.21
309.666	3.22
310.121	3.23
310.576	3.24
311.031	3.24
311.486	3.25
311.94	3.26
312.395	3.26
312.85	3.27
313.305	3.27
313.759	3.27
314.214	3.28
314.668	3.27
315.123	3.27
315.577	3.27
316.032	3.26
316.486	3.25
316.94	3.25
317.394	3.23
317.849	3.22
318.303	3.2
318.757	3.18
319.211	3.16
319.665	3.14
320.119	3.13
320.572	3.11
321.026	3.1
321.48	3.09
321.934	3.08
322.387	3.07
322.841	3.07
323.295	3.07
323.748	3.08
324.202	3.07
324.655	3.08
325.108	3.09
325.562	3.1
326.015	3.11
326.468	3.11
326.921	3.12
327.374	3.12
327.827	3.12
328.28	3.12
328.733	3.12
329.186	3.12
329.639	3.13
330.092	3.13
330.545	3.13
330.997	3.13
331.45	3.14
331.903	3.16
332.355	3.17
332.808	3.18
333.26	3.18
333.713	3.18
334.165	3.19
334.617	3.2
335.069	3.2
335.522	3.21
335.974	3.21
336.426	3.21
336.878	3.2
337.33	3.2
337.782	3.19
338.234	3.21
338.686	3.21
339.137	3.21
339.589	3.19
340.041	3.19
340.493	3.17
340.944	3.16
341.396	3.15
341.847	3.14
342.299	3.12
342.75	3.1
343.201	3.08
343.653	3.07
344.104	3.04
344.555	3.03
345.006	3.02
345.457	3.01
345.908	3
346.359	3
346.81	2.99
347.261	2.99
347.712	2.99
348.163	2.99
348.613	2.99
349.064	2.99
349.515	2.99
349.965	3
350.416	2.99
350.866	2.99
351.317	2.98
351.767	2.98
352.217	2.99
352.668	2.99
353.118	2.99
353.568	2.99
354.018	2.99
354.468	3
354.918	3
355.368	3.01
355.818	3.01
356.268	3.01
356.718	3.02
357.168	3.02
357.617	3.01
358.067	3.01
358.517	3.02
358.966	3.02
359.416	3.02
359.865	3.02
360.315	3.03
360.764	3.04
361.213	3.04
361.663	3.03
362.112	3.03
362.561	3.03
363.01	3.03
363.459	3.02
363.908	3.02
364.357	3.02
364.806	3.01
365.255	3
365.703	3.02
366.152	3.03
366.601	3.04
367.05	3.04
367.498	3.04
367.947	3.04
368.395	3.05
368.844	3.06
369.292	3.05
369.74	3.05
370.189	3.05
370.637	3.04
371.085	3.02
371.533	3.01
371.981	3.01
372.429	3.01
372.877	3.01
373.325	3.01
373.773	2.99
374.221	2.99
374.669	2.99
375.116	2.98
375.564	2.98
376.012	2.97
376.459	2.98
376.907	2.98
377.354	2.97
377.801	2.97
378.249	2.98
378.696	2.99
379.143	2.97
379.591	2.97
380.038	2.98
380.485	2.99
380.932	2.99
381.379	2.99
381.826	2.99
382.273	2.98
382.72	2.97
383.166	2.96
383.613	2.96
384.06	2.96
384.506	2.95
384.953	2.95
385.4	2.94
385.846	2.95
386.292	2.95
386.739	2.94
387.185	2.94
387.631	2.95
388.078	2.94
388.524	2.94
388.97	2.95
389.416	2.95
389.862	2.96
390.308	2.97
390.754	2.97
391.2	2.98
391.645	2.99
392.091	3.01
392.537	3.03
392.983	3.04
393.428	3.05
393.874	3.06
394.319	3.08
394.765	3.09
395.21	3.09
395.655	3.11
396.101	3.12
396.546	3.14
396.991	3.15
397.436	3.16
397.881	3.19
398.326	3.22
398.771	3.25
399.216	3.27
399.661	3.29
400.106	3.31
400.551	3.32
400.995	3.33
401.44	3.35
401.885	3.36
402.329	3.38
402.774	3.39
403.218	3.43
403.663	3.44
404.107	3.45
404.551	3.47
404.995	3.48
405.44	3.51
405.884	3.53
406.328	3.56
406.772	3.58
407.216	3.61
407.66	3.63
408.104	3.62
408.547	3.63
408.991	3.66
409.435	3.68
409.879	3.71
410.322	3.75
410.766	3.78
411.209	3.81
411.653	3.85
412.096	3.88
412.54	3.92
412.983	3.95
413.426	4.01
413.869	4.03
414.312	4.09
414.756	4.13
415.199	4.14
415.642	4.17
416.085	4.18
416.527	4.19
416.97	4.2
417.413	4.21
417.856	4.22
418.298	4.23
418.741	4.24
419.184	4.24
419.626	4.25
420.069	4.28
420.511	4.3
420.953	4.32
421.396	4.35
421.838	4.37
422.28	4.4
422.722	4.43
423.164	4.45
423.606	4.46
424.048	4.47
424.49	4.48
424.932	4.48
425.374	4.46
425.816	4.44
426.258	4.44
426.699	4.44
427.141	4.43
427.582	4.43
428.024	4.45
428.465	4.47
428.907	4.47
429.348	4.46
429.789	4.48
430.231	4.52
430.672	4.56
431.113	4.59
431.554	4.62
431.995	4.64
432.436	4.65
432.877	4.68
433.318	4.71
433.759	4.75
434.2	4.8
434.64	4.84
435.081	4.85
435.522	4.88
435.962	4.9
436.403	4.94
436.843	4.97
437.284	4.97
437.724	4.99
438.164	4.98
438.604	4.99
439.045	4.99
439.485	5.01
439.925	5.01
440.365	5.02
440.805	5.04
441.245	5.06
441.685	5.07
442.125	5.1
442.564	5.11
443.004	5.14
443.444	5.15
443.883	5.18
444.323	5.2
444.762	5.23
445.202	5.26
445.641	5.3
446.081	5.33
446.52	5.34
446.959	5.39
447.398	5.44
447.837	5.47
448.276	5.52
448.716	5.54
449.154	5.56
449.593	5.59
450.032	5.61
450.471	5.6
450.91	5.59
451.349	5.62
451.787	5.58
452.226	5.56
452.664	5.56
453.103	5.54
453.541	5.54
453.98	5.54
454.418	5.52
454.856	5.52
455.295	5.52
455.733	5.49
456.171	5.47
456.609	5.49
457.047	5.47
457.485	5.46
457.923	5.45
458.361	5.44
458.798	5.44
459.236	5.42
459.674	5.4
460.111	5.4
460.549	5.43
460.987	5.44
461.424	5.44
461.862	5.45
462.299	5.45
462.736	5.45
463.173	5.46
463.611	5.46
464.048	5.49
464.485	5.51
464.922	5.51
465.359	5.52
465.796	5.55
466.233	5.57
466.67	5.58
467.106	5.6
467.543	5.6
467.98	5.61
468.416	5.6
468.853	5.6
469.29	5.59
469.726	5.59
470.162	5.58
470.599	5.55
471.035	5.53
471.471	5.53
471.907	5.51
472.344	5.51
472.78	5.51
473.216	5.51
473.652	5.51
474.088	5.5
474.523	5.5
474.959	5.49
475.395	5.48
475.831	5.47
476.266	5.46
476.702	5.47
477.138	5.46
477.573	5.45
478.008	5.45
478.444	5.44
478.879	5.43
479.314	5.42
479.75	5.41
480.185	5.4
480.62	5.4
481.055	5.39
481.49	5.38
481.925	5.38
482.36	5.38
482.795	5.37
483.229	5.37
483.664	5.37
484.099	5.37
484.534	5.38
484.968	5.39
485.403	5.4
485.837	5.41
486.271	5.42
486.706	5.44
487.14	5.45
487.574	5.48
488.009	5.5
488.443	5.52
488.877	5.55
489.311	5.59
489.745	5.61
490.179	5.66
490.613	5.71
491.046	5.75
491.48	5.79
491.914	5.84
492.348	5.89
492.781	5.94
493.215	6
493.648	6.06
494.082	6.12
494.515	6.19
494.948	6.25
495.382	6.31
495.815	6.38
496.248	6.46
496.681	6.54
497.114	6.63
497.547	6.73
497.98	6.82
498.413	6.93
498.846	7.03
499.279	7.14
499.711	7.26
500.144	7.38
500.577	7.51
501.009	7.64
501.442	7.78
501.874	7.93
502.306	8.07
502.739	8.24
503.171	8.41
503.603	8.58
504.036	8.76
504.468	8.94
504.9	9.11
505.332	9.31
505.764	9.51
506.196	9.71
506.627	9.92
507.059	10.14
507.491	10.33
507.923	10.55
508.354	10.79
508.786	11.03
509.217	11.28
509.649	11.54
510.08	11.8
510.512	12.07
510.943	12.34
511.374	12.61
511.805	12.88
512.237	13.17
512.668	13.48
513.099	13.77
513.53	14.06
513.961	14.37
514.391	14.68
514.822	15
515.253	15.3
515.684	15.6
516.114	15.94
516.545	16.26
516.975	16.58
517.406	16.89
517.836	17.2
518.267	17.54
518.697	17.84
519.127	18.13
519.558	18.42
519.988	18.73
520.418	19.03
520.848	19.32
521.278	19.62
521.708	20.11
522.138	20.4
522.567	20.68
522.997	20.94
523.427	21.19
523.857	21.46
524.286	21.71
524.716	21.96
525.145	22.21
525.575	22.46
526.004	22.68
526.433	22.69
526.863	22.9
527.292	23.11
527.721	23.29
528.15	23.5
528.579	23.68
529.008	23.86
529.437	24.01
529.866	24.16
530.295	24.31
530.724	24.46
531.152	24.61
531.581	24.75
532.01	24.87
532.438	25.01
532.867	25.11
533.295	25.21
533.723	25.32
534.152	25.44
534.58	25.54
535.008	25.61
535.436	25.7
535.865	25.76
536.293	25.82
536.721	25.89
537.149	25.96
537.576	26.03
538.004	26.11
538.432	26.16
538.86	26.2
539.287	26.24
539.715	26.31
540.143	26.33
540.57	26.39
540.998	26.43
541.425	26.47
541.852	26.51
542.28	26.53
542.707	26.57
543.134	26.61
543.561	26.64
543.988	26.68
544.415	26.7
544.842	26.74
545.269	26.78
545.696	26.82
546.123	26.84
546.549	26.87
546.976	26.91
547.403	26.92
547.829	26.94
548.256	26.96
548.682	26.99
549.108	27.03
549.535	27.06
549.961	27.07
550.387	27.09
550.813	27.12
551.24	27.13
551.666	27.12
552.092	27.12
552.518	27.13
552.943	27.11
553.369	27.09
553.795	27.06
554.221	27.04
554.646	27.01
555.072	26.98
555.498	26.92
555.923	26.87
556.349	26.83
556.774	26.78
557.199	26.72
557.625	26.65
558.05	26.58
558.475	26.53
558.9	26.46
559.325	26.4
559.75	26.33
560.175	26.26
560.6	26.18
561.025	26.1
561.449	26.01
561.874	25.92
562.299	25.84
562.723	25.76
563.148	25.63
563.572	25.49
563.997	25.36
564.421	25.22
564.846	25.09
565.27	24.95
565.694	24.82
566.118	24.68
566.542	24.55
566.966	24.39
567.39	24.24
567.814	24.1
568.238	23.96
568.662	23.82
569.086	23.68
569.509	23.56
569.933	23.42
570.357	23.28
570.78	23.15
571.204	23
571.627	22.88
572.05	22.75
572.474	22.64
572.897	22.53
573.32	22.4
573.743	22.27
574.166	22.14
574.589	22.01
575.012	21.89
575.435	21.77
575.858	21.66
576.281	21.55
576.704	21.43
577.126	21.32
577.549	21.21
577.972	21.11
578.394	21.01
578.817	20.92
579.239	20.83
579.661	20.75
580.084	20.66
580.506	20.56
580.928	20.47
581.35	20.4
581.772	20.3
582.194	20.22
582.616	20.14
583.038	20.08
583.46	20
583.882	19.92
584.303	19.84
584.725	19.78
585.147	19.73
585.568	19.67
585.99	19.61
586.411	19.56
586.833	19.5
587.254	19.45
587.675	19.39
588.096	19.33
588.518	19.28
588.939	19.23
589.36	19.18
589.781	19.12
590.202	19.08
590.623	19.03
591.043	18.96
591.464	18.93
591.885	18.87
592.305	18.83
592.726	18.78
593.147	18.74
593.567	18.7
593.987	18.66
594.408	18.62
594.828	18.57
595.248	18.53
595.669	18.52
596.089	18.48
596.509	18.46
596.929	18.42
597.349	18.38
597.769	18.35
598.189	18.32
598.608	18.28
599.028	18.26
599.448	18.22
599.867	18.17
600.287	18.11
600.706	18.07
601.126	18.02
601.545	17.99
601.965	17.95
602.384	17.89
602.803	17.83
603.222	17.78
603.641	17.72
604.061	17.66
604.48	17.6
604.898	17.52
605.317	17.45
605.736	17.38
606.155	17.31
606.574	17.22
606.992	17.15
607.411	17.07
607.829	16.96
608.248	16.86
608.666	16.77
609.085	16.7
609.503	16.61
609.921	16.52
610.339	16.42
610.758	16.33
611.176	16.23
611.594	16.16
612.012	16.08
612.43	16.01
612.847	15.93
613.265	15.85
613.683	15.76
614.101	15.68
614.518	15.6
614.936	15.52
615.353	15.43
615.771	15.37
616.188	15.29
616.606	15.21
617.023	15.14
617.44	15.07
617.857	15.02
618.274	14.96
618.691	14.91
619.108	14.86
619.525	14.81
619.942	14.78
620.359	14.72
620.776	14.67
621.192	14.64
621.609	14.6
622.026	14.57
622.442	14.54
622.859	14.51
623.275	14.48
623.691	14.45
624.108	14.43
624.524	14.4
624.94	14.38
625.356	14.38
625.772	14.36
626.188	14.34
626.604	14.33
627.02	14.31
627.436	14.3
627.852	14.29
628.268	14.28
628.683	14.26
629.099	14.25
629.514	14.23
629.93	14.21
630.345	14.2
630.761	14.17
631.176	14.14
631.591	14.11
632.007	14.07
632.422	14.01
632.837	13.96
633.252	13.91
633.667	13.85
634.082	13.77
634.497	13.71
634.911	13.64
635.326	13.56
635.741	13.48
636.155	13.37
636.57	13.29
636.984	13.19
637.399	13.08
637.813	12.98
638.228	12.87
638.642	12.75
639.056	12.62
639.47	12.5
639.884	12.37
640.298	12.24
640.712	12.11
641.126	11.98
641.54	11.83
641.954	11.7
642.368	11.57
642.781	11.45
643.195	11.33
643.609	11.21
644.022	11.08
644.436	10.96
644.849	10.85
645.262	10.73
645.676	10.62
646.089	10.52
646.502	10.42
646.915	10.33
647.328	10.24
647.741	10.16
648.154	10.07
648.567	10.01
648.98	9.94
649.393	9.88
649.805	9.82
650.218	9.77
650.631	9.71
651.043	9.65
651.456	9.58
651.868	9.52
652.28	9.46
652.693	9.41
653.105	9.35
653.517	9.28
653.929	9.21
654.341	9.14
654.753	9.05
655.165	8.98
655.577	8.89
655.989	8.81
656.401	8.7
656.813	8.6
657.224	8.49
657.636	8.37
658.047	8.26
658.459	8.14
658.87	8.01
659.282	7.88
659.693	7.76
660.104	7.63
660.515	7.5
660.926	7.39
661.338	7.26
661.749	7.14
662.159	7.03
662.57	6.92
662.981	6.81
663.392	6.71
663.803	6.62
664.213	6.51
664.624	6.42
665.035	6.34
665.445	6.26
665.855	6.18
666.266	6.12
666.676	6.06
667.086	5.98
667.497	5.92
667.907	5.87
668.317	5.82
668.727	5.77
669.137	5.73
669.547	5.7
669.956	5.65
670.366	5.63
670.776	5.59
671.186	5.57
671.595	5.55
672.005	5.53
672.414	5.52
672.824	5.51
673.233	5.51
673.642	5.5
674.052	5.51
674.461	5.52
674.87	5.52
675.279	5.54
675.688	5.55
676.097	5.57
676.506	5.59
676.915	5.62
677.323	5.65
677.732	5.68
678.141	5.72
678.549	5.76
678.958	5.81
679.366	5.87
679.775	5.93
680.183	6.02
680.592	6.11
681	6.22
681.408	6.34
681.816	6.47
682.224	6.62
682.632	6.79
683.04	6.97
683.448	7.17
683.856	7.39
684.264	7.63
684.671	7.89
685.079	8.18
685.487	8.5
685.894	8.84
686.302	9.21
686.709	9.59
687.116	10
687.524	10.44
687.931	10.9
688.338	11.38
688.745	11.89
689.152	12.4
689.559	12.95
689.966	13.49
690.373	14.05
690.78	14.62
691.187	15.19
691.593	15.78
692	16.38
692.407	16.98
692.813	17.6
693.22	18.19
693.626	18.81
694.032	19.41
694.439	20.02
694.845	20.64
695.251	21.24
695.657	21.84
696.063	22.42
696.469	23.01
696.875	23.59
697.281	24.15
697.687	24.71
698.093	25.24
698.498	25.77
698.904	26.28
699.31	26.77
699.715	27.29
700.12	27.77
700.526	28.25
700.931	28.72
701.337	29.18
701.742	29.62
702.147	30.05
702.552	30.48
702.957	30.87
703.362	31.29
703.767	31.68
704.172	32.04
704.577	32.41
704.981	32.77
705.386	33.13
705.791	33.45
706.195	33.8
706.6	34.15
707.004	34.47
707.408	34.81
707.813	35.13
708.217	35.42
708.621	35.74
709.025	36.04
709.43	36.32
709.834	36.6
710.237	36.88
710.641	37.12
711.045	37.37
711.449	37.64
711.853	37.91
712.256	38.15
712.66	38.4
713.064	38.63
713.467	38.85
713.87	39.09
714.274	39.29
714.677	39.53
715.08	39.75
715.484	39.97
715.887	40.19
716.29	40.37
716.693	40.58
717.096	40.75
717.499	40.96
717.901	41.16
718.304	41.35
718.707	41.55
719.109	41.71
719.512	41.88
719.915	42.06
720.317	42.19
720.719	42.35
721.122	42.52
721.524	42.67
721.926	42.83
722.328	42.97
722.731	43.11
723.133	43.24
723.535	43.37
723.937	43.51
724.338	43.64
724.74	43.77
725.142	44.02
725.544	44.1
725.945	44.25
726.347	44.31
726.748	44.41
727.15	44.48
727.551	44.58
727.952	44.66
728.354	44.73
728.755	44.79
729.156	44.87
729.557	44.83
729.958	44.91
730.359	44.95
730.76	45.04
731.161	45.06
731.562	45.15
731.962	45.17
732.363	45.24
732.763	45.31
733.164	45.34
733.564	45.4
733.965	45.43
734.365	45.48
734.766	45.52
735.166	45.57
735.566	45.64
735.966	45.71
736.366	45.78
736.766	45.78
737.166	45.84
737.566	45.87
737.966	45.89
738.365	45.93
738.765	45.97
739.165	46.02
739.564	46.05
739.964	46.06
740.363	46.07
740.763	46.1
741.162	46.14
741.561	46.13
741.96	46.15
742.36	46.17
742.759	46.18
743.158	46.22
743.557	46.22
743.955	46.25
744.354	46.28
744.753	46.31
745.152	46.33
745.55	46.36
745.949	46.39
746.348	46.45
746.746	46.46
747.144	46.5
747.543	46.5
747.941	46.51
748.339	46.49
748.737	46.5
749.136	46.51
749.534	46.49
749.932	46.48
750.33	46.49
750.727	46.47
751.125	46.46
751.523	46.43
751.921	46.43
752.318	46.44
752.716	46.46
753.113	46.47
753.511	46.47
753.908	46.47
754.305	46.5
754.703	46.5
755.1	46.53
755.497	46.54
755.894	46.54
756.291	46.55
756.688	46.53
757.085	46.53
757.482	46.53
757.878	46.55
758.275	46.57
758.672	46.55
759.068	46.57
759.465	46.55
759.861	46.56
760.258	46.57
760.654	46.59
761.05	46.63
761.447	46.66
761.843	46.65
762.239	46.66
762.635	46.64
763.031	46.65
763.427	46.63
763.822	46.66
764.218	46.69
764.614	46.68
765.01	46.66
765.405	46.65
765.801	46.63
766.196	46.63
766.592	46.61
766.987	46.64
767.382	46.63
767.778	46.66
768.173	46.65
768.568	46.64
768.963	46.65
769.358	46.65
769.753	46.67
770.148	46.7
770.542	46.73
770.937	46.74
771.332	46.74
771.726	46.75
772.121	46.75
772.515	46.74
772.91	46.72
773.304	46.72
773.699	46.75
774.093	46.72
774.487	46.71
774.881	46.72
775.275	46.7
775.669	46.67
776.063	46.65
776.457	46.65
776.851	46.67
777.245	46.66
777.638	46.64
778.032	46.65
778.425	46.68
778.819	46.68
779.212	46.69
779.606	46.71
779.999	46.75
780.392	46.79
780.786	46.77
