Data from N_2_DIV_IL_4N_Splice17_13-37-17-130.txt Node
Date: Sat Mar 07 13:37:17 EST 2020
User: sa697716
Spectrometer: NQ5500242
Trigger mode: 0
Integration Time (sec): 1.450000E-1
Scans to average: 20
Nonlinearity correction enabled: false
Boxcar width: 5
Storing dark spectrum: false
XAxis mode: Wavelengths
Number of Pixels in Spectrum: 512
>>>>>Begin Spectral Data<<<<<
187.83	214.32
188.298	221.89
188.766	209.61
189.233	174.36
189.701	170.71
190.169	180.44
190.636	210.78
191.104	317.52
191.571	172.65
192.039	-93.87
192.506	-545.97
192.974	206.88
193.441	252.29
193.908	66.59
194.375	60.37
194.842	-8.83
195.31	-20.04
195.777	15.03
196.244	83.76
196.711	84.84
197.177	88.41
197.644	88.51
198.111	88.18
198.578	88.04
199.045	88.46
199.511	87.69
199.978	87.69
200.445	87.7
200.911	87.42
201.378	87.15
201.844	86.87
202.31	85.81
202.777	85.04
203.243	84.33
203.709	83.47
204.176	82.54
204.642	81.77
205.108	80.98
205.574	79.94
206.04	78.65
206.506	77.84
206.972	76.86
207.438	75.84
207.903	74.46
208.369	72.63
208.835	70.89
209.301	68.91
209.766	66.65
210.232	64.43
210.697	62.31
211.163	60.42
211.628	58.53
212.094	56.51
212.559	55
213.024	53.51
213.49	52.09
213.955	50.67
214.42	49.07
214.885	47.15
215.35	44.85
215.815	41.89
216.28	38.06
216.745	33.81
217.21	29.77
217.675	25.81
218.14	22.47
218.604	19.54
219.069	16.99
219.534	15.02
219.998	13.39
220.463	11.98
220.927	10.75
221.392	9.86
221.856	9.1
222.32	8.43
222.785	7.89
223.249	7.37
223.713	6.94
224.177	6.6
224.642	6.24
225.106	5.91
225.57	5.62
226.034	5.38
226.497	5.17
226.961	4.95
227.425	4.74
227.889	4.56
228.353	4.39
228.816	4.22
229.28	4.07
229.744	3.93
230.207	3.81
230.671	3.68
231.134	3.56
231.597	3.46
232.061	3.37
232.524	3.27
232.987	3.18
233.45	3.12
233.914	3.04
234.377	2.97
234.84	2.9
235.303	2.85
235.766	2.8
236.229	2.76
236.691	2.7
237.154	2.66
237.617	2.63
238.08	2.6
238.542	2.56
239.005	2.54
239.468	2.51
239.93	2.48
240.393	2.45
240.855	2.4
241.317	2.37
241.78	2.33
242.242	2.28
242.704	2.25
243.166	2.22
243.629	2.2
244.091	2.15
244.553	2.11
245.015	2.08
245.477	2.05
245.939	2.03
246.4	2
246.862	1.98
247.324	1.96
247.786	1.93
248.247	1.9
248.709	1.86
249.17	1.83
249.632	1.83
250.093	1.81
250.555	1.79
251.016	1.77
251.477	1.74
251.939	1.73
252.4	1.72
252.861	1.71
253.322	1.7
253.783	1.69
254.244	1.68
254.705	1.66
255.166	1.65
255.627	1.64
256.088	1.63
256.549	1.62
257.009	1.59
257.47	1.57
257.931	1.54
258.391	1.51
258.852	1.49
259.312	1.46
259.773	1.43
260.233	1.41
260.694	1.39
261.154	1.36
261.614	1.34
262.074	1.32
262.534	1.29
262.994	1.27
263.455	1.26
263.915	1.23
264.374	1.21
264.834	1.19
265.294	1.17
265.754	1.16
266.214	1.15
266.673	1.13
267.133	1.12
267.593	1.11
268.052	1.1
268.512	1.1
268.971	1.1
269.431	1.09
269.89	1.08
270.349	1.08
270.809	1.07
271.268	1.07
271.727	1.07
272.186	1.06
272.645	1.06
273.104	1.05
273.563	1.05
274.022	1.05
274.481	1.05
274.94	1.06
275.399	1.05
275.857	1.06
276.316	1.05
276.775	1.06
277.233	1.06
277.692	1.07
278.15	1.08
278.609	1.09
279.067	1.1
279.525	1.11
279.984	1.11
280.442	1.12
280.9	1.14
281.358	1.15
281.816	1.16
282.274	1.17
282.732	1.18
283.19	1.18
283.648	1.19
284.106	1.19
284.564	1.2
285.021	1.21
285.479	1.22
285.937	1.22
286.394	1.23
286.852	1.24
287.309	1.24
287.767	1.24
288.224	1.24
288.682	1.23
289.139	1.23
289.596	1.21
290.053	1.19
290.511	1.17
290.968	1.16
291.425	1.14
291.882	1.13
292.339	1.11
292.796	1.1
293.252	1.09
293.709	1.09
294.166	1.08
294.623	1.07
295.079	1.08
295.536	1.08
295.992	1.08
296.449	1.08
296.905	1.07
297.362	1.07
297.818	1.07
298.274	1.07
298.731	1.07
299.187	1.06
299.643	1.06
300.099	1.05
300.555	1.05
301.011	1.05
301.467	1.06
301.923	1.06
302.379	1.06
302.835	1.07
303.291	1.07
303.746	1.07
304.202	1.09
304.658	1.1
305.113	1.11
305.569	1.11
306.024	1.12
306.479	1.12
306.935	1.13
307.39	1.14
307.845	1.15
308.301	1.17
308.756	1.18
309.211	1.18
309.666	1.2
310.121	1.21
310.576	1.21
311.031	1.22
311.486	1.23
311.94	1.24
312.395	1.25
312.85	1.25
313.305	1.25
313.759	1.26
314.214	1.26
314.668	1.26
315.123	1.27
315.577	1.27
316.032	1.27
316.486	1.26
316.94	1.26
317.394	1.26
317.849	1.25
318.303	1.25
318.757	1.23
319.211	1.23
319.665	1.22
320.119	1.21
320.572	1.21
321.026	1.2
321.48	1.2
321.934	1.19
322.387	1.19
322.841	1.18
323.295	1.19
323.748	1.19
324.202	1.19
324.655	1.2
325.108	1.21
325.562	1.22
326.015	1.23
326.468	1.23
326.921	1.24
327.374	1.24
327.827	1.25
328.28	1.25
328.733	1.26
329.186	1.27
329.639	1.26
330.092	1.27
330.545	1.27
330.997	1.28
331.45	1.29
331.903	1.31
332.355	1.32
332.808	1.33
333.26	1.33
333.713	1.34
334.165	1.34
334.617	1.36
335.069	1.37
335.522	1.37
335.974	1.37
336.426	1.38
336.878	1.37
337.33	1.38
337.782	1.38
338.234	1.39
338.686	1.4
339.137	1.41
339.589	1.4
340.041	1.39
340.493	1.39
340.944	1.38
341.396	1.36
341.847	1.35
342.299	1.34
342.75	1.33
343.201	1.31
343.653	1.29
344.104	1.28
344.555	1.27
345.006	1.25
345.457	1.25
345.908	1.25
346.359	1.25
346.81	1.25
347.261	1.24
347.712	1.24
348.163	1.24
348.613	1.24
349.064	1.25
349.515	1.25
349.965	1.25
350.416	1.24
350.866	1.25
351.317	1.24
351.767	1.25
352.217	1.26
352.668	1.27
353.118	1.28
353.568	1.27
354.018	1.27
354.468	1.29
354.918	1.29
355.368	1.31
355.818	1.31
356.268	1.31
356.718	1.32
357.168	1.31
357.617	1.31
358.067	1.31
358.517	1.33
358.966	1.35
359.416	1.35
359.865	1.35
360.315	1.36
360.764	1.37
361.213	1.37
361.663	1.37
362.112	1.38
362.561	1.39
363.01	1.39
363.459	1.37
363.908	1.36
364.357	1.37
364.806	1.37
365.255	1.36
365.703	1.37
366.152	1.39
366.601	1.4
367.05	1.39
367.498	1.38
367.947	1.39
368.395	1.41
368.844	1.41
369.292	1.4
369.74	1.41
370.189	1.41
370.637	1.4
371.085	1.39
371.533	1.39
371.981	1.39
372.429	1.4
372.877	1.4
373.325	1.39
373.773	1.4
374.221	1.4
374.669	1.4
375.116	1.38
375.564	1.39
376.012	1.39
376.459	1.38
376.907	1.4
377.354	1.4
377.801	1.41
378.249	1.42
378.696	1.42
379.143	1.43
379.591	1.43
380.038	1.45
380.485	1.46
380.932	1.47
381.379	1.49
381.826	1.5
382.273	1.51
382.72	1.51
383.166	1.53
383.613	1.56
384.06	1.58
384.506	1.63
384.953	1.68
385.4	1.75
385.846	1.84
386.292	1.92
386.739	2.03
387.185	2.16
387.631	2.29
388.078	2.41
388.524	2.52
388.97	2.65
389.416	2.8
389.862	3
390.308	3.26
390.754	3.57
391.2	3.88
391.645	4.17
392.091	4.43
392.537	4.73
392.983	5.13
393.428	5.7
393.874	6.39
394.319	7.17
394.765	8
395.21	8.85
395.655	9.77
396.101	10.76
396.546	11.85
396.991	13.09
397.436	14.4
397.881	15.76
398.326	17.05
398.771	18.29
399.216	19.45
399.661	20.53
400.106	21.47
400.551	22.32
400.995	23.06
401.44	23.76
401.885	24.41
402.329	25.09
402.774	25.81
403.218	26.61
403.663	27.45
404.107	28.35
404.551	29.28
404.995	30.2
405.44	31.06
405.884	31.99
406.328	33.01
406.772	34.12
407.216	35.26
407.66	36.29
408.104	37.2
408.547	38.02
408.991	38.77
409.435	39.59
409.879	40.49
410.322	41.55
410.766	42.65
411.209	43.68
411.653	44.59
412.096	45.41
412.54	46.18
412.983	47.01
413.426	47.88
413.869	48.77
414.312	49.6
414.756	50.32
415.199	50.92
415.642	51.43
416.085	51.83
416.527	52.09
416.97	52.16
417.413	52.12
417.856	51.98
418.298	51.87
418.741	51.82
419.184	51.85
419.626	52.04
420.069	52.27
420.511	52.53
420.953	52.85
421.396	53.34
421.838	54.01
422.28	54.75
422.722	55.52
423.164	56.2
423.606	56.78
424.048	57.22
424.49	57.28
424.932	56.94
425.374	56.09
425.816	54.91
426.258	53.67
426.699	52.81
427.141	52.63
427.582	53.03
428.024	53.79
428.465	54.57
428.907	55.21
429.348	55.87
429.789	56.9
430.231	58.62
430.672	60.97
431.113	63.57
431.554	65.96
431.995	67.77
432.436	69.04
432.877	70.03
433.318	70.89
433.759	71.9
434.2	73.16
434.64	74.54
435.081	75.8
435.522	76.91
435.962	77.75
436.403	78.47
436.843	79.03
437.284	79.57
437.724	80.22
438.164	81.05
438.604	82.06
439.045	83.05
439.485	83.91
439.925	84.64
440.365	85.2
440.805	85.64
441.245	85.95
441.685	86.32
442.125	86.7
442.564	87.13
443.004	87.56
443.444	88.12
443.883	88.71
444.323	89.32
444.762	89.93
445.202	90.6
445.641	91.45
446.081	92.59
446.52	93.62
446.959	94.63
447.398	95.35
447.837	95.66
448.276	95.57
448.716	95.4
449.154	95.27
449.593	95.09
450.032	94.69
450.471	94.09
450.91	93.31
451.349	92.59
451.787	91.88
452.226	91.28
452.664	90.88
453.103	90.56
453.541	90.14
453.98	89.61
454.418	88.98
454.856	88.36
455.295	87.88
455.733	87.37
456.171	86.92
456.609	86.62
457.047	86.22
457.485	86.03
457.923	85.99
458.361	86.07
458.798	86.3
459.236	86.5
459.674	86.8
460.111	87.06
460.549	87.45
460.987	87.83
461.424	88.15
461.862	88.62
462.299	88.91
462.736	89.22
463.173	89.67
463.611	90.16
464.048	90.89
464.485	91.66
464.922	92.5
465.359	93.29
465.796	94
466.233	94.74
466.67	95.52
467.106	96.46
467.543	97.47
467.98	98.43
468.416	99.28
468.853	99.96
469.29	100.6
469.726	101.23
470.162	101.88
470.599	102.52
471.035	103.04
471.471	103.4
471.907	103.5
472.344	103.51
472.78	103.42
473.216	103.39
473.652	103.39
474.088	103.25
474.523	103.08
474.959	102.86
475.395	102.58
475.831	102.26
476.266	101.98
476.702	101.74
477.138	101.42
477.573	101.04
478.008	100.52
478.444	99.89
478.879	99.2
479.314	98.42
479.75	97.56
480.185	96.59
480.62	95.47
481.055	93.98
481.49	92.16
481.925	90.16
482.36	88.3
482.795	86.7
483.229	85.37
483.664	84.3
484.099	83.31
484.534	82.43
484.968	81.76
485.403	81.32
485.837	81.31
486.271	81.62
486.706	82
487.14	82.29
487.574	82.36
488.009	82.28
488.443	82.15
488.877	82.06
489.311	82.01
489.745	81.96
490.179	81.97
490.613	81.91
491.046	81.91
491.48	81.98
491.914	82.14
492.348	82.44
492.781	82.77
493.215	83.04
493.648	83.22
494.082	83.33
494.515	83.42
494.948	83.48
495.382	83.53
495.815	83.52
496.248	83.54
496.681	83.46
497.114	83.31
497.547	83.15
497.98	83.11
498.413	83.22
498.846	83.42
499.279	83.58
499.711	83.69
500.144	83.89
500.577	84.2
501.009	84.63
501.442	85.25
501.874	85.9
502.306	86.59
502.739	87.17
503.171	87.63
503.603	88.02
504.036	88.49
504.468	89.04
504.9	89.6
505.332	90.09
505.764	90.5
506.196	90.85
506.627	91.22
507.059	91.68
507.491	92.18
507.923	92.66
508.354	93.2
508.786	93.64
509.217	93.99
509.649	94.27
510.08	94.53
510.512	94.88
510.943	95.27
511.374	95.63
511.805	95.75
512.237	95.63
512.668	95.43
513.099	95.21
513.53	95.13
513.961	95.12
514.391	95.24
514.822	95.52
515.253	95.85
515.684	96.19
516.114	96.62
516.545	97.2
516.975	98.12
517.406	99.18
517.836	100.21
518.267	101.13
518.697	101.98
519.127	102.76
519.558	103.51
519.988	104.2
520.418	104.82
520.848	105.33
521.278	105.74
521.708	106
522.138	106.01
522.567	105.94
522.997	105.93
523.427	106.03
523.857	106.22
524.286	106.4
524.716	106.6
525.145	106.77
525.575	106.98
526.004	107.25
526.433	107.65
526.863	108.33
527.292	109.04
527.721	109.55
528.15	109.83
528.579	109.91
529.008	109.91
529.437	109.8
529.866	109.69
530.295	109.64
530.724	109.65
531.152	109.65
531.581	109.6
532.01	109.52
532.438	109.47
532.867	109.54
533.295	109.67
533.723	109.78
534.152	109.89
534.58	109.95
535.008	109.83
535.436	109.62
535.865	109.26
536.293	108.88
536.721	108.63
537.149	108.55
537.576	108.56
538.004	108.63
538.432	108.61
538.86	108.65
539.287	108.75
539.715	109
540.143	109.36
540.57	109.84
540.998	110.37
541.425	110.86
541.852	111.36
542.28	111.8
542.707	112.19
543.134	112.59
543.561	112.93
543.988	113.27
544.415	113.63
544.842	113.98
545.269	114.33
545.696	114.65
546.123	115.04
546.549	115.33
546.976	115.6
547.403	115.9
547.829	116.22
548.256	116.58
548.682	116.87
549.108	117.17
549.535	117.45
549.961	117.68
550.387	117.91
550.813	118.14
551.24	118.38
551.666	118.52
552.092	118.59
552.518	118.6
552.943	118.54
553.369	118.5
553.795	118.35
554.221	118.07
554.646	117.72
555.072	117.26
555.498	116.78
555.923	116.35
556.349	116.02
556.774	115.73
557.199	115.44
557.625	115.16
558.05	114.9
558.475	114.64
558.9	114.45
559.325	114.29
559.75	114.09
560.175	113.87
560.6	113.52
561.025	113.03
561.449	112.44
561.874	111.81
562.299	111.23
562.723	110.63
563.148	110
563.572	109.3
563.997	108.56
564.421	107.8
564.846	107.06
565.27	106.33
565.694	105.64
566.118	104.91
566.542	104.18
566.966	103.4
567.39	102.72
567.814	102.09
568.238	101.61
568.662	101.22
569.086	100.94
569.509	100.66
569.933	100.43
570.357	100.22
570.78	100.07
571.204	100
571.627	99.94
572.05	99.86
572.474	99.78
572.897	99.69
573.32	99.53
573.743	99.36
574.166	99.16
574.589	99
575.012	98.9
575.435	98.92
575.858	98.98
576.281	99.14
576.704	99.29
577.126	99.41
577.549	99.54
577.972	99.81
578.394	100.12
578.817	100.48
579.239	100.87
579.661	101.24
580.084	101.53
580.506	101.81
580.928	101.96
581.35	102.09
581.772	102.16
582.194	102.22
582.616	102.29
583.038	102.31
583.46	102.27
583.882	102.13
584.303	101.76
584.725	101.24
585.147	100.61
585.568	100.1
585.99	99.69
586.411	99.47
586.833	99.27
587.254	99.05
587.675	98.88
588.096	98.76
588.518	98.76
588.939	98.96
589.36	99.31
589.781	99.8
590.202	100.14
590.623	100.35
591.043	100.43
591.464	100.48
591.885	100.46
592.305	100.46
592.726	100.4
593.147	100.24
593.567	100.08
593.987	99.84
594.408	99.58
594.828	99.39
595.248	99.19
595.669	98.96
596.089	98.63
596.509	98.31
596.929	97.88
597.349	97.46
597.769	97.02
598.189	96.61
598.608	96.35
599.028	96.1
599.448	95.88
599.867	95.67
600.287	95.49
600.706	95.33
601.126	95.18
601.545	95.06
601.965	94.99
602.384	94.98
602.803	94.92
603.222	94.75
603.641	94.57
604.061	94.36
604.48	94.12
604.898	93.89
605.317	93.66
605.736	93.4
606.155	93.15
606.574	92.88
606.992	92.61
607.411	92.38
607.829	92.17
608.248	91.95
608.666	91.71
609.085	91.48
609.503	91.21
609.921	90.94
610.339	90.72
610.758	90.54
611.176	90.31
611.594	90.02
612.012	89.67
612.43	89.27
612.847	88.95
613.265	88.68
613.683	88.5
614.101	88.38
614.518	88.27
614.936	88.15
615.353	87.99
615.771	87.91
616.188	87.91
616.606	87.94
617.023	88.03
617.44	88.05
617.857	87.99
618.274	87.84
618.691	87.62
619.108	87.39
619.525	87.12
619.942	86.84
620.359	86.5
620.776	86.09
621.192	85.69
621.609	85.29
622.026	84.95
622.442	84.68
622.859	84.42
623.275	84.13
623.691	83.82
624.108	83.5
624.524	83.24
624.94	83
625.356	82.79
625.772	82.57
626.188	82.41
626.604	82.2
627.02	81.96
627.436	81.73
627.852	81.6
628.268	81.55
628.683	81.55
629.099	81.53
629.514	81.54
629.93	81.56
630.345	81.63
630.761	81.67
631.176	81.73
631.591	81.72
632.007	81.78
632.422	81.84
632.837	81.88
633.252	81.9
633.667	81.96
634.082	81.97
634.497	82.04
634.911	82.02
635.326	81.96
635.741	81.86
636.155	81.79
636.57	81.66
636.984	81.51
637.399	81.31
637.813	81.15
638.228	80.91
638.642	80.7
639.056	80.45
639.47	80.28
639.884	80.09
640.298	79.95
640.712	79.82
641.126	79.65
641.54	79.45
641.954	79.27
642.368	79
642.781	78.77
643.195	78.52
643.609	78.25
644.022	77.97
644.436	77.7
644.849	77.37
645.262	76.99
645.676	76.67
646.089	76.47
646.502	76.29
646.915	76.18
647.328	76.03
647.741	75.91
648.154	75.81
648.567	75.71
648.98	75.64
649.393	75.65
649.805	75.69
650.218	75.72
650.631	75.56
651.043	75.23
651.456	74.64
651.868	73.83
652.28	72.91
652.693	72.12
653.105	71.45
653.517	70.97
653.929	70.56
654.341	70.25
654.753	69.98
655.165	69.85
655.577	69.91
655.989	70.23
656.401	70.78
656.813	71.49
657.224	72.03
657.636	72.45
658.047	72.71
658.459	72.86
658.87	72.9
659.282	72.89
659.693	72.81
660.104	72.68
660.515	72.52
660.926	72.39
661.338	72.21
661.749	72.03
662.159	71.82
662.57	71.61
662.981	71.4
663.392	71.19
663.803	70.98
664.213	70.81
664.624	70.67
665.035	70.51
665.445	70.31
665.855	70.09
666.266	69.89
666.676	69.67
667.086	69.36
667.497	69.09
667.907	68.84
668.317	68.58
668.727	68.33
669.137	68.06
669.547	67.82
669.956	67.57
670.366	67.34
670.776	67.13
671.186	66.92
671.595	66.77
672.005	66.64
672.414	66.53
672.824	66.39
673.233	66.26
673.642	66.18
674.052	66.06
674.461	65.96
674.87	65.87
675.279	65.81
675.688	65.75
676.097	65.69
676.506	65.64
676.915	65.6
677.323	65.57
677.732	65.55
678.141	65.51
678.549	65.49
678.958	65.5
679.366	65.48
679.775	65.42
680.183	65.39
680.592	65.38
681	65.37
681.408	65.31
681.816	65.2
682.224	64.8
682.632	64.06
683.04	63.01
683.448	61.94
683.856	60.94
684.264	60.1
684.671	59.29
685.079	58.48
685.487	57.75
685.894	57.16
686.302	56.71
686.709	56.65
687.116	57.01
687.524	57.79
687.931	58.66
688.338	59.53
688.745	60.36
689.152	61.17
689.559	61.99
689.966	62.75
690.373	63.44
690.78	64.1
691.187	64.67
691.593	65.21
692	65.69
692.407	66.18
692.813	66.66
693.22	67.06
693.626	67.46
694.032	67.87
694.439	68.24
694.845	68.58
695.251	68.9
695.657	69.17
696.063	69.4
696.469	69.58
696.875	69.71
697.281	69.78
697.687	69.85
698.093	69.89
698.498	69.96
698.904	70.07
699.31	70.21
699.715	70.41
700.12	70.66
700.526	70.95
700.931	71.25
701.337	71.57
701.742	71.86
702.147	72.18
702.552	72.53
702.957	72.79
703.362	73.08
703.767	73.32
704.172	73.53
704.577	73.69
704.981	73.82
705.386	73.93
705.791	74.05
706.195	74.24
706.6	74.4
707.004	74.53
707.408	74.66
707.813	74.77
708.217	74.85
708.621	74.95
709.025	75.02
709.43	75.1
709.834	75.23
710.237	75.29
710.641	75.28
711.045	75.28
711.449	75.27
711.853	75.28
712.256	75.1
712.66	74.8
713.064	74.31
713.467	73.71
713.87	72.97
714.274	72.05
714.677	71.08
715.08	70.06
715.484	69.08
715.887	68.13
716.29	67.26
716.693	66.69
717.096	66.47
717.499	66.58
717.901	66.9
718.304	67.37
718.707	67.94
719.109	68.5
719.512	68.99
719.915	69.44
720.317	69.78
720.719	70.06
721.122	70.21
721.524	70.19
721.926	70.01
722.328	69.78
722.731	69.5
723.133	69.27
723.535	69.14
723.937	69.11
724.338	69.09
724.74	69.12
725.142	69.27
725.544	69.29
725.945	69.35
726.347	69.35
726.748	69.34
727.15	69.37
727.551	69.5
727.952	69.69
728.354	69.92
728.755	70.23
729.156	70.6
729.557	70.88
729.958	71.31
730.359	71.7
730.76	72.12
731.161	72.48
731.562	72.82
731.962	73.04
732.363	73.19
732.763	73.34
733.164	73.44
733.564	73.5
733.965	73.48
734.365	73.38
734.766	73.21
735.166	73.06
735.566	72.99
735.966	72.95
736.366	72.86
736.766	72.78
737.166	72.63
737.566	72.46
737.966	72.33
738.365	72.24
738.765	72.21
739.165	72.26
739.564	72.3
739.964	72.24
740.363	72.18
740.763	72.18
741.162	72.18
741.561	72.2
741.96	72.21
742.36	72.2
742.759	72.17
743.158	72.12
743.557	72.02
743.955	71.92
744.354	71.86
744.753	71.79
745.152	71.69
745.55	71.56
745.949	71.42
746.348	71.3
746.746	71.12
747.144	70.94
747.543	70.75
747.941	70.59
748.339	70.38
748.737	70.17
749.136	69.98
749.534	69.76
749.932	69.61
750.33	69.48
750.727	69.33
751.125	69.2
751.523	69.06
751.921	68.91
752.318	68.75
752.716	68.6
753.113	68.43
753.511	68.26
753.908	68.11
754.305	67.86
754.703	67.28
755.1	66.12
755.497	64.12
755.894	61.16
756.291	57.54
756.688	53.61
757.085	49.84
757.482	46.36
757.878	43.12
758.275	39.96
758.672	36.74
759.068	33.8
759.465	31.47
759.861	30.19
760.258	30.07
760.654	30.89
761.05	32.26
761.447	33.77
761.843	35.21
762.239	36.63
762.635	38.28
763.031	40.25
763.427	42.5
763.822	44.9
764.218	47.29
764.614	49.56
765.01	51.64
765.405	53.55
765.801	55.26
766.196	56.8
766.592	58.1
766.987	59.14
767.382	59.94
767.778	60.54
768.173	60.97
768.568	61.27
