Data from N_2_DEC_VA_2N_Splice17_13-07-12-336.txt Node
Date: Sat Mar 07 13:07:12 EST 2020
User: sa697716
Spectrometer: NQ5500242
Trigger mode: 0
Integration Time (sec): 1.450000E-1
Scans to average: 20
Nonlinearity correction enabled: false
Boxcar width: 5
Storing dark spectrum: false
XAxis mode: Wavelengths
Number of Pixels in Spectrum: 512
>>>>>Begin Spectral Data<<<<<
187.83	221.99
188.298	248.56
188.766	231.8
189.233	198.12
189.701	211.63
190.169	240.98
190.636	285.13
191.104	450.16
191.571	425.25
192.039	118.51
192.506	348.81
192.974	-75.29
193.441	38.18
193.908	79.21
194.375	109.67
194.842	56.23
195.31	67.59
195.777	15.15
196.244	39.46
196.711	36.57
197.177	37.11
197.644	37.82
198.111	37.39
198.578	37.95
199.045	37.78
199.511	37.85
199.978	38.17
200.445	38.74
200.911	39.03
201.378	39.07
201.844	39.25
202.31	39.22
202.777	39.46
203.243	39.52
203.709	39.22
204.176	39.03
204.642	38.66
205.108	38.76
205.574	38.52
206.04	38.13
206.506	37.62
206.972	37.49
207.438	37.08
207.903	36.28
208.369	35.85
208.835	35.27
209.301	34.4
209.766	33.47
210.232	32.51
210.697	31.42
211.163	30.72
211.628	30.04
212.094	29.15
212.559	28.64
213.024	28.14
213.49	27.35
213.955	26.6
214.42	26.13
214.885	25.43
215.35	24.46
215.815	23.3
216.28	21.67
216.745	19.89
217.21	18.26
217.675	16.61
218.14	15.2
218.604	14.09
219.069	13.17
219.534	12.37
219.998	11.68
220.463	11.13
220.927	10.56
221.392	10.17
221.856	9.86
222.32	9.55
222.785	9.35
223.249	9.13
223.713	8.9
224.177	8.72
224.642	8.53
225.106	8.36
225.57	8.18
226.034	8.06
226.497	7.94
226.961	7.81
227.425	7.68
227.889	7.55
228.353	7.42
228.816	7.3
229.28	7.16
229.744	7.07
230.207	6.95
230.671	6.84
231.134	6.76
231.597	6.67
232.061	6.57
232.524	6.49
232.987	6.4
233.45	6.33
233.914	6.26
234.377	6.19
234.84	6.11
235.303	6.06
235.766	6.01
236.229	5.94
236.691	5.86
237.154	5.81
237.617	5.75
238.08	5.7
238.542	5.64
239.005	5.6
239.468	5.55
239.93	5.5
240.393	5.45
240.855	5.38
241.317	5.33
241.78	5.27
242.242	5.22
242.704	5.17
243.166	5.11
243.629	5.08
244.091	5.02
244.553	4.97
245.015	4.92
245.477	4.87
245.939	4.83
246.4	4.78
246.862	4.75
247.324	4.71
247.786	4.67
248.247	4.63
248.709	4.57
249.17	4.52
249.632	4.5
250.093	4.47
250.555	4.44
251.016	4.41
251.477	4.37
251.939	4.35
252.4	4.33
252.861	4.3
253.322	4.28
253.783	4.26
254.244	4.25
254.705	4.21
255.166	4.19
255.627	4.16
256.088	4.15
256.549	4.14
257.009	4.1
257.47	4.07
257.931	4.02
258.391	3.99
258.852	3.96
259.312	3.92
259.773	3.91
260.233	3.89
260.694	3.86
261.154	3.82
261.614	3.8
262.074	3.77
262.534	3.75
262.994	3.74
263.455	3.73
263.915	3.7
264.374	3.69
264.834	3.68
265.294	3.65
265.754	3.64
266.214	3.63
266.673	3.62
267.133	3.6
267.593	3.6
268.052	3.6
268.512	3.59
268.971	3.58
269.431	3.57
269.89	3.56
270.349	3.56
270.809	3.54
271.268	3.54
271.727	3.53
272.186	3.53
272.645	3.52
273.104	3.51
273.563	3.5
274.022	3.49
274.481	3.49
274.94	3.49
275.399	3.47
275.857	3.47
276.316	3.46
276.775	3.46
277.233	3.45
277.692	3.45
278.15	3.44
278.609	3.44
279.067	3.43
279.525	3.42
279.984	3.42
280.442	3.42
280.9	3.42
281.358	3.42
281.816	3.43
282.274	3.42
282.732	3.41
283.19	3.4
283.648	3.4
284.106	3.39
284.564	3.38
285.021	3.37
285.479	3.36
285.937	3.34
286.394	3.34
286.852	3.32
287.309	3.31
287.767	3.3
288.224	3.29
288.682	3.27
289.139	3.26
289.596	3.25
290.053	3.23
290.511	3.22
290.968	3.21
291.425	3.18
291.882	3.17
292.339	3.16
292.796	3.15
293.252	3.15
293.709	3.14
294.166	3.13
294.623	3.12
295.079	3.11
295.536	3.11
295.992	3.1
296.449	3.1
296.905	3.1
297.362	3.09
297.818	3.08
298.274	3.07
298.731	3.06
299.187	3.06
299.643	3.05
300.099	3.05
300.555	3.05
301.011	3.04
301.467	3.03
301.923	3.02
302.379	3.02
302.835	3.02
303.291	3.01
303.746	3.01
304.202	3.01
304.658	3.01
305.113	3
305.569	3
306.024	3
306.479	2.99
306.935	2.99
307.39	2.99
307.845	2.98
308.301	2.98
308.756	2.98
309.211	2.97
309.666	2.98
310.121	2.97
310.576	2.97
311.031	2.97
311.486	2.98
311.94	2.98
312.395	2.97
312.85	2.97
313.305	2.97
313.759	2.97
314.214	2.97
314.668	2.95
315.123	2.95
315.577	2.95
316.032	2.95
316.486	2.94
316.94	2.94
317.394	2.93
317.849	2.93
318.303	2.92
318.757	2.9
319.211	2.9
319.665	2.89
320.119	2.88
320.572	2.87
321.026	2.86
321.48	2.84
321.934	2.82
322.387	2.81
322.841	2.81
323.295	2.81
323.748	2.8
324.202	2.8
324.655	2.79
325.108	2.8
325.562	2.8
326.015	2.79
326.468	2.8
326.921	2.8
327.374	2.8
327.827	2.8
328.28	2.8
328.733	2.8
329.186	2.8
329.639	2.81
330.092	2.8
330.545	2.79
330.997	2.79
331.45	2.79
331.903	2.8
332.355	2.8
332.808	2.8
333.26	2.79
333.713	2.79
334.165	2.78
334.617	2.79
335.069	2.78
335.522	2.79
335.974	2.8
336.426	2.79
336.878	2.79
337.33	2.79
337.782	2.79
338.234	2.8
338.686	2.8
339.137	2.8
339.589	2.79
340.041	2.79
340.493	2.77
340.944	2.75
341.396	2.75
341.847	2.75
342.299	2.74
342.75	2.72
343.201	2.71
343.653	2.69
344.104	2.68
344.555	2.68
345.006	2.67
345.457	2.66
345.908	2.66
346.359	2.66
346.81	2.65
347.261	2.64
347.712	2.64
348.163	2.63
348.613	2.64
349.064	2.65
349.515	2.64
349.965	2.64
350.416	2.63
350.866	2.63
351.317	2.62
351.767	2.62
352.217	2.62
352.668	2.62
353.118	2.62
353.568	2.61
354.018	2.62
354.468	2.62
354.918	2.62
355.368	2.63
355.818	2.64
356.268	2.64
356.718	2.65
357.168	2.65
357.617	2.64
358.067	2.64
358.517	2.65
358.966	2.64
359.416	2.65
359.865	2.64
360.315	2.64
360.764	2.64
361.213	2.64
361.663	2.63
362.112	2.64
362.561	2.64
363.01	2.64
363.459	2.63
363.908	2.63
364.357	2.63
364.806	2.63
365.255	2.63
365.703	2.64
366.152	2.64
366.601	2.65
367.05	2.65
367.498	2.65
367.947	2.67
368.395	2.68
368.844	2.69
369.292	2.69
369.74	2.71
370.189	2.71
370.637	2.72
371.085	2.72
371.533	2.73
371.981	2.74
372.429	2.75
372.877	2.76
373.325	2.77
373.773	2.79
374.221	2.8
374.669	2.81
375.116	2.83
375.564	2.85
376.012	2.88
376.459	2.91
376.907	2.94
377.354	2.97
377.801	3.01
378.249	3.05
378.696	3.08
379.143	3.13
379.591	3.17
380.038	3.22
380.485	3.27
380.932	3.33
381.379	3.38
381.826	3.44
382.273	3.5
382.72	3.55
383.166	3.61
383.613	3.68
384.06	3.73
384.506	3.8
384.953	3.88
385.4	3.95
385.846	4.01
386.292	4.08
386.739	4.15
387.185	4.22
387.631	4.3
388.078	4.37
388.524	4.44
388.97	4.53
389.416	4.6
389.862	4.68
390.308	4.76
390.754	4.83
391.2	4.91
391.645	4.99
392.091	5.07
392.537	5.15
392.983	5.22
393.428	5.29
393.874	5.36
394.319	5.43
394.765	5.48
395.21	5.54
395.655	5.6
396.101	5.67
396.546	5.71
396.991	5.76
397.436	5.81
397.881	5.87
398.326	5.92
398.771	5.96
399.216	6
399.661	6.03
400.106	6.06
400.551	6.07
400.995	6.08
401.44	6.09
401.885	6.09
402.329	6.1
402.774	6.1
403.218	6.12
403.663	6.12
404.107	6.11
404.551	6.11
404.995	6.11
405.44	6.1
405.884	6.1
406.328	6.09
406.772	6.07
407.216	6.05
407.66	6.03
408.104	5.98
408.547	5.97
408.991	5.97
409.435	5.95
409.879	5.93
410.322	5.92
410.766	5.91
411.209	5.9
411.653	5.9
412.096	5.9
412.54	5.89
412.983	5.89
413.426	5.9
413.869	5.88
414.312	5.89
414.756	5.89
415.199	5.87
415.642	5.85
416.085	5.83
416.527	5.81
416.97	5.78
417.413	5.77
417.856	5.75
418.298	5.72
418.741	5.7
419.184	5.68
419.626	5.66
420.069	5.66
420.511	5.66
420.953	5.64
421.396	5.63
421.838	5.62
422.28	5.61
422.722	5.6
423.164	5.58
423.606	5.56
424.048	5.54
424.49	5.51
424.932	5.45
425.374	5.4
425.816	5.36
426.258	5.32
426.699	5.29
427.141	5.27
427.582	5.25
428.024	5.23
428.465	5.19
428.907	5.16
429.348	5.13
429.789	5.13
430.231	5.15
430.672	5.15
431.113	5.17
431.554	5.17
431.995	5.15
432.436	5.14
432.877	5.14
433.318	5.16
433.759	5.17
434.2	5.2
434.64	5.2
435.081	5.19
435.522	5.21
435.962	5.21
436.403	5.23
436.843	5.26
437.284	5.27
437.724	5.29
438.164	5.31
438.604	5.35
439.045	5.36
439.485	5.4
439.925	5.43
440.365	5.47
440.805	5.51
441.245	5.56
441.685	5.62
442.125	5.68
442.564	5.74
443.004	5.78
443.444	5.83
443.883	5.91
444.323	5.96
444.762	6.03
445.202	6.1
445.641	6.17
446.081	6.26
446.52	6.31
446.959	6.4
447.398	6.48
447.837	6.57
448.276	6.65
448.716	6.71
449.154	6.79
449.593	6.88
450.032	6.94
450.471	6.98
450.91	7.01
451.349	7.08
451.787	7.1
452.226	7.13
452.664	7.17
453.103	7.19
453.541	7.23
453.98	7.25
454.418	7.26
454.856	7.29
455.295	7.3
455.733	7.3
456.171	7.3
456.609	7.34
457.047	7.34
457.485	7.35
457.923	7.37
458.361	7.38
458.798	7.4
459.236	7.4
459.674	7.39
460.111	7.4
460.549	7.44
460.987	7.45
461.424	7.45
461.862	7.45
462.299	7.46
462.736	7.45
463.173	7.45
463.611	7.45
464.048	7.47
464.485	7.47
464.922	7.48
465.359	7.47
465.796	7.49
466.233	7.49
466.67	7.49
467.106	7.51
467.543	7.5
467.98	7.5
468.416	7.5
468.853	7.5
469.29	7.51
469.726	7.53
470.162	7.53
470.599	7.53
471.035	7.53
471.471	7.53
471.907	7.52
472.344	7.55
472.78	7.56
473.216	7.56
473.652	7.57
474.088	7.56
474.523	7.58
474.959	7.58
475.395	7.57
475.831	7.58
476.266	7.6
476.702	7.6
477.138	7.61
477.573	7.61
478.008	7.62
478.444	7.62
478.879	7.65
479.314	7.66
479.75	7.68
480.185	7.69
480.62	7.7
481.055	7.7
481.49	7.71
481.925	7.74
482.36	7.77
482.795	7.8
483.229	7.83
483.664	7.86
484.099	7.88
484.534	7.92
484.968	7.97
485.403	8.02
485.837	8.08
486.271	8.15
486.706	8.22
487.14	8.28
487.574	8.36
488.009	8.44
488.443	8.52
488.877	8.62
489.311	8.72
489.745	8.82
490.179	8.94
490.613	9.07
491.046	9.19
491.48	9.32
491.914	9.46
492.348	9.6
492.781	9.74
493.215	9.9
493.648	10.06
494.082	10.23
494.515	10.39
494.948	10.55
495.382	10.73
495.815	10.91
496.248	11.1
496.681	11.29
497.114	11.49
497.547	11.69
497.98	11.89
498.413	12.11
498.846	12.33
499.279	12.58
499.711	12.81
500.144	13.07
500.577	13.32
501.009	13.57
501.442	13.84
501.874	14.12
502.306	14.41
502.739	14.7
503.171	14.99
503.603	15.29
504.036	15.58
504.468	15.89
504.9	16.18
505.332	16.49
505.764	16.82
506.196	17.14
506.627	17.47
507.059	17.8
507.491	18.12
507.923	18.46
508.354	18.81
508.786	19.17
509.217	19.53
509.649	19.9
510.08	20.26
510.512	20.62
510.943	20.98
511.374	21.34
511.805	21.7
512.237	22.05
512.668	22.41
513.099	22.75
513.53	23.1
513.961	23.45
514.391	23.79
514.822	24.14
515.253	24.49
515.684	24.83
516.114	25.18
516.545	25.51
516.975	25.84
517.406	26.16
517.836	26.49
518.267	26.82
518.697	27.11
519.127	27.4
519.558	27.69
519.988	27.97
520.418	28.23
520.848	28.49
521.278	28.74
521.708	29.08
522.138	29.32
522.567	29.55
522.997	29.77
523.427	30
523.857	30.22
524.286	30.42
524.716	30.63
525.145	30.83
525.575	31.01
526.004	31.21
526.433	31.28
526.863	31.45
527.292	31.61
527.721	31.76
528.15	31.89
528.579	32.02
529.008	32.16
529.437	32.27
529.866	32.37
530.295	32.49
530.724	32.59
531.152	32.72
531.581	32.83
532.01	32.92
532.438	33.02
532.867	33.12
533.295	33.2
533.723	33.29
534.152	33.36
534.58	33.43
535.008	33.49
535.436	33.55
535.865	33.58
536.293	33.63
536.721	33.67
537.149	33.72
537.576	33.76
538.004	33.81
538.432	33.84
538.86	33.87
539.287	33.89
539.715	33.93
540.143	33.96
540.57	34
540.998	34.03
541.425	34.06
541.852	34.07
542.28	34.1
542.707	34.12
543.134	34.14
543.561	34.18
543.988	34.21
544.415	34.22
544.842	34.22
545.269	34.24
545.696	34.25
546.123	34.26
546.549	34.28
546.976	34.29
547.403	34.3
547.829	34.31
548.256	34.3
548.682	34.29
549.108	34.29
549.535	34.33
549.961	34.32
550.387	34.32
550.813	34.33
551.24	34.31
551.666	34.3
552.092	34.29
552.518	34.3
552.943	34.28
553.369	34.27
553.795	34.28
554.221	34.23
554.646	34.23
555.072	34.19
555.498	34.14
555.923	34.11
556.349	34.06
556.774	34.02
557.199	33.96
557.625	33.91
558.05	33.85
558.475	33.8
558.9	33.76
559.325	33.69
559.75	33.64
560.175	33.58
560.6	33.51
561.025	33.44
561.449	33.36
561.874	33.29
562.299	33.21
562.723	33.12
563.148	33.01
563.572	32.9
563.997	32.8
564.421	32.68
564.846	32.58
565.27	32.46
565.694	32.37
566.118	32.24
566.542	32.13
566.966	32.02
567.39	31.92
567.814	31.81
568.238	31.69
568.662	31.58
569.086	31.47
569.509	31.35
569.933	31.25
570.357	31.13
570.78	31.03
571.204	30.92
571.627	30.81
572.05	30.68
572.474	30.59
572.897	30.49
573.32	30.39
573.743	30.29
574.166	30.2
574.589	30.07
575.012	29.95
575.435	29.85
575.858	29.75
576.281	29.63
576.704	29.53
577.126	29.41
577.549	29.32
577.972	29.22
578.394	29.1
578.817	29
579.239	28.93
579.661	28.85
580.084	28.76
580.506	28.68
580.928	28.61
581.35	28.53
581.772	28.46
582.194	28.37
582.616	28.29
583.038	28.23
583.46	28.14
583.882	28.06
584.303	27.96
584.725	27.88
585.147	27.81
585.568	27.74
585.99	27.67
586.411	27.6
586.833	27.53
587.254	27.45
587.675	27.38
588.096	27.33
588.518	27.28
588.939	27.26
589.36	27.2
589.781	27.14
590.202	27.1
590.623	27.06
591.043	27.01
591.464	26.97
591.885	26.95
592.305	26.92
592.726	26.88
593.147	26.83
593.567	26.78
593.987	26.74
594.408	26.69
594.828	26.64
595.248	26.6
595.669	26.58
596.089	26.53
596.509	26.48
596.929	26.45
597.349	26.41
597.769	26.37
598.189	26.32
598.608	26.29
599.028	26.26
599.448	26.23
599.867	26.18
600.287	26.13
600.706	26.1
601.126	26.05
601.545	25.99
601.965	25.96
602.384	25.9
602.803	25.85
603.222	25.8
603.641	25.74
604.061	25.69
604.48	25.62
604.898	25.53
605.317	25.46
605.736	25.39
606.155	25.32
606.574	25.24
606.992	25.16
607.411	25.09
607.829	24.97
608.248	24.9
608.666	24.81
609.085	24.74
609.503	24.7
609.921	24.62
610.339	24.54
610.758	24.45
611.176	24.34
611.594	24.26
612.012	24.17
612.43	24.1
612.847	24
613.265	23.91
613.683	23.81
614.101	23.7
614.518	23.59
614.936	23.5
615.353	23.4
615.771	23.34
616.188	23.26
616.606	23.17
617.023	23.09
617.44	23.03
617.857	22.96
618.274	22.89
618.691	22.82
619.108	22.76
619.525	22.71
619.942	22.65
620.359	22.59
620.776	22.53
621.192	22.49
621.609	22.46
622.026	22.41
622.442	22.37
622.859	22.34
623.275	22.3
623.691	22.29
624.108	22.27
624.524	22.25
624.94	22.24
625.356	22.24
625.772	22.21
626.188	22.19
626.604	22.18
627.02	22.16
627.436	22.15
627.852	22.16
628.268	22.14
628.683	22.11
629.099	22.09
629.514	22.06
629.93	22.02
630.345	22
630.761	21.94
631.176	21.9
631.591	21.85
632.007	21.8
632.422	21.72
632.837	21.65
633.252	21.58
633.667	21.48
634.082	21.38
634.497	21.28
634.911	21.16
635.326	21.05
635.741	20.93
636.155	20.79
636.57	20.65
636.984	20.5
637.399	20.33
637.813	20.18
638.228	20.01
638.642	19.84
639.056	19.67
639.47	19.49
639.884	19.3
640.298	19.1
640.712	18.9
641.126	18.71
641.54	18.5
641.954	18.3
642.368	18.11
642.781	17.93
643.195	17.73
643.609	17.53
644.022	17.35
644.436	17.16
644.849	16.99
645.262	16.83
645.676	16.66
646.089	16.51
646.502	16.37
646.915	16.23
647.328	16.09
647.741	15.96
648.154	15.86
648.567	15.76
648.98	15.66
649.393	15.56
649.805	15.47
650.218	15.39
650.631	15.31
651.043	15.22
651.456	15.15
651.868	15.06
652.28	14.99
652.693	14.9
653.105	14.82
653.517	14.73
653.929	14.63
654.341	14.52
654.753	14.39
655.165	14.26
655.577	14.14
655.989	13.99
656.401	13.84
656.813	13.68
657.224	13.51
657.636	13.31
658.047	13.14
658.459	12.94
658.87	12.75
659.282	12.55
659.693	12.35
660.104	12.14
660.515	11.93
660.926	11.71
661.338	11.5
661.749	11.28
662.159	11.07
662.57	10.87
662.981	10.67
663.392	10.47
663.803	10.29
664.213	10.1
664.624	9.92
665.035	9.75
665.445	9.6
665.855	9.43
666.266	9.3
666.676	9.16
667.086	9.01
667.497	8.89
667.907	8.76
668.317	8.65
668.727	8.55
669.137	8.46
669.547	8.37
669.956	8.28
670.366	8.21
670.776	8.14
671.186	8.09
671.595	8.04
672.005	8.01
672.414	7.98
672.824	7.95
673.233	7.93
673.642	7.92
674.052	7.91
674.461	7.91
674.87	7.9
675.279	7.91
675.688	7.93
676.097	7.96
676.506	7.99
676.915	8.04
677.323	8.11
677.732	8.17
678.141	8.25
678.549	8.34
678.958	8.46
679.366	8.61
679.775	8.76
680.183	8.94
680.592	9.14
681	9.37
681.408	9.62
681.816	9.9
682.224	10.21
682.632	10.56
683.04	10.93
683.448	11.32
683.856	11.74
684.264	12.2
684.671	12.7
685.079	13.21
685.487	13.76
685.894	14.34
686.302	14.93
686.709	15.54
687.116	16.15
687.524	16.81
687.931	17.47
688.338	18.15
688.745	18.83
689.152	19.51
689.559	20.22
689.966	20.91
690.373	21.6
690.78	22.31
691.187	23.02
691.593	23.72
692	24.38
692.407	25.04
692.813	25.7
693.22	26.33
693.626	26.96
694.032	27.56
694.439	28.15
694.845	28.74
695.251	29.28
695.657	29.79
696.063	30.3
696.469	30.83
696.875	31.34
697.281	31.81
697.687	32.27
698.093	32.72
698.498	33.15
698.904	33.55
699.31	33.94
699.715	34.34
700.12	34.72
700.526	35.08
700.931	35.42
701.337	35.76
701.742	36.08
702.147	36.39
702.552	36.7
702.957	36.96
703.362	37.24
703.767	37.5
704.172	37.73
704.577	37.98
704.981	38.23
705.386	38.46
705.791	38.69
706.195	38.9
706.6	39.13
707.004	39.32
707.408	39.53
707.813	39.76
708.217	39.96
708.621	40.16
709.025	40.33
709.43	40.49
709.834	40.67
710.237	40.84
710.641	41.02
711.045	41.19
711.449	41.36
711.853	41.52
712.256	41.64
712.66	41.8
713.064	41.95
713.467	42.12
713.87	42.26
714.274	42.38
714.677	42.51
715.08	42.62
715.484	42.74
715.887	42.89
716.29	43
716.693	43.15
717.096	43.24
717.499	43.38
717.901	43.47
718.304	43.59
718.707	43.72
719.109	43.81
719.512	43.92
719.915	44.01
720.317	44.07
720.719	44.14
721.122	44.23
721.524	44.31
721.926	44.38
722.328	44.45
722.731	44.51
723.133	44.58
723.535	44.65
723.937	44.71
724.338	44.78
724.74	44.85
725.142	45.01
725.544	45.05
725.945	45.13
726.347	45.17
726.748	45.24
727.15	45.27
727.551	45.34
727.952	45.35
728.354	45.4
728.755	45.42
729.156	45.45
729.557	45.38
729.958	45.44
730.359	45.46
730.76	45.49
731.161	45.51
731.562	45.56
731.962	45.55
732.363	45.62
732.763	45.64
733.164	45.67
733.564	45.7
733.965	45.71
734.365	45.74
734.766	45.76
735.166	45.78
735.566	45.8
735.966	45.84
736.366	45.86
736.766	45.87
737.166	45.89
737.566	45.92
737.966	45.93
738.365	45.98
738.765	46
739.165	46.01
739.564	46.04
739.964	46.06
740.363	46.05
740.763	46.09
741.162	46.11
741.561	46.09
741.96	46.09
742.36	46.13
742.759	46.12
743.158	46.1
743.557	46.1
743.955	46.1
744.354	46.11
744.753	46.13
745.152	46.12
745.55	46.14
745.949	46.16
746.348	46.18
746.746	46.14
747.144	46.16
747.543	46.17
747.941	46.19
748.339	46.16
748.737	46.13
749.136	46.12
749.534	46.11
749.932	46.1
750.33	46.11
750.727	46.11
751.125	46.15
751.523	46.15
751.921	46.16
752.318	46.16
752.716	46.19
753.113	46.23
753.511	46.24
753.908	46.27
754.305	46.26
754.703	46.25
755.1	46.25
755.497	46.23
755.894	46.23
756.291	46.21
756.688	46.2
757.085	46.2
757.482	46.2
757.878	46.2
758.275	46.18
758.672	46.19
759.068	46.23
759.465	46.24
759.861	46.25
760.258	46.24
760.654	46.28
761.05	46.29
761.447	46.3
761.843	46.29
762.239	46.29
762.635	46.29
763.031	46.31
763.427	46.27
763.822	46.3
764.218	46.31
764.614	46.3
765.01	46.27
765.405	46.26
765.801	46.22
766.196	46.21
766.592	46.19
766.987	46.22
767.382	46.19
767.778	46.18
768.173	46.15
768.568	46.13
768.963	46.14
769.358	46.16
769.753	46.17
770.148	46.21
770.542	46.2
770.937	46.21
771.332	46.2
771.726	46.2
772.121	46.23
772.515	46.22
772.91	46.21
773.304	46.23
773.699	46.2
774.093	46.19
774.487	46.17
774.881	46.19
775.275	46.2
775.669	46.19
776.063	46.18
776.457	46.18
776.851	46.17
777.245	46.14
777.638	46.12
778.032	46.13
778.425	46.13
778.819	46.13
779.212	46.13
779.606	46.12
779.999	46.11
780.392	46.16
780.786	46.16
