Data from N_2_DEC_VA_2N_Splice17_13-07-25-057.txt Node
Date: Sat Mar 07 13:07:25 EST 2020
User: sa697716
Spectrometer: NQ5500242
Trigger mode: 0
Integration Time (sec): 1.450000E-1
Scans to average: 20
Nonlinearity correction enabled: false
Boxcar width: 5
Storing dark spectrum: false
XAxis mode: Wavelengths
Number of Pixels in Spectrum: 512
>>>>>Begin Spectral Data<<<<<
187.83	228.72
188.298	230.62
188.766	225.77
189.233	192.81
189.701	196.41
190.169	220.84
190.636	241.65
191.104	334.97
191.571	221.45
192.039	3.6
192.506	-351.06
192.974	140.35
193.441	132.24
193.908	98.56
194.375	117.6
194.842	40.97
195.31	-4.85
195.777	-129
196.244	21.97
196.711	32.58
197.177	36.83
197.644	36.57
198.111	37.12
198.578	37.37
199.045	38.17
199.511	38.17
199.978	38.39
200.445	39.19
200.911	39.35
201.378	39.59
201.844	39.79
202.31	39.16
202.777	39.33
203.243	39.27
203.709	39.26
204.176	38.74
204.642	38.4
205.108	38.29
205.574	37.77
206.04	37.14
206.506	36.79
206.972	36.79
207.438	36.7
207.903	36.03
208.369	35.29
208.835	34.69
209.301	33.97
209.766	32.94
210.232	32.12
210.697	31.2
211.163	30.55
211.628	29.81
212.094	28.83
212.559	28.5
213.024	27.71
213.49	27.19
213.955	26.3
214.42	25.68
214.885	25.16
215.35	24.21
215.815	23.2
216.28	21.61
216.745	19.87
217.21	18.2
217.675	16.56
218.14	15.36
218.604	14.16
219.069	13.22
219.534	12.45
219.998	11.76
220.463	11.22
220.927	10.67
221.392	10.3
221.856	9.97
222.32	9.7
222.785	9.45
223.249	9.21
223.713	9.01
224.177	8.83
224.642	8.68
225.106	8.51
225.57	8.33
226.034	8.19
226.497	8.05
226.961	7.92
227.425	7.79
227.889	7.66
228.353	7.54
228.816	7.42
229.28	7.3
229.744	7.18
230.207	7.06
230.671	6.96
231.134	6.86
231.597	6.78
232.061	6.68
232.524	6.6
232.987	6.52
233.45	6.46
233.914	6.36
234.377	6.28
234.84	6.19
235.303	6.16
235.766	6.11
236.229	6.04
236.691	5.97
237.154	5.92
237.617	5.86
238.08	5.81
238.542	5.74
239.005	5.7
239.468	5.66
239.93	5.61
240.393	5.55
240.855	5.47
241.317	5.42
241.78	5.37
242.242	5.32
242.704	5.26
243.166	5.21
243.629	5.18
244.091	5.13
244.553	5.08
245.015	5.02
245.477	4.97
245.939	4.93
246.4	4.89
246.862	4.85
247.324	4.8
247.786	4.76
248.247	4.71
248.709	4.66
249.17	4.61
249.632	4.59
250.093	4.57
250.555	4.53
251.016	4.5
251.477	4.46
251.939	4.43
252.4	4.41
252.861	4.38
253.322	4.36
253.783	4.34
254.244	4.32
254.705	4.28
255.166	4.24
255.627	4.22
256.088	4.19
256.549	4.17
257.009	4.14
257.47	4.11
257.931	4.07
258.391	4.03
258.852	4
259.312	3.97
259.773	3.94
260.233	3.93
260.694	3.91
261.154	3.88
261.614	3.86
262.074	3.83
262.534	3.82
262.994	3.8
263.455	3.78
263.915	3.77
264.374	3.75
264.834	3.73
265.294	3.72
265.754	3.7
266.214	3.69
266.673	3.68
267.133	3.67
267.593	3.66
268.052	3.65
268.512	3.64
268.971	3.64
269.431	3.63
269.89	3.62
270.349	3.62
270.809	3.6
271.268	3.6
271.727	3.59
272.186	3.59
272.645	3.58
273.104	3.57
273.563	3.56
274.022	3.56
274.481	3.56
274.94	3.55
275.399	3.54
275.857	3.54
276.316	3.53
276.775	3.52
277.233	3.51
277.692	3.51
278.15	3.5
278.609	3.5
279.067	3.49
279.525	3.48
279.984	3.48
280.442	3.47
280.9	3.47
281.358	3.46
281.816	3.46
282.274	3.45
282.732	3.44
283.19	3.43
283.648	3.42
284.106	3.41
284.564	3.4
285.021	3.39
285.479	3.39
285.937	3.38
286.394	3.38
286.852	3.36
287.309	3.35
287.767	3.34
288.224	3.33
288.682	3.31
289.139	3.3
289.596	3.29
290.053	3.27
290.511	3.25
290.968	3.24
291.425	3.22
291.882	3.21
292.339	3.2
292.796	3.2
293.252	3.19
293.709	3.19
294.166	3.18
294.623	3.17
295.079	3.17
295.536	3.17
295.992	3.16
296.449	3.15
296.905	3.15
297.362	3.14
297.818	3.13
298.274	3.12
298.731	3.11
299.187	3.1
299.643	3.09
300.099	3.08
300.555	3.07
301.011	3.06
301.467	3.06
301.923	3.05
302.379	3.04
302.835	3.05
303.291	3.05
303.746	3.04
304.202	3.04
304.658	3.04
305.113	3.03
305.569	3.03
306.024	3.03
306.479	3.02
306.935	3.02
307.39	3.02
307.845	3.02
308.301	3.02
308.756	3.02
309.211	3.02
309.666	3.03
310.121	3.03
310.576	3.03
311.031	3.02
311.486	3.03
311.94	3.03
312.395	3.03
312.85	3.03
313.305	3.02
313.759	3.03
314.214	3.02
314.668	3.01
315.123	3.01
315.577	3
316.032	2.99
316.486	2.98
316.94	2.97
317.394	2.95
317.849	2.94
318.303	2.94
318.757	2.92
319.211	2.91
319.665	2.89
320.119	2.88
320.572	2.87
321.026	2.87
321.48	2.86
321.934	2.85
322.387	2.85
322.841	2.84
323.295	2.85
323.748	2.85
324.202	2.85
324.655	2.85
325.108	2.85
325.562	2.86
326.015	2.86
326.468	2.85
326.921	2.85
327.374	2.85
327.827	2.85
328.28	2.85
328.733	2.85
329.186	2.85
329.639	2.85
330.092	2.85
330.545	2.84
330.997	2.84
331.45	2.84
331.903	2.85
332.355	2.85
332.808	2.85
333.26	2.84
333.713	2.84
334.165	2.84
334.617	2.84
335.069	2.83
335.522	2.82
335.974	2.82
336.426	2.82
336.878	2.81
337.33	2.81
337.782	2.8
338.234	2.81
338.686	2.81
339.137	2.81
339.589	2.81
340.041	2.81
340.493	2.81
340.944	2.8
341.396	2.8
341.847	2.79
342.299	2.78
342.75	2.77
343.201	2.75
343.653	2.74
344.104	2.73
344.555	2.71
345.006	2.7
345.457	2.69
345.908	2.69
346.359	2.68
346.81	2.68
347.261	2.67
347.712	2.67
348.163	2.67
348.613	2.68
349.064	2.68
349.515	2.68
349.965	2.69
350.416	2.68
350.866	2.68
351.317	2.67
351.767	2.67
352.217	2.68
352.668	2.68
353.118	2.67
353.568	2.66
354.018	2.67
354.468	2.67
354.918	2.67
355.368	2.67
355.818	2.66
356.268	2.67
356.718	2.67
357.168	2.66
357.617	2.65
358.067	2.65
358.517	2.66
358.966	2.67
359.416	2.67
359.865	2.67
360.315	2.67
360.764	2.68
361.213	2.68
361.663	2.68
362.112	2.69
362.561	2.7
363.01	2.7
363.459	2.68
363.908	2.67
364.357	2.68
364.806	2.68
365.255	2.67
365.703	2.67
366.152	2.68
366.601	2.68
367.05	2.69
367.498	2.68
367.947	2.69
368.395	2.71
368.844	2.71
369.292	2.71
369.74	2.72
370.189	2.73
370.637	2.74
371.085	2.74
371.533	2.74
371.981	2.75
372.429	2.77
372.877	2.78
373.325	2.79
373.773	2.81
374.221	2.83
374.669	2.84
375.116	2.86
375.564	2.88
376.012	2.91
376.459	2.95
376.907	2.98
377.354	3.01
377.801	3.05
378.249	3.09
378.696	3.13
379.143	3.17
379.591	3.22
380.038	3.26
380.485	3.32
380.932	3.37
381.379	3.42
381.826	3.49
382.273	3.54
382.72	3.59
383.166	3.65
383.613	3.71
384.06	3.77
384.506	3.85
384.953	3.93
385.4	3.99
385.846	4.07
386.292	4.14
386.739	4.2
387.185	4.27
387.631	4.35
388.078	4.43
388.524	4.51
388.97	4.59
389.416	4.66
389.862	4.74
390.308	4.82
390.754	4.89
391.2	4.97
391.645	5.05
392.091	5.13
392.537	5.21
392.983	5.28
393.428	5.36
393.874	5.43
394.319	5.5
394.765	5.56
395.21	5.61
395.655	5.67
396.101	5.72
396.546	5.76
396.991	5.8
397.436	5.84
397.881	5.89
398.326	5.94
398.771	5.98
399.216	6.02
399.661	6.05
400.106	6.09
400.551	6.11
400.995	6.12
401.44	6.14
401.885	6.15
402.329	6.16
402.774	6.16
403.218	6.17
403.663	6.19
404.107	6.19
404.551	6.18
404.995	6.18
405.44	6.16
405.884	6.14
406.328	6.14
406.772	6.11
407.216	6.11
407.66	6.08
408.104	6.05
408.547	6.01
408.991	5.98
409.435	5.95
409.879	5.93
410.322	5.92
410.766	5.92
411.209	5.92
411.653	5.93
412.096	5.92
412.54	5.91
412.983	5.91
413.426	5.92
413.869	5.92
414.312	5.93
414.756	5.93
415.199	5.92
415.642	5.9
416.085	5.88
416.527	5.85
416.97	5.81
417.413	5.79
417.856	5.77
418.298	5.74
418.741	5.73
419.184	5.7
419.626	5.68
420.069	5.67
420.511	5.66
420.953	5.65
421.396	5.64
421.838	5.63
422.28	5.63
422.722	5.63
423.164	5.61
423.606	5.59
424.048	5.56
424.49	5.54
424.932	5.52
425.374	5.46
425.816	5.4
426.258	5.37
426.699	5.35
427.141	5.31
427.582	5.29
428.024	5.28
428.465	5.26
428.907	5.23
429.348	5.2
429.789	5.17
430.231	5.19
430.672	5.21
431.113	5.2
431.554	5.2
431.995	5.19
432.436	5.18
432.877	5.17
433.318	5.18
433.759	5.2
434.2	5.21
434.64	5.23
435.081	5.23
435.522	5.23
435.962	5.25
436.403	5.28
436.843	5.31
437.284	5.32
437.724	5.35
438.164	5.36
438.604	5.39
439.045	5.41
439.485	5.45
439.925	5.48
440.365	5.52
440.805	5.55
441.245	5.61
441.685	5.64
442.125	5.72
442.564	5.76
443.004	5.83
443.444	5.89
443.883	5.97
444.323	6.04
444.762	6.11
445.202	6.18
445.641	6.26
446.081	6.32
446.52	6.4
446.959	6.48
447.398	6.55
447.837	6.61
448.276	6.68
448.716	6.75
449.154	6.83
449.593	6.9
450.032	6.95
450.471	7.01
450.91	7.06
451.349	7.12
451.787	7.16
452.226	7.22
452.664	7.28
453.103	7.31
453.541	7.35
453.98	7.38
454.418	7.41
454.856	7.43
455.295	7.45
455.733	7.44
456.171	7.45
456.609	7.47
457.047	7.46
457.485	7.46
457.923	7.48
458.361	7.48
458.798	7.48
459.236	7.48
459.674	7.49
460.111	7.49
460.549	7.51
460.987	7.52
461.424	7.53
461.862	7.54
462.299	7.55
462.736	7.55
463.173	7.54
463.611	7.54
464.048	7.56
464.485	7.57
464.922	7.57
465.359	7.58
465.796	7.59
466.233	7.6
466.67	7.61
467.106	7.62
467.543	7.61
467.98	7.61
468.416	7.62
468.853	7.61
469.29	7.6
469.726	7.6
470.162	7.59
470.599	7.58
471.035	7.58
471.471	7.57
471.907	7.57
472.344	7.6
472.78	7.61
473.216	7.61
473.652	7.62
474.088	7.62
474.523	7.65
474.959	7.67
475.395	7.67
475.831	7.69
476.266	7.7
476.702	7.71
477.138	7.72
477.573	7.72
478.008	7.75
478.444	7.76
478.879	7.77
479.314	7.78
479.75	7.79
480.185	7.79
480.62	7.8
481.055	7.81
481.49	7.82
481.925	7.84
482.36	7.87
482.795	7.89
483.229	7.92
483.664	7.95
484.099	7.99
484.534	8.03
484.968	8.09
485.403	8.16
485.837	8.22
486.271	8.29
486.706	8.36
487.14	8.44
487.574	8.51
488.009	8.6
488.443	8.69
488.877	8.79
489.311	8.9
489.745	9
490.179	9.11
490.613	9.22
491.046	9.34
491.48	9.47
491.914	9.6
492.348	9.75
492.781	9.9
493.215	10.05
493.648	10.21
494.082	10.37
494.515	10.53
494.948	10.7
495.382	10.88
495.815	11.08
496.248	11.27
496.681	11.46
497.114	11.67
497.547	11.88
497.98	12.09
498.413	12.3
498.846	12.54
499.279	12.77
499.711	13.01
500.144	13.26
500.577	13.52
501.009	13.76
501.442	14.04
501.874	14.32
502.306	14.6
502.739	14.91
503.171	15.22
503.603	15.51
504.036	15.83
504.468	16.14
504.9	16.44
505.332	16.75
505.764	17.09
506.196	17.41
506.627	17.76
507.059	18.09
507.491	18.42
507.923	18.77
508.354	19.14
508.786	19.5
509.217	19.87
509.649	20.26
510.08	20.63
510.512	21
510.943	21.36
511.374	21.73
511.805	22.11
512.237	22.47
512.668	22.83
513.099	23.17
513.53	23.52
513.961	23.87
514.391	24.22
514.822	24.58
515.253	24.92
515.684	25.26
516.114	25.6
516.545	25.92
516.975	26.24
517.406	26.57
517.836	26.89
518.267	27.21
518.697	27.51
519.127	27.79
519.558	28.08
519.988	28.38
520.418	28.65
520.848	28.92
521.278	29.19
521.708	29.53
522.138	29.77
522.567	30.01
522.997	30.24
523.427	30.48
523.857	30.71
524.286	30.91
524.716	31.1
525.145	31.31
525.575	31.49
526.004	31.69
526.433	31.78
526.863	31.96
527.292	32.13
527.721	32.28
528.15	32.39
528.579	32.53
529.008	32.67
529.437	32.79
529.866	32.91
530.295	33.01
530.724	33.11
531.152	33.23
531.581	33.33
532.01	33.42
532.438	33.52
532.867	33.62
533.295	33.72
533.723	33.8
534.152	33.87
534.58	33.94
535.008	33.99
535.436	34.05
535.865	34.1
536.293	34.14
536.721	34.2
537.149	34.24
537.576	34.28
538.004	34.33
538.432	34.36
538.86	34.39
539.287	34.42
539.715	34.48
540.143	34.5
540.57	34.53
540.998	34.55
541.425	34.56
541.852	34.58
542.28	34.6
542.707	34.61
543.134	34.65
543.561	34.68
543.988	34.69
544.415	34.69
544.842	34.73
545.269	34.75
545.696	34.76
546.123	34.78
546.549	34.79
546.976	34.81
547.403	34.82
547.829	34.82
548.256	34.82
548.682	34.82
549.108	34.83
549.535	34.84
549.961	34.83
550.387	34.84
550.813	34.84
551.24	34.82
551.666	34.81
552.092	34.81
552.518	34.8
552.943	34.77
553.369	34.76
553.795	34.74
554.221	34.71
554.646	34.7
555.072	34.68
555.498	34.65
555.923	34.63
556.349	34.59
556.774	34.52
557.199	34.47
557.625	34.42
558.05	34.37
558.475	34.31
558.9	34.25
559.325	34.2
559.75	34.12
560.175	34.06
560.6	33.97
561.025	33.91
561.449	33.84
561.874	33.76
562.299	33.68
562.723	33.59
563.148	33.49
563.572	33.37
563.997	33.26
564.421	33.16
564.846	33.06
565.27	32.95
565.694	32.86
566.118	32.74
566.542	32.63
566.966	32.52
567.39	32.42
567.814	32.31
568.238	32.2
568.662	32.11
569.086	31.97
569.509	31.87
569.933	31.77
570.357	31.64
570.78	31.53
571.204	31.41
571.627	31.3
572.05	31.17
572.474	31.07
572.897	30.98
573.32	30.85
573.743	30.75
574.166	30.63
574.589	30.52
575.012	30.41
575.435	30.29
575.858	30.21
576.281	30.1
576.704	30.01
577.126	29.89
577.549	29.78
577.972	29.68
578.394	29.56
578.817	29.47
579.239	29.36
579.661	29.26
580.084	29.18
580.506	29.08
580.928	28.99
581.35	28.91
581.772	28.81
582.194	28.74
582.616	28.67
583.038	28.61
583.46	28.52
583.882	28.47
584.303	28.39
584.725	28.31
585.147	28.25
585.568	28.19
585.99	28.13
586.411	28.06
586.833	27.99
587.254	27.92
587.675	27.86
588.096	27.8
588.518	27.75
588.939	27.71
589.36	27.64
589.781	27.58
590.202	27.54
590.623	27.48
591.043	27.42
591.464	27.38
591.885	27.33
592.305	27.31
592.726	27.28
593.147	27.22
593.567	27.18
593.987	27.14
594.408	27.1
594.828	27.07
595.248	27.04
595.669	27.02
596.089	26.97
596.509	26.94
596.929	26.9
597.349	26.85
597.769	26.81
598.189	26.76
598.608	26.73
599.028	26.7
599.448	26.64
599.867	26.59
600.287	26.55
600.706	26.52
601.126	26.46
601.545	26.42
601.965	26.39
602.384	26.34
602.803	26.29
603.222	26.23
603.641	26.16
604.061	26.11
604.48	26.04
604.898	25.96
605.317	25.89
605.736	25.83
606.155	25.74
606.574	25.63
606.992	25.55
607.411	25.47
607.829	25.35
608.248	25.25
608.666	25.17
609.085	25.09
609.503	25.01
609.921	24.92
610.339	24.83
610.758	24.75
611.176	24.68
611.594	24.6
612.012	24.51
612.43	24.46
612.847	24.38
613.265	24.29
613.683	24.18
614.101	24.09
614.518	23.98
614.936	23.89
615.353	23.79
615.771	23.71
616.188	23.62
616.606	23.53
617.023	23.46
617.44	23.39
617.857	23.32
618.274	23.25
618.691	23.18
619.108	23.13
619.525	23.07
619.942	23.02
620.359	22.96
620.776	22.91
621.192	22.88
621.609	22.84
622.026	22.78
622.442	22.75
622.859	22.72
623.275	22.7
623.691	22.67
624.108	22.64
624.524	22.61
624.94	22.6
625.356	22.57
625.772	22.54
626.188	22.53
626.604	22.52
627.02	22.5
627.436	22.47
627.852	22.46
628.268	22.45
628.683	22.43
629.099	22.42
629.514	22.41
629.93	22.39
630.345	22.35
630.761	22.3
631.176	22.25
631.591	22.19
632.007	22.14
632.422	22.08
632.837	21.99
633.252	21.89
633.667	21.8
634.082	21.68
634.497	21.59
634.911	21.48
635.326	21.36
635.741	21.24
636.155	21.11
636.57	20.96
636.984	20.8
637.399	20.64
637.813	20.5
638.228	20.31
638.642	20.15
639.056	19.95
639.47	19.77
639.884	19.59
640.298	19.39
640.712	19.2
641.126	19.01
641.54	18.81
641.954	18.61
642.368	18.4
642.781	18.21
643.195	18.02
643.609	17.82
644.022	17.63
644.436	17.44
644.849	17.26
645.262	17.08
645.676	16.91
646.089	16.75
646.502	16.6
646.915	16.47
647.328	16.34
647.741	16.21
648.154	16.1
648.567	16
648.98	15.9
649.393	15.8
649.805	15.72
650.218	15.62
650.631	15.54
651.043	15.45
651.456	15.36
651.868	15.26
652.28	15.19
652.693	15.11
653.105	15.03
653.517	14.92
653.929	14.82
654.341	14.71
654.753	14.58
655.165	14.44
655.577	14.32
655.989	14.17
656.401	14.03
656.813	13.87
657.224	13.68
657.636	13.48
658.047	13.32
658.459	13.12
658.87	12.91
659.282	12.72
659.693	12.53
660.104	12.32
660.515	12.11
660.926	11.9
661.338	11.68
661.749	11.48
662.159	11.27
662.57	11.06
662.981	10.86
663.392	10.66
663.803	10.47
664.213	10.28
664.624	10.1
665.035	9.91
665.445	9.74
665.855	9.58
666.266	9.42
666.676	9.29
667.086	9.15
667.497	9.02
667.907	8.89
668.317	8.78
668.727	8.68
669.137	8.59
669.547	8.51
669.956	8.43
670.366	8.36
670.776	8.3
671.186	8.24
671.595	8.19
672.005	8.14
672.414	8.12
672.824	8.09
673.233	8.06
673.642	8.05
674.052	8.04
674.461	8.04
674.87	8.05
675.279	8.06
675.688	8.09
676.097	8.12
676.506	8.16
676.915	8.21
677.323	8.26
677.732	8.34
678.141	8.42
678.549	8.52
678.958	8.65
679.366	8.78
679.775	8.93
680.183	9.11
680.592	9.32
681	9.54
681.408	9.8
681.816	10.09
682.224	10.4
682.632	10.74
683.04	11.11
683.448	11.51
683.856	11.93
684.264	12.39
684.671	12.87
685.079	13.38
685.487	13.94
685.894	14.51
686.302	15.12
686.709	15.73
687.116	16.37
687.524	17.03
687.931	17.7
688.338	18.41
688.745	19.11
689.152	19.8
689.559	20.52
689.966	21.24
690.373	21.94
690.78	22.65
691.187	23.36
691.593	24.05
692	24.74
692.407	25.39
692.813	26.05
693.22	26.68
693.626	27.32
694.032	27.95
694.439	28.54
694.845	29.13
695.251	29.69
695.657	30.22
696.063	30.76
696.469	31.28
696.875	31.79
697.281	32.27
697.687	32.74
698.093	33.19
698.498	33.6
698.904	34.03
699.31	34.42
699.715	34.82
700.12	35.2
700.526	35.56
700.931	35.92
701.337	36.26
701.742	36.57
702.147	36.89
702.552	37.19
702.957	37.5
703.362	37.77
703.767	38.05
704.172	38.31
704.577	38.57
704.981	38.82
705.386	39.04
705.791	39.28
706.195	39.52
706.6	39.75
707.004	39.97
707.408	40.19
707.813	40.42
708.217	40.61
708.621	40.8
709.025	41
709.43	41.17
709.834	41.35
710.237	41.52
710.641	41.69
711.045	41.87
711.449	42.04
711.853	42.21
712.256	42.35
712.66	42.48
713.064	42.62
713.467	42.76
713.87	42.92
714.274	43.05
714.677	43.2
715.08	43.31
715.484	43.43
715.887	43.57
716.29	43.64
716.693	43.78
717.096	43.9
717.499	44.03
717.901	44.15
718.304	44.27
718.707	44.37
719.109	44.47
719.512	44.59
719.915	44.69
720.317	44.75
720.719	44.83
721.122	44.88
721.524	44.97
721.926	45.04
722.328	45.12
722.731	45.19
723.133	45.26
723.535	45.31
723.937	45.37
724.338	45.44
724.74	45.51
725.142	45.72
725.544	45.8
725.945	45.88
726.347	45.9
726.748	45.95
727.15	45.96
727.551	46.02
727.952	46.07
728.354	46.13
728.755	46.15
729.156	46.16
729.557	46.06
729.958	46.06
730.359	46.06
730.76	46.11
731.161	46.13
731.562	46.22
731.962	46.21
732.363	46.26
732.763	46.26
733.164	46.3
733.564	46.35
733.965	46.38
734.365	46.44
734.766	46.45
735.166	46.49
735.566	46.53
735.966	46.53
736.366	46.58
736.766	46.57
737.166	46.62
737.566	46.63
737.966	46.66
738.365	46.68
738.765	46.72
739.165	46.75
739.564	46.75
739.964	46.75
740.363	46.76
740.763	46.77
741.162	46.8
741.561	46.78
741.96	46.81
742.36	46.82
742.759	46.82
743.158	46.8
743.557	46.8
743.955	46.8
744.354	46.81
744.753	46.85
745.152	46.87
745.55	46.88
745.949	46.92
746.348	46.93
746.746	46.94
747.144	46.95
747.543	46.94
747.941	46.95
748.339	46.95
748.737	46.95
749.136	46.91
749.534	46.86
749.932	46.85
750.33	46.81
750.727	46.8
751.125	46.78
751.523	46.77
751.921	46.79
752.318	46.79
752.716	46.8
753.113	46.81
753.511	46.84
753.908	46.89
754.305	46.91
754.703	46.92
755.1	46.93
755.497	46.94
755.894	46.93
756.291	46.94
756.688	46.92
757.085	46.91
757.482	46.9
757.878	46.91
758.275	46.89
758.672	46.88
759.068	46.9
759.465	46.89
759.861	46.91
760.258	46.91
760.654	46.92
761.05	46.95
761.447	46.96
761.843	46.96
762.239	46.95
762.635	46.94
763.031	46.95
763.427	46.91
763.822	46.92
764.218	46.93
764.614	46.93
765.01	46.91
765.405	46.9
765.801	46.86
766.196	46.86
766.592	46.85
766.987	46.84
767.382	46.82
767.778	46.83
768.173	46.83
768.568	46.8
768.963	46.81
769.358	46.83
769.753	46.81
770.148	46.83
770.542	46.82
770.937	46.82
771.332	46.81
771.726	46.82
772.121	46.81
772.515	46.81
772.91	46.82
773.304	46.82
773.699	46.81
774.093	46.8
774.487	46.8
774.881	46.85
775.275	46.84
775.669	46.83
776.063	46.84
776.457	46.84
776.851	46.82
777.245	46.8
777.638	46.79
778.032	46.79
778.425	46.82
778.819	46.82
779.212	46.8
