Data from N_2_DEC_CT_2N_Splice17_13-31-26-901.txt Node
Date: Sat Mar 07 13:31:26 EST 2020
User: sa697716
Spectrometer: NQ5500242
Trigger mode: 0
Integration Time (sec): 1.450000E-1
Scans to average: 20
Nonlinearity correction enabled: false
Boxcar width: 5
Storing dark spectrum: false
XAxis mode: Wavelengths
Number of Pixels in Spectrum: 512
>>>>>Begin Spectral Data<<<<<
187.83	173.09
188.298	199.02
188.766	169.85
189.233	141.09
189.701	150.31
190.169	177.42
190.636	169.4
191.104	253.89
191.571	182.05
192.039	92.34
192.506	-697.62
192.974	142.93
193.441	179.97
193.908	75.11
194.375	44.64
194.842	5.12
195.31	54.32
195.777	-149.97
196.244	46.6
196.711	59.92
197.177	64.64
197.644	65.67
198.111	66.33
198.578	67.37
199.045	68.11
199.511	68.08
199.978	67.94
200.445	68.33
200.911	68.28
201.378	68.71
201.844	68.94
202.31	68.67
202.777	68.47
203.243	68.21
203.709	67.91
204.176	67.09
204.642	66.89
205.108	67.21
205.574	66.59
206.04	66.22
206.506	65.62
206.972	65.69
207.438	65.02
207.903	64.41
208.369	63.71
208.835	63.04
209.301	62.28
209.766	61.42
210.232	60.26
210.697	59.29
211.163	58.56
211.628	57.99
212.094	56.83
212.559	56.58
213.024	55.75
213.49	54.84
213.955	53.86
214.42	53.19
214.885	52.3
215.35	51.24
215.815	49.86
216.28	47.98
216.745	45.84
217.21	43.98
217.675	42.18
218.14	40.74
218.604	39.72
219.069	38.79
219.534	38
219.998	37.27
220.463	36.7
220.927	36.14
221.392	35.74
221.856	35.38
222.32	35.06
222.785	34.8
223.249	34.53
223.713	34.18
224.177	33.92
224.642	33.62
225.106	33.34
225.57	33.02
226.034	32.76
226.497	32.49
226.961	32.25
227.425	32.01
227.889	31.73
228.353	31.47
228.816	31.22
229.28	30.95
229.744	30.72
230.207	30.46
230.671	30.24
231.134	30
231.597	29.78
232.061	29.52
232.524	29.29
232.987	29.05
233.45	28.84
233.914	28.65
234.377	28.41
234.84	28.18
235.303	27.96
235.766	27.78
236.229	27.57
236.691	27.37
237.154	27.2
237.617	27.04
238.08	26.85
238.542	26.65
239.005	26.45
239.468	26.27
239.93	26.11
240.393	25.94
240.855	25.74
241.317	25.57
241.78	25.39
242.242	25.21
242.704	25.04
243.166	24.88
243.629	24.73
244.091	24.59
244.553	24.43
245.015	24.26
245.477	24.1
245.939	23.95
246.4	23.81
246.862	23.65
247.324	23.51
247.786	23.35
248.247	23.21
248.709	23.04
249.17	22.88
249.632	22.76
250.093	22.63
250.555	22.53
251.016	22.42
251.477	22.29
251.939	22.19
252.4	22.09
252.861	21.99
253.322	21.89
253.783	21.81
254.244	21.74
254.705	21.64
255.166	21.55
255.627	21.46
256.088	21.37
256.549	21.29
257.009	21.19
257.47	21.09
257.931	21
258.391	20.91
258.852	20.82
259.312	20.73
259.773	20.66
260.233	20.6
260.694	20.52
261.154	20.45
261.614	20.37
262.074	20.32
262.534	20.28
262.994	20.25
263.455	20.21
263.915	20.18
264.374	20.15
264.834	20.12
265.294	20.09
265.754	20.08
266.214	20.08
266.673	20.08
267.133	20.06
267.593	20.05
268.052	20.04
268.512	20.04
268.971	20.03
269.431	20.02
269.89	20.02
270.349	20.02
270.809	20.01
271.268	19.99
271.727	19.97
272.186	19.97
272.645	19.97
273.104	19.94
273.563	19.92
274.022	19.9
274.481	19.88
274.94	19.86
275.399	19.83
275.857	19.81
276.316	19.79
276.775	19.76
277.233	19.73
277.692	19.7
278.15	19.67
278.609	19.65
279.067	19.63
279.525	19.59
279.984	19.55
280.442	19.52
280.9	19.49
281.358	19.45
281.816	19.42
282.274	19.39
282.732	19.34
283.19	19.3
283.648	19.25
284.106	19.21
284.564	19.16
285.021	19.12
285.479	19.08
285.937	19.04
286.394	18.99
286.852	18.95
287.309	18.9
287.767	18.85
288.224	18.8
288.682	18.76
289.139	18.71
289.596	18.67
290.053	18.63
290.511	18.58
290.968	18.53
291.425	18.49
291.882	18.46
292.339	18.42
292.796	18.39
293.252	18.37
293.709	18.34
294.166	18.32
294.623	18.28
295.079	18.25
295.536	18.23
295.992	18.2
296.449	18.17
296.905	18.14
297.362	18.12
297.818	18.08
298.274	18.05
298.731	18.02
299.187	17.99
299.643	17.95
300.099	17.93
300.555	17.89
301.011	17.86
301.467	17.83
301.923	17.8
302.379	17.76
302.835	17.72
303.291	17.69
303.746	17.64
304.202	17.6
304.658	17.56
305.113	17.53
305.569	17.5
306.024	17.45
306.479	17.41
306.935	17.37
307.39	17.34
307.845	17.31
308.301	17.28
308.756	17.25
309.211	17.23
309.666	17.21
310.121	17.17
310.576	17.14
311.031	17.11
311.486	17.09
311.94	17.05
312.395	17.01
312.85	16.98
313.305	16.94
313.759	16.92
314.214	16.89
314.668	16.84
315.123	16.81
315.577	16.77
316.032	16.72
316.486	16.67
316.94	16.64
317.394	16.59
317.849	16.54
318.303	16.5
318.757	16.45
319.211	16.41
319.665	16.37
320.119	16.34
320.572	16.3
321.026	16.29
321.48	16.25
321.934	16.2
322.387	16.18
322.841	16.16
323.295	16.13
323.748	16.1
324.202	16.06
324.655	16.02
325.108	15.98
325.562	15.95
326.015	15.91
326.468	15.89
326.921	15.87
327.374	15.84
327.827	15.82
328.28	15.78
328.733	15.77
329.186	15.75
329.639	15.73
330.092	15.7
330.545	15.67
330.997	15.64
331.45	15.61
331.903	15.59
332.355	15.57
332.808	15.54
333.26	15.51
333.713	15.49
334.165	15.46
334.617	15.45
335.069	15.44
335.522	15.42
335.974	15.42
336.426	15.4
336.878	15.37
337.33	15.34
337.782	15.33
338.234	15.32
338.686	15.3
339.137	15.29
339.589	15.26
340.041	15.24
340.493	15.21
340.944	15.16
341.396	15.15
341.847	15.13
342.299	15.09
342.75	15.05
343.201	15.01
343.653	14.97
344.104	14.93
344.555	14.89
345.006	14.85
345.457	14.82
345.908	14.81
346.359	14.78
346.81	14.75
347.261	14.73
347.712	14.71
348.163	14.69
348.613	14.69
349.064	14.67
349.515	14.66
349.965	14.64
350.416	14.63
350.866	14.61
351.317	14.59
351.767	14.58
352.217	14.56
352.668	14.55
353.118	14.53
353.568	14.51
354.018	14.51
354.468	14.51
354.918	14.5
355.368	14.5
355.818	14.49
356.268	14.47
356.718	14.46
357.168	14.45
357.617	14.44
358.067	14.43
358.517	14.43
358.966	14.41
359.416	14.4
359.865	14.39
360.315	14.38
360.764	14.37
361.213	14.36
361.663	14.33
362.112	14.31
362.561	14.29
363.01	14.29
363.459	14.26
363.908	14.24
364.357	14.24
364.806	14.22
365.255	14.2
365.703	14.19
366.152	14.17
366.601	14.17
367.05	14.16
367.498	14.15
367.947	14.14
368.395	14.12
368.844	14.12
369.292	14.09
369.74	14.08
370.189	14.06
370.637	14.05
371.085	14.02
371.533	14.01
371.981	14
372.429	13.98
372.877	13.96
373.325	13.95
373.773	13.93
374.221	13.91
374.669	13.88
375.116	13.87
375.564	13.85
376.012	13.84
376.459	13.82
376.907	13.81
377.354	13.8
377.801	13.79
378.249	13.77
378.696	13.75
379.143	13.74
379.591	13.74
380.038	13.72
380.485	13.72
380.932	13.69
381.379	13.67
381.826	13.66
382.273	13.64
382.72	13.62
383.166	13.61
383.613	13.58
384.06	13.57
384.506	13.55
384.953	13.54
385.4	13.53
385.846	13.54
386.292	13.54
386.739	13.54
387.185	13.53
387.631	13.53
388.078	13.52
388.524	13.53
388.97	13.52
389.416	13.52
389.862	13.52
390.308	13.53
390.754	13.55
391.2	13.56
391.645	13.57
392.091	13.59
392.537	13.62
392.983	13.64
393.428	13.66
393.874	13.67
394.319	13.68
394.765	13.69
395.21	13.7
395.655	13.71
396.101	13.74
396.546	13.75
396.991	13.76
397.436	13.78
397.881	13.82
398.326	13.86
398.771	13.89
399.216	13.93
399.661	13.97
400.106	14
400.551	14.02
400.995	14.02
401.44	14.05
401.885	14.08
402.329	14.11
402.774	14.13
403.218	14.18
403.663	14.23
404.107	14.26
404.551	14.29
404.995	14.32
405.44	14.35
405.884	14.4
406.328	14.46
406.772	14.5
407.216	14.53
407.66	14.55
408.104	14.56
408.547	14.59
408.991	14.63
409.435	14.65
409.879	14.68
410.322	14.73
410.766	14.78
411.209	14.82
411.653	14.87
412.096	14.9
412.54	14.94
412.983	14.99
413.426	15.05
413.869	15.1
414.312	15.18
414.756	15.25
415.199	15.28
415.642	15.3
416.085	15.33
416.527	15.34
416.97	15.37
417.413	15.4
417.856	15.41
418.298	15.42
418.741	15.44
419.184	15.46
419.626	15.48
420.069	15.52
420.511	15.55
420.953	15.57
421.396	15.6
421.838	15.64
422.28	15.67
422.722	15.71
423.164	15.73
423.606	15.74
424.048	15.74
424.49	15.73
424.932	15.71
425.374	15.69
425.816	15.68
426.258	15.67
426.699	15.67
427.141	15.68
427.582	15.68
428.024	15.68
428.465	15.7
428.907	15.71
429.348	15.72
429.789	15.73
430.231	15.77
430.672	15.79
431.113	15.82
431.554	15.84
431.995	15.86
432.436	15.87
432.877	15.88
433.318	15.9
433.759	15.94
434.2	15.98
434.64	16.01
435.081	16.01
435.522	16.03
435.962	16.06
436.403	16.09
436.843	16.09
437.284	16.11
437.724	16.13
438.164	16.12
438.604	16.13
439.045	16.14
439.485	16.16
439.925	16.17
440.365	16.18
440.805	16.18
441.245	16.2
441.685	16.23
442.125	16.26
442.564	16.28
443.004	16.33
443.444	16.36
443.883	16.39
444.323	16.4
444.762	16.44
445.202	16.49
445.641	16.53
446.081	16.58
446.52	16.61
446.959	16.64
447.398	16.68
447.837	16.72
448.276	16.73
448.716	16.77
449.154	16.82
449.593	16.86
450.032	16.88
450.471	16.88
450.91	16.87
451.349	16.9
451.787	16.9
452.226	16.91
452.664	16.9
453.103	16.91
453.541	16.9
453.98	16.91
454.418	16.88
454.856	16.88
455.295	16.89
455.733	16.87
456.171	16.87
456.609	16.87
457.047	16.83
457.485	16.83
457.923	16.82
458.361	16.82
458.798	16.8
459.236	16.79
459.674	16.77
460.111	16.75
460.549	16.76
460.987	16.76
461.424	16.74
461.862	16.75
462.299	16.75
462.736	16.73
463.173	16.71
463.611	16.7
464.048	16.71
464.485	16.7
464.922	16.69
465.359	16.69
465.796	16.69
466.233	16.69
466.67	16.68
467.106	16.68
467.543	16.67
467.98	16.65
468.416	16.63
468.853	16.62
469.29	16.6
469.726	16.61
470.162	16.57
470.599	16.55
471.035	16.54
471.471	16.52
471.907	16.5
472.344	16.5
472.78	16.49
473.216	16.48
473.652	16.48
474.088	16.45
474.523	16.44
474.959	16.45
475.395	16.44
475.831	16.42
476.266	16.43
476.702	16.42
477.138	16.4
477.573	16.38
478.008	16.39
478.444	16.37
478.879	16.38
479.314	16.36
479.75	16.36
480.185	16.34
480.62	16.34
481.055	16.33
481.49	16.31
481.925	16.3
482.36	16.32
482.795	16.31
483.229	16.31
483.664	16.32
484.099	16.32
484.534	16.33
484.968	16.35
485.403	16.36
485.837	16.38
486.271	16.41
486.706	16.44
487.14	16.46
487.574	16.5
488.009	16.54
488.443	16.58
488.877	16.63
489.311	16.66
489.745	16.71
490.179	16.77
490.613	16.84
491.046	16.89
491.48	16.97
491.914	17.05
492.348	17.11
492.781	17.19
493.215	17.27
493.648	17.36
494.082	17.44
494.515	17.53
494.948	17.62
495.382	17.71
495.815	17.81
496.248	17.92
496.681	18.03
497.114	18.14
497.547	18.25
497.98	18.36
498.413	18.47
498.846	18.59
499.279	18.73
499.711	18.87
500.144	19.02
500.577	19.17
501.009	19.31
501.442	19.46
501.874	19.62
502.306	19.79
502.739	19.99
503.171	20.17
503.603	20.36
504.036	20.55
504.468	20.74
504.9	20.93
505.332	21.12
505.764	21.34
506.196	21.55
506.627	21.77
507.059	21.99
507.491	22.21
507.923	22.45
508.354	22.71
508.786	22.96
509.217	23.23
509.649	23.49
510.08	23.76
510.512	24.02
510.943	24.29
511.374	24.56
511.805	24.84
512.237	25.12
512.668	25.39
513.099	25.65
513.53	25.93
513.961	26.2
514.391	26.48
514.822	26.77
515.253	27.04
515.684	27.32
516.114	27.6
516.545	27.88
516.975	28.15
517.406	28.42
517.836	28.68
518.267	28.94
518.697	29.21
519.127	29.45
519.558	29.69
519.988	29.94
520.418	30.19
520.848	30.43
521.278	30.65
521.708	30.95
522.138	31.2
522.567	31.42
522.997	31.65
523.427	31.86
523.857	32.07
524.286	32.25
524.716	32.47
525.145	32.64
525.575	32.83
526.004	33.02
526.433	33.13
526.863	33.29
527.292	33.47
527.721	33.61
528.15	33.74
528.579	33.89
529.008	34.04
529.437	34.16
529.866	34.3
530.295	34.42
530.724	34.56
531.152	34.68
531.581	34.8
532.01	34.91
532.438	35.02
532.867	35.13
533.295	35.25
533.723	35.35
534.152	35.43
534.58	35.53
535.008	35.61
535.436	35.68
535.865	35.75
536.293	35.81
536.721	35.86
537.149	35.92
537.576	35.97
538.004	36.03
538.432	36.07
538.86	36.13
539.287	36.16
539.715	36.2
540.143	36.23
540.57	36.27
540.998	36.32
541.425	36.36
541.852	36.39
542.28	36.44
542.707	36.45
543.134	36.5
543.561	36.54
543.988	36.58
544.415	36.59
544.842	36.63
545.269	36.68
545.696	36.7
546.123	36.73
546.549	36.75
546.976	36.78
547.403	36.82
547.829	36.83
548.256	36.84
548.682	36.86
549.108	36.91
549.535	36.96
549.961	36.96
550.387	36.97
550.813	36.98
551.24	36.99
551.666	37
552.092	37.03
552.518	37.04
552.943	37.06
553.369	37.05
553.795	37.04
554.221	37.01
554.646	36.99
555.072	36.99
555.498	36.96
555.923	36.95
556.349	36.9
556.774	36.86
557.199	36.82
557.625	36.76
558.05	36.73
558.475	36.68
558.9	36.63
559.325	36.59
559.75	36.54
560.175	36.47
560.6	36.38
561.025	36.31
561.449	36.21
561.874	36.14
562.299	36.04
562.723	35.95
563.148	35.85
563.572	35.73
563.997	35.62
564.421	35.51
564.846	35.39
565.27	35.28
565.694	35.18
566.118	35.09
566.542	34.97
566.966	34.87
567.39	34.75
567.814	34.62
568.238	34.5
568.662	34.38
569.086	34.25
569.509	34.15
569.933	34.05
570.357	33.92
570.78	33.78
571.204	33.65
571.627	33.53
572.05	33.42
572.474	33.33
572.897	33.23
573.32	33.11
573.743	33.01
574.166	32.9
574.589	32.79
575.012	32.7
575.435	32.62
575.858	32.53
576.281	32.45
576.704	32.35
577.126	32.26
577.549	32.16
577.972	32.08
578.394	31.99
578.817	31.91
579.239	31.84
579.661	31.78
580.084	31.7
580.506	31.63
580.928	31.54
581.35	31.48
581.772	31.41
582.194	31.33
582.616	31.26
583.038	31.19
583.46	31.13
583.882	31.07
584.303	30.98
584.725	30.91
585.147	30.85
585.568	30.8
585.99	30.71
586.411	30.65
586.833	30.59
587.254	30.53
587.675	30.48
588.096	30.41
588.518	30.33
588.939	30.31
589.36	30.24
589.781	30.18
590.202	30.14
590.623	30.1
591.043	30.04
591.464	30
591.885	29.96
592.305	29.92
592.726	29.88
593.147	29.86
593.567	29.79
593.987	29.76
594.408	29.72
594.828	29.67
595.248	29.63
595.669	29.61
596.089	29.56
596.509	29.52
596.929	29.47
597.349	29.43
597.769	29.38
598.189	29.33
598.608	29.29
599.028	29.25
599.448	29.21
599.867	29.16
600.287	29.12
600.706	29.07
601.126	29.02
601.545	28.98
601.965	28.94
602.384	28.89
602.803	28.86
603.222	28.8
603.641	28.75
604.061	28.7
604.48	28.63
604.898	28.57
605.317	28.51
605.736	28.45
606.155	28.39
606.574	28.32
606.992	28.26
607.411	28.2
607.829	28.11
608.248	28.04
608.666	27.97
609.085	27.92
609.503	27.86
609.921	27.81
610.339	27.74
610.758	27.68
611.176	27.61
611.594	27.54
612.012	27.47
612.43	27.42
612.847	27.36
613.265	27.28
613.683	27.22
614.101	27.15
614.518	27.08
614.936	27
615.353	26.91
615.771	26.85
616.188	26.78
616.606	26.73
617.023	26.68
617.44	26.63
617.857	26.57
618.274	26.51
618.691	26.45
619.108	26.39
619.525	26.34
619.942	26.31
620.359	26.27
620.776	26.23
621.192	26.18
621.609	26.14
622.026	26.1
622.442	26.08
622.859	26.06
623.275	26.03
623.691	26.03
624.108	26.02
624.524	26.01
624.94	26
625.356	25.99
625.772	25.98
626.188	25.98
626.604	25.96
627.02	25.95
627.436	25.94
627.852	25.95
628.268	25.92
628.683	25.9
629.099	25.89
629.514	25.87
629.93	25.84
630.345	25.82
630.761	25.78
631.176	25.73
631.591	25.68
632.007	25.63
632.422	25.56
632.837	25.49
633.252	25.41
633.667	25.3
634.082	25.19
634.497	25.1
634.911	24.98
635.326	24.87
635.741	24.76
636.155	24.61
636.57	24.47
636.984	24.31
637.399	24.14
637.813	23.98
638.228	23.81
638.642	23.62
639.056	23.41
639.47	23.23
639.884	23.03
640.298	22.83
640.712	22.64
641.126	22.43
641.54	22.22
641.954	22.03
642.368	21.83
642.781	21.64
643.195	21.47
643.609	21.29
644.022	21.11
644.436	20.94
644.849	20.76
645.262	20.61
645.676	20.47
646.089	20.33
646.502	20.2
646.915	20.1
647.328	20
647.741	19.88
648.154	19.8
648.567	19.72
648.98	19.65
649.393	19.59
649.805	19.53
650.218	19.47
650.631	19.42
651.043	19.36
651.456	19.32
651.868	19.25
652.28	19.22
652.693	19.16
653.105	19.11
653.517	19.06
653.929	19.01
654.341	18.94
654.753	18.87
655.165	18.8
655.577	18.74
655.989	18.65
656.401	18.57
656.813	18.48
657.224	18.39
657.636	18.28
658.047	18.17
658.459	18.05
658.87	17.94
659.282	17.81
659.693	17.69
660.104	17.56
660.515	17.42
660.926	17.29
661.338	17.15
661.749	17.02
662.159	16.88
662.57	16.77
662.981	16.65
663.392	16.53
663.803	16.41
664.213	16.28
664.624	16.17
665.035	16.06
665.445	15.96
665.855	15.86
666.266	15.76
666.676	15.7
667.086	15.6
667.497	15.51
667.907	15.45
668.317	15.39
668.727	15.34
669.137	15.28
669.547	15.24
669.956	15.2
670.366	15.17
670.776	15.14
671.186	15.1
671.595	15.07
672.005	15.04
672.414	15.02
672.824	15
673.233	14.99
673.642	14.99
674.052	14.99
674.461	14.99
674.87	14.99
675.279	15.01
675.688	15.02
676.097	15.05
676.506	15.1
676.915	15.14
677.323	15.19
677.732	15.25
678.141	15.32
678.549	15.41
678.958	15.49
679.366	15.6
679.775	15.7
680.183	15.86
680.592	16.03
681	16.2
681.408	16.4
681.816	16.64
682.224	16.89
682.632	17.16
683.04	17.44
683.448	17.78
683.856	18.12
684.264	18.52
684.671	18.92
685.079	19.36
685.487	19.84
685.894	20.33
686.302	20.84
686.709	21.37
687.116	21.93
687.524	22.53
687.931	23.12
688.338	23.76
688.745	24.39
689.152	25.05
689.559	25.7
689.966	26.37
690.373	27.06
690.78	27.75
691.187	28.44
691.593	29.13
692	29.8
692.407	30.46
692.813	31.13
693.22	31.76
693.626	32.4
694.032	33.03
694.439	33.65
694.845	34.26
695.251	34.83
695.657	35.4
696.063	35.96
696.469	36.5
696.875	37.05
697.281	37.57
697.687	38.1
698.093	38.59
698.498	39.07
698.904	39.52
699.31	39.95
699.715	40.4
700.12	40.83
700.526	41.22
700.931	41.62
701.337	42
701.742	42.37
702.147	42.72
702.552	43.08
702.957	43.4
703.362	43.71
703.767	44.02
704.172	44.31
704.577	44.6
704.981	44.89
705.386	45.18
705.791	45.44
706.195	45.7
706.6	45.96
707.004	46.19
707.408	46.45
707.813	46.71
708.217	46.94
708.621	47.18
709.025	47.4
709.43	47.59
709.834	47.8
710.237	48
710.641	48.2
711.045	48.38
711.449	48.6
711.853	48.8
712.256	48.94
712.66	49.13
713.064	49.3
713.467	49.47
713.87	49.66
714.274	49.82
714.677	49.99
715.08	50.13
715.484	50.3
715.887	50.45
716.29	50.59
716.693	50.76
717.096	50.88
717.499	51.02
717.901	51.15
718.304	51.27
718.707	51.39
719.109	51.52
719.512	51.62
719.915	51.75
720.317	51.82
720.719	51.91
721.122	52.02
721.524	52.12
721.926	52.22
722.328	52.3
722.731	52.37
723.133	52.47
723.535	52.55
723.937	52.64
724.338	52.68
724.74	52.78
725.142	52.96
725.544	53.02
725.945	53.14
726.347	53.18
726.748	53.26
727.15	53.34
727.551	53.42
727.952	53.48
728.354	53.53
728.755	53.59
729.156	53.64
729.557	53.58
729.958	53.61
730.359	53.62
730.76	53.71
731.161	53.74
731.562	53.78
731.962	53.77
732.363	53.8
732.763	53.85
733.164	53.88
733.564	53.92
733.965	53.94
734.365	53.97
734.766	54
735.166	54.01
735.566	54.06
735.966	54.11
736.366	54.15
736.766	54.17
737.166	54.19
737.566	54.21
737.966	54.23
738.365	54.27
738.765	54.3
739.165	54.33
739.564	54.35
739.964	54.35
740.363	54.32
740.763	54.35
741.162	54.36
741.561	54.36
741.96	54.36
742.36	54.38
742.759	54.39
743.158	54.39
743.557	54.38
743.955	54.38
744.354	54.39
744.753	54.44
745.152	54.46
745.55	54.48
745.949	54.49
746.348	54.49
746.746	54.47
747.144	54.49
747.543	54.51
747.941	54.51
748.339	54.51
748.737	54.5
749.136	54.49
749.534	54.46
749.932	54.44
750.33	54.44
750.727	54.48
751.125	54.48
751.523	54.49
751.921	54.48
752.318	54.51
752.716	54.52
753.113	54.55
753.511	54.58
753.908	54.6
754.305	54.63
754.703	54.63
755.1	54.62
755.497	54.62
755.894	54.6
756.291	54.62
756.688	54.58
757.085	54.61
757.482	54.6
757.878	54.58
758.275	54.6
758.672	54.6
759.068	54.65
759.465	54.63
759.861	54.65
760.258	54.67
760.654	54.65
761.05	54.71
761.447	54.7
761.843	54.69
762.239	54.69
762.635	54.67
