Data from N_2_DIV_IL_4N_Splice17_13-37-52-752.txt Node
Date: Sat Mar 07 13:37:52 EST 2020
User: sa697716
Spectrometer: NQ5500242
Trigger mode: 0
Integration Time (sec): 1.450000E-1
Scans to average: 20
Nonlinearity correction enabled: false
Boxcar width: 5
Storing dark spectrum: false
XAxis mode: Wavelengths
Number of Pixels in Spectrum: 512
>>>>>Begin Spectral Data<<<<<
187.83	111.26
188.298	129.14
188.766	119.57
189.233	103.12
189.701	91.76
190.169	126.08
190.636	98.6
191.104	25.75
191.571	-131
192.039	27.31
192.506	197.54
192.974	-44.3
193.441	-36.31
193.908	22.99
194.375	24.71
194.842	-19.02
195.31	91.24
195.777	135.95
196.244	96.59
196.711	91.68
197.177	93.05
197.644	92.52
198.111	91.89
198.578	91.88
199.045	92.01
199.511	91.6
199.978	91.59
200.445	91.96
200.911	91.9
201.378	91.8
201.844	91.88
202.31	91.57
202.777	91.64
203.243	91.72
203.709	91.19
204.176	90.43
204.642	89.75
205.108	89.16
205.574	87.93
206.04	86.81
206.506	85.63
206.972	84.69
207.438	83.59
207.903	82.23
208.369	80.59
208.835	78.85
209.301	77.03
209.766	74.79
210.232	72.42
210.697	70.42
211.163	68.41
211.628	66.78
212.094	65.03
212.559	63.38
213.024	61.49
213.49	59.85
213.955	58.27
214.42	56.62
214.885	54.96
215.35	52.71
215.815	49.78
216.28	45.83
216.745	41.37
217.21	37.1
217.675	33.13
218.14	29.67
218.604	26.51
219.069	23.98
219.534	21.8
219.998	20.01
220.463	18.56
220.927	17.27
221.392	16.35
221.856	15.55
222.32	14.82
222.785	14.2
223.249	13.67
223.713	13.22
224.177	12.8
224.642	12.43
225.106	12.02
225.57	11.66
226.034	11.34
226.497	11.04
226.961	10.79
227.425	10.54
227.889	10.3
228.353	10.06
228.816	9.83
229.28	9.62
229.744	9.42
230.207	9.26
230.671	9.08
231.134	8.92
231.597	8.78
232.061	8.6
232.524	8.46
232.987	8.32
233.45	8.2
233.914	8.06
234.377	7.94
234.84	7.81
235.303	7.71
235.766	7.62
236.229	7.52
236.691	7.42
237.154	7.34
237.617	7.26
238.08	7.19
238.542	7.11
239.005	7.06
239.468	6.98
239.93	6.92
240.393	6.85
240.855	6.76
241.317	6.67
241.78	6.6
242.242	6.51
242.704	6.44
243.166	6.37
243.629	6.3
244.091	6.22
244.553	6.16
245.015	6.08
245.477	6.01
245.939	5.96
246.4	5.9
246.862	5.84
247.324	5.78
247.786	5.71
248.247	5.65
248.709	5.58
249.17	5.51
249.632	5.47
250.093	5.42
250.555	5.36
251.016	5.31
251.477	5.25
251.939	5.21
252.4	5.16
252.861	5.12
253.322	5.08
253.783	5.04
254.244	5.01
254.705	4.96
255.166	4.91
255.627	4.87
256.088	4.85
256.549	4.81
257.009	4.76
257.47	4.71
257.931	4.66
258.391	4.6
258.852	4.55
259.312	4.5
259.773	4.46
260.233	4.42
260.694	4.37
261.154	4.3
261.614	4.27
262.074	4.23
262.534	4.19
262.994	4.16
263.455	4.12
263.915	4.08
264.374	4.05
264.834	4.02
265.294	3.99
265.754	3.97
266.214	3.95
266.673	3.92
267.133	3.9
267.593	3.88
268.052	3.86
268.512	3.85
268.971	3.83
269.431	3.82
269.89	3.8
270.349	3.79
270.809	3.77
271.268	3.75
271.727	3.74
272.186	3.73
272.645	3.72
273.104	3.7
273.563	3.68
274.022	3.67
274.481	3.67
274.94	3.66
275.399	3.65
275.857	3.64
276.316	3.63
276.775	3.62
277.233	3.62
277.692	3.62
278.15	3.6
278.609	3.61
279.067	3.6
279.525	3.6
279.984	3.59
280.442	3.6
280.9	3.6
281.358	3.61
281.816	3.61
282.274	3.61
282.732	3.61
283.19	3.62
283.648	3.61
284.106	3.6
284.564	3.6
285.021	3.6
285.479	3.59
285.937	3.59
286.394	3.58
286.852	3.57
287.309	3.56
287.767	3.54
288.224	3.53
288.682	3.51
289.139	3.5
289.596	3.48
290.053	3.46
290.511	3.43
290.968	3.4
291.425	3.37
291.882	3.36
292.339	3.34
292.796	3.32
293.252	3.3
293.709	3.29
294.166	3.29
294.623	3.27
295.079	3.26
295.536	3.26
295.992	3.25
296.449	3.24
296.905	3.24
297.362	3.23
297.818	3.22
298.274	3.21
298.731	3.2
299.187	3.19
299.643	3.18
300.099	3.17
300.555	3.17
301.011	3.16
301.467	3.16
301.923	3.15
302.379	3.14
302.835	3.14
303.291	3.14
303.746	3.15
304.202	3.15
304.658	3.15
305.113	3.16
305.569	3.15
306.024	3.16
306.479	3.16
306.935	3.16
307.39	3.17
307.845	3.18
308.301	3.18
308.756	3.19
309.211	3.19
309.666	3.21
310.121	3.21
310.576	3.22
311.031	3.22
311.486	3.23
311.94	3.23
312.395	3.24
312.85	3.24
313.305	3.24
313.759	3.25
314.214	3.24
314.668	3.23
315.123	3.23
315.577	3.23
316.032	3.22
316.486	3.22
316.94	3.21
317.394	3.2
317.849	3.18
318.303	3.17
318.757	3.16
319.211	3.15
319.665	3.13
320.119	3.11
320.572	3.1
321.026	3.09
321.48	3.08
321.934	3.06
322.387	3.05
322.841	3.04
323.295	3.05
323.748	3.04
324.202	3.04
324.655	3.04
325.108	3.05
325.562	3.05
326.015	3.05
326.468	3.05
326.921	3.06
327.374	3.07
327.827	3.07
328.28	3.06
328.733	3.07
329.186	3.07
329.639	3.08
330.092	3.08
330.545	3.09
330.997	3.09
331.45	3.1
331.903	3.12
332.355	3.13
332.808	3.14
333.26	3.14
333.713	3.14
334.165	3.14
334.617	3.16
335.069	3.15
335.522	3.16
335.974	3.17
336.426	3.17
336.878	3.17
337.33	3.17
337.782	3.16
338.234	3.17
338.686	3.17
339.137	3.18
339.589	3.16
340.041	3.16
340.493	3.14
340.944	3.12
341.396	3.11
341.847	3.09
342.299	3.06
342.75	3.05
343.201	3.02
343.653	3.01
344.104	2.99
344.555	2.97
345.006	2.95
345.457	2.95
345.908	2.94
346.359	2.94
346.81	2.93
347.261	2.93
347.712	2.93
348.163	2.93
348.613	2.93
349.064	2.93
349.515	2.92
349.965	2.93
350.416	2.92
350.866	2.92
351.317	2.91
351.767	2.92
352.217	2.92
352.668	2.91
353.118	2.92
353.568	2.91
354.018	2.92
354.468	2.93
354.918	2.93
355.368	2.94
355.818	2.94
356.268	2.95
356.718	2.96
357.168	2.95
357.617	2.95
358.067	2.95
358.517	2.96
358.966	2.96
359.416	2.96
359.865	2.96
360.315	2.97
360.764	2.97
361.213	2.96
361.663	2.96
362.112	2.97
362.561	2.97
363.01	2.97
363.459	2.96
363.908	2.95
364.357	2.95
364.806	2.95
365.255	2.95
365.703	2.96
366.152	2.97
366.601	2.97
367.05	2.98
367.498	2.98
367.947	2.99
368.395	2.99
368.844	3
369.292	2.99
369.74	3
370.189	2.99
370.637	2.99
371.085	2.97
371.533	2.97
371.981	2.97
372.429	2.96
372.877	2.96
373.325	2.95
373.773	2.95
374.221	2.94
374.669	2.93
375.116	2.92
375.564	2.91
376.012	2.91
376.459	2.9
376.907	2.91
377.354	2.91
377.801	2.91
378.249	2.91
378.696	2.91
379.143	2.92
379.591	2.91
380.038	2.92
380.485	2.92
380.932	2.92
381.379	2.92
381.826	2.92
382.273	2.91
382.72	2.9
383.166	2.89
383.613	2.87
384.06	2.86
384.506	2.86
384.953	2.85
385.4	2.86
385.846	2.86
386.292	2.85
386.739	2.84
387.185	2.84
387.631	2.85
388.078	2.84
388.524	2.85
388.97	2.86
389.416	2.86
389.862	2.87
390.308	2.88
390.754	2.89
391.2	2.9
391.645	2.92
392.091	2.95
392.537	2.96
392.983	2.98
393.428	3
393.874	3.01
394.319	3.03
394.765	3.04
395.21	3.04
395.655	3.05
396.101	3.08
396.546	3.09
396.991	3.1
397.436	3.11
397.881	3.14
398.326	3.16
398.771	3.18
399.216	3.2
399.661	3.23
400.106	3.25
400.551	3.27
400.995	3.28
401.44	3.3
401.885	3.31
402.329	3.34
402.774	3.35
403.218	3.39
403.663	3.41
404.107	3.43
404.551	3.45
404.995	3.47
405.44	3.48
405.884	3.5
406.328	3.53
406.772	3.54
407.216	3.57
407.66	3.59
408.104	3.58
408.547	3.61
408.991	3.63
409.435	3.66
409.879	3.7
410.322	3.75
410.766	3.78
411.209	3.82
411.653	3.86
412.096	3.89
412.54	3.92
412.983	3.98
413.426	4.03
413.869	4.06
414.312	4.12
414.756	4.15
415.199	4.16
415.642	4.2
416.085	4.21
416.527	4.22
416.97	4.23
417.413	4.24
417.856	4.23
418.298	4.23
418.741	4.24
419.184	4.23
419.626	4.24
420.069	4.26
420.511	4.28
420.953	4.3
421.396	4.33
421.838	4.35
422.28	4.38
422.722	4.41
423.164	4.42
423.606	4.45
424.048	4.46
424.49	4.45
424.932	4.46
425.374	4.43
425.816	4.41
426.258	4.4
426.699	4.39
427.141	4.4
427.582	4.42
428.024	4.43
428.465	4.44
428.907	4.44
429.348	4.44
429.789	4.46
430.231	4.51
430.672	4.55
431.113	4.59
431.554	4.63
431.995	4.63
432.436	4.65
432.877	4.68
433.318	4.73
433.759	4.77
434.2	4.82
434.64	4.85
435.081	4.87
435.522	4.9
435.962	4.93
436.403	4.98
436.843	5
437.284	5
437.724	5.01
438.164	4.99
438.604	5.01
439.045	5.02
439.485	5.03
439.925	5.04
440.365	5.06
440.805	5.08
441.245	5.09
441.685	5.13
442.125	5.15
442.564	5.18
443.004	5.2
443.444	5.24
443.883	5.26
444.323	5.29
444.762	5.31
445.202	5.32
445.641	5.34
446.081	5.37
446.52	5.39
446.959	5.45
447.398	5.48
447.837	5.52
448.276	5.54
448.716	5.57
449.154	5.61
449.593	5.64
450.032	5.67
450.471	5.67
450.91	5.68
451.349	5.7
451.787	5.69
452.226	5.69
452.664	5.69
453.103	5.67
453.541	5.66
453.98	5.66
454.418	5.63
454.856	5.62
455.295	5.61
455.733	5.59
456.171	5.56
456.609	5.55
457.047	5.52
457.485	5.5
457.923	5.49
458.361	5.49
458.798	5.49
459.236	5.5
459.674	5.49
460.111	5.5
460.549	5.51
460.987	5.52
461.424	5.53
461.862	5.55
462.299	5.57
462.736	5.58
463.173	5.58
463.611	5.59
464.048	5.6
464.485	5.61
464.922	5.62
465.359	5.62
465.796	5.64
466.233	5.66
466.67	5.65
467.106	5.68
467.543	5.67
467.98	5.67
468.416	5.65
468.853	5.65
469.29	5.64
469.726	5.65
470.162	5.64
470.599	5.63
471.035	5.62
471.471	5.61
471.907	5.6
472.344	5.61
472.78	5.62
473.216	5.63
473.652	5.63
474.088	5.6
474.523	5.6
474.959	5.6
475.395	5.59
475.831	5.6
476.266	5.61
476.702	5.6
477.138	5.59
477.573	5.58
478.008	5.57
478.444	5.57
478.879	5.59
479.314	5.58
479.75	5.57
480.185	5.54
480.62	5.52
481.055	5.51
481.49	5.5
481.925	5.49
482.36	5.49
482.795	5.49
483.229	5.48
483.664	5.48
484.099	5.47
484.534	5.48
484.968	5.5
485.403	5.5
485.837	5.51
486.271	5.53
486.706	5.54
487.14	5.56
487.574	5.58
488.009	5.6
488.443	5.62
488.877	5.65
489.311	5.68
489.745	5.72
490.179	5.76
490.613	5.81
491.046	5.85
491.48	5.91
491.914	5.96
492.348	6.02
492.781	6.08
493.215	6.16
493.648	6.23
494.082	6.29
494.515	6.35
494.948	6.42
495.382	6.49
495.815	6.57
496.248	6.65
496.681	6.75
497.114	6.83
497.547	6.93
497.98	7.03
498.413	7.14
498.846	7.26
499.279	7.38
499.711	7.49
500.144	7.63
500.577	7.76
501.009	7.89
501.442	8.04
501.874	8.19
502.306	8.34
502.739	8.51
503.171	8.68
503.603	8.84
504.036	9.03
504.468	9.22
504.9	9.42
505.332	9.62
505.764	9.84
506.196	10.06
506.627	10.29
507.059	10.51
507.491	10.73
507.923	10.97
508.354	11.23
508.786	11.5
509.217	11.77
509.649	12.03
510.08	12.3
510.512	12.58
510.943	12.86
511.374	13.14
511.805	13.43
512.237	13.72
512.668	14.03
513.099	14.34
513.53	14.64
513.961	14.95
514.391	15.26
514.822	15.59
515.253	15.9
515.684	16.23
516.114	16.56
516.545	16.9
516.975	17.24
517.406	17.56
517.836	17.88
518.267	18.22
518.697	18.54
519.127	18.85
519.558	19.18
519.988	19.51
520.418	19.81
520.848	20.12
521.278	20.41
521.708	20.91
522.138	21.2
522.567	21.5
522.997	21.77
523.427	22.05
523.857	22.33
524.286	22.59
524.716	22.85
525.145	23.11
525.575	23.35
526.004	23.6
526.433	23.63
526.863	23.82
527.292	24.03
527.721	24.23
528.15	24.42
528.579	24.59
529.008	24.77
529.437	24.94
529.866	25.08
530.295	25.23
530.724	25.38
531.152	25.53
531.581	25.7
532.01	25.83
532.438	25.97
532.867	26.1
533.295	26.22
533.723	26.33
534.152	26.42
534.58	26.53
535.008	26.62
535.436	26.7
535.865	26.76
536.293	26.82
536.721	26.88
537.149	26.94
537.576	27
538.004	27.07
538.432	27.13
538.86	27.19
539.287	27.22
539.715	27.29
540.143	27.35
540.57	27.4
540.998	27.44
541.425	27.51
541.852	27.55
542.28	27.6
542.707	27.63
543.134	27.67
543.561	27.72
543.988	27.76
544.415	27.77
544.842	27.79
545.269	27.83
545.696	27.86
546.123	27.87
546.549	27.89
546.976	27.92
547.403	27.95
547.829	27.97
548.256	28
548.682	28.03
549.108	28.08
549.535	28.13
549.961	28.13
550.387	28.15
550.813	28.18
551.24	28.19
551.666	28.19
552.092	28.18
552.518	28.18
552.943	28.18
553.369	28.17
553.795	28.14
554.221	28.11
554.646	28.09
555.072	28.07
555.498	28.02
555.923	27.97
556.349	27.93
556.774	27.87
557.199	27.8
557.625	27.73
558.05	27.67
558.475	27.61
558.9	27.55
559.325	27.47
559.75	27.4
560.175	27.32
560.6	27.22
561.025	27.11
561.449	27.03
561.874	26.94
562.299	26.83
562.723	26.71
563.148	26.59
563.572	26.45
563.997	26.33
564.421	26.18
564.846	26.05
565.27	25.93
565.694	25.81
566.118	25.67
566.542	25.53
566.966	25.38
567.39	25.25
567.814	25.1
568.238	24.97
568.662	24.82
569.086	24.69
569.509	24.55
569.933	24.42
570.357	24.27
570.78	24.12
571.204	23.99
571.627	23.86
572.05	23.71
572.474	23.59
572.897	23.46
573.32	23.34
573.743	23.22
574.166	23.1
574.589	22.96
575.012	22.84
575.435	22.72
575.858	22.6
576.281	22.49
576.704	22.38
577.126	22.27
577.549	22.15
577.972	22.03
578.394	21.93
578.817	21.83
579.239	21.73
579.661	21.64
580.084	21.55
580.506	21.46
580.928	21.37
581.35	21.29
581.772	21.2
582.194	21.12
582.616	21.03
583.038	20.96
583.46	20.87
583.882	20.8
584.303	20.73
584.725	20.66
585.147	20.6
585.568	20.53
585.99	20.46
586.411	20.4
586.833	20.34
587.254	20.27
587.675	20.2
588.096	20.13
588.518	20.08
588.939	20.03
589.36	19.97
589.781	19.91
590.202	19.88
590.623	19.82
591.043	19.77
591.464	19.74
591.885	19.71
592.305	19.68
592.726	19.66
593.147	19.6
593.567	19.56
593.987	19.52
594.408	19.48
594.828	19.42
595.248	19.41
595.669	19.38
596.089	19.33
596.509	19.27
596.929	19.23
597.349	19.19
597.769	19.15
598.189	19.11
598.608	19.08
599.028	19.04
599.448	18.99
599.867	18.93
600.287	18.89
600.706	18.85
601.126	18.81
601.545	18.75
601.965	18.71
602.384	18.65
602.803	18.61
603.222	18.55
603.641	18.49
604.061	18.45
604.48	18.39
604.898	18.31
605.317	18.25
605.736	18.18
606.155	18.12
606.574	18.04
606.992	17.96
607.411	17.85
607.829	17.75
608.248	17.64
608.666	17.54
609.085	17.46
609.503	17.37
609.921	17.28
610.339	17.19
610.758	17.11
611.176	17.01
611.594	16.92
612.012	16.84
612.43	16.77
612.847	16.7
613.265	16.6
613.683	16.51
614.101	16.43
614.518	16.33
614.936	16.24
615.353	16.15
615.771	16.07
616.188	15.99
616.606	15.91
617.023	15.85
617.44	15.79
617.857	15.73
618.274	15.66
618.691	15.59
619.108	15.53
619.525	15.48
619.942	15.43
620.359	15.39
620.776	15.35
621.192	15.3
621.609	15.26
622.026	15.21
622.442	15.18
622.859	15.15
623.275	15.13
623.691	15.11
624.108	15.08
624.524	15.06
624.94	15.04
625.356	15.03
625.772	15.01
626.188	15
626.604	15
627.02	14.98
627.436	14.97
627.852	14.95
628.268	14.93
628.683	14.92
629.099	14.9
629.514	14.89
629.93	14.88
630.345	14.86
630.761	14.81
631.176	14.78
631.591	14.74
632.007	14.71
632.422	14.68
632.837	14.64
633.252	14.59
633.667	14.52
634.082	14.45
634.497	14.37
634.911	14.29
635.326	14.21
635.741	14.11
636.155	14.02
636.57	13.93
636.984	13.83
637.399	13.72
637.813	13.59
638.228	13.46
638.642	13.34
639.056	13.2
639.47	13.08
639.884	12.94
640.298	12.82
640.712	12.69
641.126	12.54
641.54	12.39
641.954	12.25
642.368	12.12
642.781	11.99
643.195	11.86
643.609	11.73
644.022	11.59
644.436	11.48
644.849	11.35
645.262	11.22
645.676	11.1
646.089	11
646.502	10.9
646.915	10.81
647.328	10.72
647.741	10.63
648.154	10.56
648.567	10.49
648.98	10.41
649.393	10.33
649.805	10.27
650.218	10.2
650.631	10.14
651.043	10.08
651.456	10.02
651.868	9.95
652.28	9.88
652.693	9.82
653.105	9.75
653.517	9.69
653.929	9.63
654.341	9.55
654.753	9.46
655.165	9.36
655.577	9.27
655.989	9.17
656.401	9.07
656.813	8.97
657.224	8.84
657.636	8.71
658.047	8.6
658.459	8.46
658.87	8.33
659.282	8.19
659.693	8.07
660.104	7.93
660.515	7.8
660.926	7.68
661.338	7.55
661.749	7.42
662.159	7.3
662.57	7.17
662.981	7.05
663.392	6.94
663.803	6.83
664.213	6.71
664.624	6.61
665.035	6.52
665.445	6.43
665.855	6.35
666.266	6.27
666.676	6.21
667.086	6.14
667.497	6.07
667.907	6.02
668.317	5.97
668.727	5.93
669.137	5.89
669.547	5.85
669.956	5.81
670.366	5.77
670.776	5.74
671.186	5.72
671.595	5.7
672.005	5.68
672.414	5.66
672.824	5.65
673.233	5.64
673.642	5.64
674.052	5.63
674.461	5.65
674.87	5.66
675.279	5.67
675.688	5.67
676.097	5.69
676.506	5.72
676.915	5.74
677.323	5.77
677.732	5.8
678.141	5.84
678.549	5.87
678.958	5.92
679.366	6
679.775	6.07
680.183	6.17
680.592	6.27
681	6.39
681.408	6.52
681.816	6.67
682.224	6.84
682.632	7.03
683.04	7.24
683.448	7.45
683.856	7.67
684.264	7.93
684.671	8.21
685.079	8.51
685.487	8.85
685.894	9.22
686.302	9.59
686.709	10
687.116	10.42
687.524	10.88
687.931	11.36
688.338	11.88
688.745	12.4
689.152	12.94
689.559	13.5
689.966	14.08
690.373	14.66
690.78	15.28
691.187	15.88
691.593	16.51
692	17.13
692.407	17.75
692.813	18.39
693.22	19.02
693.626	19.65
694.032	20.28
694.439	20.9
694.845	21.51
695.251	22.1
695.657	22.72
696.063	23.31
696.469	23.92
696.875	24.52
697.281	25.08
697.687	25.67
698.093	26.24
698.498	26.79
698.904	27.32
699.31	27.86
699.715	28.39
700.12	28.9
700.526	29.41
700.931	29.88
701.337	30.35
701.742	30.8
702.147	31.23
702.552	31.68
702.957	32.06
703.362	32.49
703.767	32.89
704.172	33.27
704.577	33.64
704.981	33.99
705.386	34.35
705.791	34.7
706.195	35.05
706.6	35.41
707.004	35.72
707.408	36.06
707.813	36.41
708.217	36.73
708.621	37.04
709.025	37.34
709.43	37.64
709.834	37.94
710.237	38.23
710.641	38.51
711.045	38.78
711.449	39.06
711.853	39.33
712.256	39.55
712.66	39.8
713.064	40.05
713.467	40.29
713.87	40.51
714.274	40.73
714.677	40.97
715.08	41.17
715.484	41.39
715.887	41.6
716.29	41.82
716.693	42.03
717.096	42.22
717.499	42.43
717.901	42.63
718.304	42.83
718.707	43.04
719.109	43.22
719.512	43.4
719.915	43.57
720.317	43.74
720.719	43.87
721.122	44.04
721.524	44.19
721.926	44.35
722.328	44.48
722.731	44.63
723.133	44.76
723.535	44.88
723.937	45.02
724.338	45.12
724.74	45.23
725.142	45.49
725.544	45.56
725.945	45.7
726.347	45.74
726.748	45.84
727.15	45.92
727.551	46.02
727.952	46.1
728.354	46.18
728.755	46.27
729.156	46.34
729.557	46.27
729.958	46.36
730.359	46.43
730.76	46.54
731.161	46.62
731.562	46.69
731.962	46.71
732.363	46.78
732.763	46.84
733.164	46.89
733.564	46.96
733.965	47.02
734.365	47.06
734.766	47.09
735.166	47.11
735.566	47.16
735.966	47.21
736.366	47.24
736.766	47.26
737.166	47.29
737.566	47.34
737.966	47.37
738.365	47.4
738.765	47.45
739.165	47.46
739.564	47.51
739.964	47.55
740.363	47.57
740.763	47.61
741.162	47.65
741.561	47.66
741.96	47.66
742.36	47.68
742.759	47.7
743.158	47.73
743.557	47.75
743.955	47.78
744.354	47.8
744.753	47.82
745.152	47.85
745.55	47.85
745.949	47.87
746.348	47.92
746.746	47.91
747.144	47.94
747.543	47.93
747.941	47.95
748.339	47.92
748.737	47.91
749.136	47.9
749.534	47.86
749.932	47.86
750.33	47.87
750.727	47.86
751.125	47.88
751.523	47.87
751.921	47.89
752.318	47.89
752.716	47.91
753.113	47.92
753.511	47.94
753.908	47.98
754.305	48.01
754.703	48.02
755.1	48.02
755.497	48
755.894	48.01
756.291	48
756.688	47.97
757.085	47.99
757.482	47.99
757.878	48.01
758.275	48.02
758.672	48.02
759.068	48.03
759.465	48.04
759.861	48.08
760.258	48.08
760.654	48.1
761.05	48.14
761.447	48.12
761.843	48.12
762.239	48.14
762.635	48.14
763.031	48.13
763.427	48.11
763.822	48.14
764.218	48.14
764.614	48.16
765.01	48.15
765.405	48.15
765.801	48.16
766.196	48.18
766.592	48.16
766.987	48.16
767.382	48.19
767.778	48.19
768.173	48.17
768.568	48.17
768.963	48.17
769.358	48.16
769.753	48.16
770.148	48.19
770.542	48.18
770.937	48.21
771.332	48.21
771.726	48.2
772.121	48.18
772.515	48.21
772.91	48.21
773.304	48.23
773.699	48.25
774.093	48.26
774.487	48.23
774.881	48.26
775.275	48.23
775.669	48.21
776.063	48.23
776.457	48.25
776.851	48.24
777.245	48.21
777.638	48.18
778.032	48.18
778.425	48.21
778.819	48.23
779.212	48.21
779.606	48.26
779.999	48.26
780.392	48.27
780.786	48.29
781.179	48.29
781.572	48.34
