Data from N_2_DIV_OH_2N_Splice17_13-23-37-946.txt Node
Date: Sat Mar 07 13:23:37 EST 2020
User: sa697716
Spectrometer: NQ5500242
Trigger mode: 0
Integration Time (sec): 1.450000E-1
Scans to average: 20
Nonlinearity correction enabled: false
Boxcar width: 5
Storing dark spectrum: false
XAxis mode: Wavelengths
Number of Pixels in Spectrum: 512
>>>>>Begin Spectral Data<<<<<
187.83	219.91
188.298	229.72
188.766	209.44
189.233	160.56
189.701	158.42
190.169	182.75
190.636	192.26
191.104	269.08
191.571	21.21
192.039	69.52
192.506	-54.45
192.974	141
193.441	92.89
193.908	82.72
194.375	38.36
194.842	-22.15
195.31	16.17
195.777	167.11
196.244	70.54
196.711	53.01
197.177	53.68
197.644	50.89
198.111	49.86
198.578	50.16
199.045	49.81
199.511	49.97
199.978	49.82
200.445	49.81
200.911	49.64
201.378	49.49
201.844	49.32
202.31	49.25
202.777	49.19
203.243	48.99
203.709	48.71
204.176	48.36
204.642	47.83
205.108	47.67
205.574	47.21
206.04	46.16
206.506	45.72
206.972	45.41
207.438	44.74
207.903	43.92
208.369	43.07
208.835	41.93
209.301	40.95
209.766	39.8
210.232	38.76
210.697	37.3
211.163	36.58
211.628	35.44
212.094	34.49
212.559	33.75
213.024	33.08
213.49	32.47
213.955	31.8
214.42	30.84
214.885	29.82
215.35	28.75
215.815	27.6
216.28	25.75
216.745	23.58
217.21	21.48
217.675	19.48
218.14	17.85
218.604	16.33
219.069	15.09
219.534	14.13
219.998	13.3
220.463	12.53
220.927	11.9
221.392	11.37
221.856	11.01
222.32	10.63
222.785	10.33
223.249	10.04
223.713	9.8
224.177	9.6
224.642	9.39
225.106	9.17
225.57	8.97
226.034	8.79
226.497	8.64
226.961	8.47
227.425	8.34
227.889	8.2
228.353	8.07
228.816	7.92
229.28	7.79
229.744	7.67
230.207	7.56
230.671	7.45
231.134	7.34
231.597	7.26
232.061	7.17
232.524	7.06
232.987	6.97
233.45	6.88
233.914	6.81
234.377	6.72
234.84	6.64
235.303	6.58
235.766	6.51
236.229	6.43
236.691	6.34
237.154	6.28
237.617	6.23
238.08	6.16
238.542	6.09
239.005	6.04
239.468	5.97
239.93	5.92
240.393	5.86
240.855	5.8
241.317	5.74
241.78	5.69
242.242	5.61
242.704	5.56
243.166	5.51
243.629	5.46
244.091	5.4
244.553	5.36
245.015	5.29
245.477	5.24
245.939	5.2
246.4	5.15
246.862	5.1
247.324	5.07
247.786	5.01
248.247	4.96
248.709	4.91
249.17	4.85
249.632	4.81
250.093	4.78
250.555	4.73
251.016	4.69
251.477	4.64
251.939	4.62
252.4	4.58
252.861	4.55
253.322	4.52
253.783	4.5
254.244	4.48
254.705	4.44
255.166	4.41
255.627	4.38
256.088	4.36
256.549	4.33
257.009	4.3
257.47	4.26
257.931	4.22
258.391	4.18
258.852	4.13
259.312	4.1
259.773	4.07
260.233	4.04
260.694	4
261.154	3.97
261.614	3.94
262.074	3.9
262.534	3.87
262.994	3.85
263.455	3.83
263.915	3.81
264.374	3.78
264.834	3.76
265.294	3.73
265.754	3.72
266.214	3.69
266.673	3.67
267.133	3.66
267.593	3.64
268.052	3.63
268.512	3.61
268.971	3.6
269.431	3.59
269.89	3.57
270.349	3.56
270.809	3.54
271.268	3.53
271.727	3.51
272.186	3.5
272.645	3.49
273.104	3.48
273.563	3.47
274.022	3.45
274.481	3.44
274.94	3.43
275.399	3.42
275.857	3.41
276.316	3.4
276.775	3.39
277.233	3.38
277.692	3.37
278.15	3.37
278.609	3.36
279.067	3.35
279.525	3.35
279.984	3.34
280.442	3.34
280.9	3.34
281.358	3.34
281.816	3.34
282.274	3.33
282.732	3.33
283.19	3.32
283.648	3.31
284.106	3.3
284.564	3.29
285.021	3.29
285.479	3.28
285.937	3.27
286.394	3.27
286.852	3.25
287.309	3.24
287.767	3.22
288.224	3.21
288.682	3.19
289.139	3.18
289.596	3.16
290.053	3.13
290.511	3.12
290.968	3.11
291.425	3.09
291.882	3.07
292.339	3.06
292.796	3.05
293.252	3.04
293.709	3.03
294.166	3.02
294.623	3.01
295.079	3.01
295.536	3
295.992	2.99
296.449	2.98
296.905	2.98
297.362	2.97
297.818	2.97
298.274	2.97
298.731	2.96
299.187	2.95
299.643	2.95
300.099	2.94
300.555	2.93
301.011	2.93
301.467	2.92
301.923	2.91
302.379	2.91
302.835	2.91
303.291	2.9
303.746	2.9
304.202	2.9
304.658	2.9
305.113	2.89
305.569	2.89
306.024	2.89
306.479	2.88
306.935	2.88
307.39	2.88
307.845	2.88
308.301	2.88
308.756	2.88
309.211	2.88
309.666	2.88
310.121	2.88
310.576	2.88
311.031	2.88
311.486	2.89
311.94	2.89
312.395	2.89
312.85	2.9
313.305	2.89
313.759	2.88
314.214	2.89
314.668	2.88
315.123	2.88
315.577	2.88
316.032	2.88
316.486	2.87
316.94	2.86
317.394	2.85
317.849	2.83
318.303	2.82
318.757	2.82
319.211	2.81
319.665	2.79
320.119	2.78
320.572	2.77
321.026	2.76
321.48	2.74
321.934	2.73
322.387	2.73
322.841	2.72
323.295	2.72
323.748	2.72
324.202	2.72
324.655	2.72
325.108	2.72
325.562	2.73
326.015	2.73
326.468	2.73
326.921	2.74
327.374	2.73
327.827	2.74
328.28	2.73
328.733	2.73
329.186	2.72
329.639	2.72
330.092	2.72
330.545	2.71
330.997	2.71
331.45	2.71
331.903	2.72
332.355	2.72
332.808	2.72
333.26	2.72
333.713	2.72
334.165	2.73
334.617	2.74
335.069	2.73
335.522	2.75
335.974	2.75
336.426	2.75
336.878	2.74
337.33	2.74
337.782	2.74
338.234	2.74
338.686	2.74
339.137	2.74
339.589	2.74
340.041	2.74
340.493	2.73
340.944	2.71
341.396	2.7
341.847	2.7
342.299	2.69
342.75	2.67
343.201	2.66
343.653	2.64
344.104	2.62
344.555	2.61
345.006	2.59
345.457	2.58
345.908	2.58
346.359	2.57
346.81	2.56
347.261	2.55
347.712	2.55
348.163	2.54
348.613	2.55
349.064	2.55
349.515	2.55
349.965	2.55
350.416	2.55
350.866	2.55
351.317	2.54
351.767	2.54
352.217	2.54
352.668	2.54
353.118	2.54
353.568	2.53
354.018	2.53
354.468	2.53
354.918	2.54
355.368	2.54
355.818	2.55
356.268	2.55
356.718	2.56
357.168	2.56
357.617	2.56
358.067	2.55
358.517	2.57
358.966	2.58
359.416	2.58
359.865	2.57
360.315	2.57
360.764	2.57
361.213	2.57
361.663	2.56
362.112	2.56
362.561	2.58
363.01	2.58
363.459	2.56
363.908	2.56
364.357	2.56
364.806	2.56
365.255	2.56
365.703	2.57
366.152	2.57
366.601	2.59
367.05	2.59
367.498	2.58
367.947	2.59
368.395	2.6
368.844	2.6
369.292	2.6
369.74	2.61
370.189	2.62
370.637	2.62
371.085	2.62
371.533	2.63
371.981	2.63
372.429	2.64
372.877	2.65
373.325	2.66
373.773	2.67
374.221	2.67
374.669	2.67
375.116	2.67
375.564	2.67
376.012	2.68
376.459	2.69
376.907	2.7
377.354	2.71
377.801	2.73
378.249	2.74
378.696	2.74
379.143	2.76
379.591	2.78
380.038	2.79
380.485	2.8
380.932	2.81
381.379	2.82
381.826	2.84
382.273	2.85
382.72	2.84
383.166	2.86
383.613	2.87
384.06	2.89
384.506	2.89
384.953	2.9
385.4	2.92
385.846	2.94
386.292	2.95
386.739	2.97
387.185	2.99
387.631	3.02
388.078	3.03
388.524	3.05
388.97	3.06
389.416	3.08
389.862	3.1
390.308	3.12
390.754	3.14
391.2	3.16
391.645	3.17
392.091	3.19
392.537	3.21
392.983	3.21
393.428	3.23
393.874	3.25
394.319	3.27
394.765	3.29
395.21	3.29
395.655	3.31
396.101	3.33
396.546	3.35
396.991	3.37
397.436	3.39
397.881	3.42
398.326	3.44
398.771	3.46
399.216	3.47
399.661	3.48
400.106	3.5
400.551	3.51
400.995	3.51
401.44	3.51
401.885	3.51
402.329	3.52
402.774	3.52
403.218	3.54
403.663	3.55
404.107	3.56
404.551	3.56
404.995	3.56
405.44	3.56
405.884	3.56
406.328	3.57
406.772	3.57
407.216	3.58
407.66	3.58
408.104	3.57
408.547	3.57
408.991	3.57
409.435	3.58
409.879	3.61
410.322	3.62
410.766	3.63
411.209	3.63
411.653	3.65
412.096	3.66
412.54	3.67
412.983	3.68
413.426	3.71
413.869	3.72
414.312	3.73
414.756	3.74
415.199	3.75
415.642	3.76
416.085	3.76
416.527	3.76
416.97	3.75
417.413	3.74
417.856	3.74
418.298	3.72
418.741	3.72
419.184	3.72
419.626	3.71
420.069	3.72
420.511	3.73
420.953	3.73
421.396	3.73
421.838	3.75
422.28	3.76
422.722	3.79
423.164	3.8
423.606	3.8
424.048	3.8
424.49	3.8
424.932	3.8
425.374	3.77
425.816	3.75
426.258	3.73
426.699	3.72
427.141	3.71
427.582	3.71
428.024	3.71
428.465	3.71
428.907	3.7
429.348	3.68
429.789	3.69
430.231	3.71
430.672	3.74
431.113	3.77
431.554	3.78
431.995	3.81
432.436	3.81
432.877	3.82
433.318	3.84
433.759	3.88
434.2	3.9
434.64	3.93
435.081	3.93
435.522	3.94
435.962	3.95
436.403	3.97
436.843	3.98
437.284	3.97
437.724	3.98
438.164	3.97
438.604	3.96
439.045	3.97
439.485	3.97
439.925	3.97
440.365	3.97
440.805	3.98
441.245	3.99
441.685	4
442.125	4.03
442.564	4.03
443.004	4.03
443.444	4.05
443.883	4.07
444.323	4.06
444.762	4.07
445.202	4.08
445.641	4.1
446.081	4.09
446.52	4.09
446.959	4.11
447.398	4.12
447.837	4.13
448.276	4.13
448.716	4.13
449.154	4.16
449.593	4.18
450.032	4.18
450.471	4.17
450.91	4.17
451.349	4.19
451.787	4.17
452.226	4.16
452.664	4.16
453.103	4.15
453.541	4.15
453.98	4.15
454.418	4.13
454.856	4.12
455.295	4.1
455.733	4.07
456.171	4.05
456.609	4.04
457.047	4.03
457.485	4.02
457.923	4.01
458.361	4
458.798	4
459.236	3.99
459.674	3.98
460.111	3.99
460.549	4
460.987	4.02
461.424	4.02
461.862	4.03
462.299	4.03
462.736	4.04
463.173	4.05
463.611	4.05
464.048	4.06
464.485	4.08
464.922	4.08
465.359	4.08
465.796	4.08
466.233	4.09
466.67	4.09
467.106	4.1
467.543	4.1
467.98	4.09
468.416	4.07
468.853	4.06
469.29	4.05
469.726	4.06
470.162	4.06
470.599	4.05
471.035	4.03
471.471	4.01
471.907	4
472.344	4
472.78	4
473.216	4
473.652	4
474.088	3.99
474.523	3.99
474.959	3.97
475.395	3.95
475.831	3.94
476.266	3.94
476.702	3.92
477.138	3.91
477.573	3.91
478.008	3.9
478.444	3.89
478.879	3.9
479.314	3.89
479.75	3.89
480.185	3.88
480.62	3.87
481.055	3.86
481.49	3.86
481.925	3.86
482.36	3.86
482.795	3.84
483.229	3.83
483.664	3.82
484.099	3.81
484.534	3.81
484.968	3.81
485.403	3.82
485.837	3.82
486.271	3.83
486.706	3.82
487.14	3.82
487.574	3.83
488.009	3.84
488.443	3.85
488.877	3.87
489.311	3.88
489.745	3.9
490.179	3.92
490.613	3.95
491.046	3.96
491.48	3.99
491.914	4.01
492.348	4.04
492.781	4.07
493.215	4.1
493.648	4.12
494.082	4.15
494.515	4.18
494.948	4.22
495.382	4.25
495.815	4.29
496.248	4.34
496.681	4.39
497.114	4.43
497.547	4.48
497.98	4.54
498.413	4.6
498.846	4.66
499.279	4.72
499.711	4.77
500.144	4.85
500.577	4.92
501.009	4.98
501.442	5.07
501.874	5.15
502.306	5.25
502.739	5.35
503.171	5.44
503.603	5.53
504.036	5.65
504.468	5.76
504.9	5.87
505.332	5.99
505.764	6.12
506.196	6.25
506.627	6.39
507.059	6.53
507.491	6.66
507.923	6.83
508.354	6.99
508.786	7.16
509.217	7.33
509.649	7.51
510.08	7.7
510.512	7.9
510.943	8.08
511.374	8.28
511.805	8.47
512.237	8.68
512.668	8.88
513.099	9.09
513.53	9.31
513.961	9.55
514.391	9.78
514.822	10.03
515.253	10.26
515.684	10.51
516.114	10.76
516.545	11.01
516.975	11.26
517.406	11.52
517.836	11.78
518.267	12.04
518.697	12.29
519.127	12.54
519.558	12.79
519.988	13.05
520.418	13.29
520.848	13.54
521.278	13.79
521.708	14.19
522.138	14.43
522.567	14.67
522.997	14.9
523.427	15.12
523.857	15.35
524.286	15.55
524.716	15.76
525.145	15.95
525.575	16.16
526.004	16.35
526.433	16.38
526.863	16.55
527.292	16.72
527.721	16.89
528.15	17.06
528.579	17.21
529.008	17.37
529.437	17.51
529.866	17.66
530.295	17.79
530.724	17.91
531.152	18.03
531.581	18.15
532.01	18.27
532.438	18.38
532.867	18.48
533.295	18.58
533.723	18.66
534.152	18.74
534.58	18.82
535.008	18.9
535.436	18.98
535.865	19.04
536.293	19.11
536.721	19.15
537.149	19.2
537.576	19.26
538.004	19.32
538.432	19.36
538.86	19.42
539.287	19.45
539.715	19.49
540.143	19.51
540.57	19.55
540.998	19.57
541.425	19.6
541.852	19.63
542.28	19.66
542.707	19.69
543.134	19.72
543.561	19.75
543.988	19.79
544.415	19.81
544.842	19.83
545.269	19.87
545.696	19.91
546.123	19.94
546.549	19.96
546.976	19.98
547.403	20
547.829	20.01
548.256	20.03
548.682	20.04
549.108	20.05
549.535	20.09
549.961	20.1
550.387	20.11
550.813	20.11
551.24	20.11
551.666	20.11
552.092	20.1
552.518	20.09
552.943	20.06
553.369	20.04
553.795	20.03
554.221	19.99
554.646	19.94
555.072	19.91
555.498	19.85
555.923	19.81
556.349	19.76
556.774	19.7
557.199	19.64
557.625	19.57
558.05	19.52
558.475	19.44
558.9	19.39
559.325	19.32
559.75	19.23
560.175	19.15
560.6	19.05
561.025	18.96
561.449	18.87
561.874	18.76
562.299	18.67
562.723	18.54
563.148	18.41
563.572	18.26
563.997	18.13
564.421	17.99
564.846	17.84
565.27	17.72
565.694	17.59
566.118	17.44
566.542	17.31
566.966	17.16
567.39	17.02
567.814	16.89
568.238	16.76
568.662	16.63
569.086	16.5
569.509	16.37
569.933	16.22
570.357	16.08
570.78	15.94
571.204	15.8
571.627	15.68
572.05	15.55
572.474	15.44
572.897	15.32
573.32	15.2
573.743	15.09
574.166	14.98
574.589	14.87
575.012	14.77
575.435	14.66
575.858	14.57
576.281	14.47
576.704	14.38
577.126	14.28
577.549	14.18
577.972	14.09
578.394	14
578.817	13.92
579.239	13.83
579.661	13.76
580.084	13.69
580.506	13.61
580.928	13.54
581.35	13.47
581.772	13.39
582.194	13.32
582.616	13.25
583.038	13.18
583.46	13.11
583.882	13.04
584.303	12.96
584.725	12.88
585.147	12.81
585.568	12.75
585.99	12.69
586.411	12.64
586.833	12.58
587.254	12.52
587.675	12.47
588.096	12.41
588.518	12.36
588.939	12.33
589.36	12.29
589.781	12.25
590.202	12.22
590.623	12.18
591.043	12.13
591.464	12.09
591.885	12.05
592.305	12.01
592.726	11.99
593.147	11.95
593.567	11.91
593.987	11.87
594.408	11.84
594.828	11.8
595.248	11.76
595.669	11.74
596.089	11.71
596.509	11.69
596.929	11.66
597.349	11.61
597.769	11.59
598.189	11.55
598.608	11.53
599.028	11.5
599.448	11.46
599.867	11.43
600.287	11.39
600.706	11.36
601.126	11.31
601.545	11.28
601.965	11.24
602.384	11.2
602.803	11.16
603.222	11.11
603.641	11.05
604.061	11.02
604.48	10.96
604.898	10.9
605.317	10.85
605.736	10.8
606.155	10.74
606.574	10.68
606.992	10.62
607.411	10.57
607.829	10.49
608.248	10.42
608.666	10.35
609.085	10.29
609.503	10.24
609.921	10.19
610.339	10.13
610.758	10.07
611.176	10
611.594	9.93
612.012	9.87
612.43	9.83
612.847	9.78
613.265	9.72
613.683	9.67
614.101	9.59
614.518	9.53
614.936	9.47
615.353	9.41
615.771	9.36
616.188	9.32
616.606	9.26
617.023	9.21
617.44	9.18
617.857	9.13
618.274	9.08
618.691	9.05
619.108	9
619.525	8.97
619.942	8.94
620.359	8.91
620.776	8.88
621.192	8.85
621.609	8.83
622.026	8.8
622.442	8.78
622.859	8.77
623.275	8.75
623.691	8.73
624.108	8.71
624.524	8.69
624.94	8.69
625.356	8.69
625.772	8.67
626.188	8.66
626.604	8.65
627.02	8.65
627.436	8.64
627.852	8.64
628.268	8.64
628.683	8.63
629.099	8.63
629.514	8.61
629.93	8.59
630.345	8.57
630.761	8.54
631.176	8.51
631.591	8.47
632.007	8.44
632.422	8.39
632.837	8.34
633.252	8.29
633.667	8.23
634.082	8.17
634.497	8.12
634.911	8.05
635.326	7.98
635.741	7.91
636.155	7.83
636.57	7.75
636.984	7.67
637.399	7.59
637.813	7.49
638.228	7.38
638.642	7.28
639.056	7.18
639.47	7.09
639.884	7
640.298	6.9
640.712	6.8
641.126	6.72
641.54	6.62
641.954	6.51
642.368	6.44
642.781	6.36
643.195	6.29
643.609	6.21
644.022	6.12
644.436	6.05
644.849	5.97
645.262	5.91
645.676	5.84
646.089	5.77
646.502	5.72
646.915	5.67
647.328	5.63
647.741	5.58
648.154	5.53
648.567	5.5
648.98	5.47
649.393	5.44
649.805	5.42
650.218	5.39
650.631	5.37
651.043	5.35
651.456	5.33
651.868	5.3
652.28	5.27
652.693	5.26
653.105	5.24
653.517	5.21
653.929	5.18
654.341	5.14
654.753	5.1
655.165	5.07
655.577	5.03
655.989	5
656.401	4.96
656.813	4.92
657.224	4.87
657.636	4.8
658.047	4.77
658.459	4.72
658.87	4.68
659.282	4.63
659.693	4.57
660.104	4.51
660.515	4.46
660.926	4.42
661.338	4.37
661.749	4.33
662.159	4.3
662.57	4.25
662.981	4.21
663.392	4.16
663.803	4.13
664.213	4.1
664.624	4.08
665.035	4.06
665.445	4.03
665.855	4.01
666.266	3.99
666.676	3.97
667.086	3.96
667.497	3.95
667.907	3.95
668.317	3.95
668.727	3.95
669.137	3.95
669.547	3.95
669.956	3.95
670.366	3.95
670.776	3.95
671.186	3.96
671.595	3.97
672.005	3.98
672.414	3.99
672.824	4
673.233	4.01
673.642	4.02
674.052	4.04
674.461	4.06
674.87	4.08
675.279	4.11
675.688	4.14
676.097	4.17
676.506	4.2
676.915	4.23
677.323	4.26
677.732	4.3
678.141	4.34
678.549	4.37
678.958	4.4
679.366	4.44
679.775	4.48
680.183	4.52
680.592	4.59
681	4.65
681.408	4.71
681.816	4.77
682.224	4.85
682.632	4.93
683.04	5.02
683.448	5.13
683.856	5.23
684.264	5.35
684.671	5.48
685.079	5.62
685.487	5.77
685.894	5.95
686.302	6.15
686.709	6.36
687.116	6.59
687.524	6.85
687.931	7.13
688.338	7.43
688.745	7.76
689.152	8.11
689.559	8.49
689.966	8.89
690.373	9.32
690.78	9.76
691.187	10.21
691.593	10.68
692	11.16
692.407	11.64
692.813	12.17
693.22	12.68
693.626	13.2
694.032	13.73
694.439	14.27
694.845	14.83
695.251	15.37
695.657	15.92
696.063	16.48
696.469	17.05
696.875	17.6
697.281	18.15
697.687	18.71
698.093	19.26
698.498	19.81
698.904	20.35
699.31	20.88
699.715	21.43
700.12	21.95
700.526	22.48
700.931	22.99
701.337	23.51
701.742	24
702.147	24.49
702.552	24.98
702.957	25.45
703.362	25.92
703.767	26.37
704.172	26.83
704.577	27.29
704.981	27.73
705.386	28.18
705.791	28.61
706.195	29.05
706.6	29.49
707.004	29.89
707.408	30.29
707.813	30.71
708.217	31.11
708.621	31.5
709.025	31.86
709.43	32.24
709.834	32.62
710.237	32.98
710.641	33.33
711.045	33.66
711.449	34.03
711.853	34.39
712.256	34.71
712.66	35.03
713.064	35.35
713.467	35.69
713.87	36.03
714.274	36.32
714.677	36.62
715.08	36.91
715.484	37.23
715.887	37.53
716.29	37.8
716.693	38.11
717.096	38.4
717.499	38.66
717.901	38.94
718.304	39.19
718.707	39.47
719.109	39.74
719.512	39.98
719.915	40.22
720.317	40.45
720.719	40.67
721.122	40.88
721.524	41.11
721.926	41.35
722.328	41.59
722.731	41.79
723.133	41.98
723.535	42.17
723.937	42.4
724.338	42.57
724.74	42.76
725.142	43.04
725.544	43.2
725.945	43.39
726.347	43.52
726.748	43.63
727.15	43.77
727.551	43.93
727.952	44.03
728.354	44.18
728.755	44.29
729.156	44.39
729.557	44.41
729.958	44.52
730.359	44.6
730.76	44.72
731.161	44.87
731.562	44.97
731.962	45.04
732.363	45.14
732.763	45.22
733.164	45.29
733.564	45.4
733.965	45.48
734.365	45.58
734.766	45.66
735.166	45.74
735.566	45.79
735.966	45.88
736.366	45.95
736.766	46
737.166	46.06
737.566	46.14
737.966	46.19
738.365	46.25
738.765	46.31
739.165	46.35
739.564	46.4
739.964	46.43
740.363	46.43
740.763	46.48
741.162	46.55
741.561	46.59
741.96	46.61
742.36	46.64
742.759	46.69
743.158	46.72
743.557	46.72
743.955	46.77
744.354	46.81
744.753	46.87
745.152	46.93
745.55	46.94
745.949	46.96
746.348	47.01
746.746	47
747.144	47.04
747.543	47.04
747.941	47.09
748.339	47.09
748.737	47.08
749.136	47.09
749.534	47.06
749.932	47.07
750.33	47.08
750.727	47.1
751.125	47.13
751.523	47.11
751.921	47.14
752.318	47.15
752.716	47.16
753.113	47.18
753.511	47.2
753.908	47.24
754.305	47.26
754.703	47.27
755.1	47.27
755.497	47.28
755.894	47.3
756.291	47.32
756.688	47.33
757.085	47.33
757.482	47.34
757.878	47.35
758.275	47.32
758.672	47.32
759.068	47.34
759.465	47.33
759.861	47.34
760.258	47.35
760.654	47.32
761.05	47.34
761.447	47.35
761.843	47.35
762.239	47.35
762.635	47.36
763.031	47.35
763.427	47.35
763.822	47.34
764.218	47.34
764.614	47.35
765.01	47.36
765.405	47.34
765.801	47.32
766.196	47.33
766.592	47.32
766.987	47.35
767.382	47.35
767.778	47.36
768.173	47.35
768.568	47.34
768.963	47.33
769.358	47.33
769.753	47.33
770.148	47.34
770.542	47.34
770.937	47.35
771.332	47.34
771.726	47.35
772.121	47.33
772.515	47.36
772.91	47.36
773.304	47.36
773.699	47.37
774.093	47.34
774.487	47.34
774.881	47.36
775.275	47.35
775.669	47.32
776.063	47.3
776.457	47.3
776.851	47.28
777.245	47.26
777.638	47.25
778.032	47.25
778.425	47.28
778.819	47.28
779.212	47.28
779.606	47.29
779.999	47.29
780.392	47.32
780.786	47.3
781.179	47.32
781.572	47.37
781.965	47.39
782.358	47.42
782.751	47.41
783.143	47.4
783.536	47.41
783.929	47.4
784.322	47.44
784.714	47.45
785.107	47.5
