Data from N_2_DIV_PA_2N_Splice17_13-38-46-173.txt Node
Date: Sat Mar 07 13:38:46 EST 2020
User: sa697716
Spectrometer: NQ5500242
Trigger mode: 0
Integration Time (sec): 1.450000E-1
Scans to average: 20
Nonlinearity correction enabled: false
Boxcar width: 5
Storing dark spectrum: false
XAxis mode: Wavelengths
Number of Pixels in Spectrum: 512
>>>>>Begin Spectral Data<<<<<
187.83	173.2
188.298	195.23
188.766	169.1
189.233	138.75
189.701	145.61
190.169	187.93
190.636	202.66
191.104	330.92
191.571	260.39
192.039	-100.15
192.506	-431.32
192.974	57.09
193.441	161.51
193.908	13.16
194.375	21.91
194.842	-0.33
195.31	129.47
195.777	341.24
196.244	105.79
196.711	87.89
197.177	87.09
197.644	85.41
198.111	85.16
198.578	84.74
199.045	84.99
199.511	84.67
199.978	84.47
200.445	84.36
200.911	84.32
201.378	84.21
201.844	83.67
202.31	82.88
202.777	82.52
203.243	82.35
203.709	81.99
204.176	81.41
204.642	80.9
205.108	80.46
205.574	79.59
206.04	78.5
206.506	77.66
206.972	77.22
207.438	76.29
207.903	75.15
208.369	73.49
208.835	71.61
209.301	69.79
209.766	67.55
210.232	65.3
210.697	63.22
211.163	61.12
211.628	59.34
212.094	57.35
212.559	55.86
213.024	54.36
213.49	52.8
213.955	51.47
214.42	49.8
214.885	48.06
215.35	45.85
215.815	43.15
216.28	39.77
216.745	35.68
217.21	31.75
217.675	27.94
218.14	24.67
218.604	21.84
219.069	19.4
219.534	17.49
219.998	15.83
220.463	14.51
220.927	13.26
221.392	12.36
221.856	11.61
222.32	10.95
222.785	10.45
223.249	9.99
223.713	9.55
224.177	9.21
224.642	8.87
225.106	8.52
225.57	8.2
226.034	7.97
226.497	7.73
226.961	7.53
227.425	7.33
227.889	7.11
228.353	6.92
228.816	6.77
229.28	6.61
229.744	6.44
230.207	6.32
230.671	6.19
231.134	6.05
231.597	5.94
232.061	5.81
232.524	5.72
232.987	5.62
233.45	5.53
233.914	5.44
234.377	5.35
234.84	5.27
235.303	5.21
235.766	5.15
236.229	5.1
236.691	5.03
237.154	4.98
237.617	4.92
238.08	4.87
238.542	4.81
239.005	4.75
239.468	4.71
239.93	4.68
240.393	4.64
240.855	4.58
241.317	4.52
241.78	4.48
242.242	4.42
242.704	4.4
243.166	4.34
243.629	4.32
244.091	4.28
244.553	4.24
245.015	4.19
245.477	4.14
245.939	4.11
246.4	4.08
246.862	4.05
247.324	4.01
247.786	3.96
248.247	3.93
248.709	3.88
249.17	3.84
249.632	3.81
250.093	3.78
250.555	3.76
251.016	3.73
251.477	3.69
251.939	3.67
252.4	3.65
252.861	3.63
253.322	3.62
253.783	3.6
254.244	3.59
254.705	3.56
255.166	3.54
255.627	3.51
256.088	3.49
256.549	3.47
257.009	3.44
257.47	3.4
257.931	3.37
258.391	3.33
258.852	3.29
259.312	3.26
259.773	3.23
260.233	3.2
260.694	3.17
261.154	3.14
261.614	3.11
262.074	3.07
262.534	3.05
262.994	3.03
263.455	3
263.915	2.98
264.374	2.95
264.834	2.93
265.294	2.91
265.754	2.89
266.214	2.87
266.673	2.85
267.133	2.84
267.593	2.83
268.052	2.81
268.512	2.81
268.971	2.8
269.431	2.79
269.89	2.78
270.349	2.77
270.809	2.77
271.268	2.76
271.727	2.76
272.186	2.75
272.645	2.75
273.104	2.74
273.563	2.74
274.022	2.73
274.481	2.74
274.94	2.74
275.399	2.73
275.857	2.73
276.316	2.73
276.775	2.73
277.233	2.73
277.692	2.73
278.15	2.73
278.609	2.74
279.067	2.74
279.525	2.73
279.984	2.73
280.442	2.73
280.9	2.74
281.358	2.75
281.816	2.75
282.274	2.76
282.732	2.76
283.19	2.76
283.648	2.76
284.106	2.76
284.564	2.76
285.021	2.77
285.479	2.77
285.937	2.76
286.394	2.76
286.852	2.75
287.309	2.75
287.767	2.74
288.224	2.73
288.682	2.72
289.139	2.7
289.596	2.69
290.053	2.66
290.511	2.64
290.968	2.63
291.425	2.61
291.882	2.6
292.339	2.58
292.796	2.56
293.252	2.56
293.709	2.55
294.166	2.55
294.623	2.55
295.079	2.55
295.536	2.55
295.992	2.55
296.449	2.55
296.905	2.55
297.362	2.55
297.818	2.54
298.274	2.54
298.731	2.53
299.187	2.52
299.643	2.52
300.099	2.52
300.555	2.51
301.011	2.51
301.467	2.51
301.923	2.5
302.379	2.51
302.835	2.52
303.291	2.52
303.746	2.53
304.202	2.53
304.658	2.54
305.113	2.54
305.569	2.55
306.024	2.56
306.479	2.56
306.935	2.56
307.39	2.57
307.845	2.58
308.301	2.59
308.756	2.59
309.211	2.59
309.666	2.61
310.121	2.61
310.576	2.62
311.031	2.63
311.486	2.63
311.94	2.65
312.395	2.65
312.85	2.65
313.305	2.65
313.759	2.65
314.214	2.65
314.668	2.65
315.123	2.64
315.577	2.65
316.032	2.64
316.486	2.64
316.94	2.63
317.394	2.63
317.849	2.62
318.303	2.61
318.757	2.6
319.211	2.59
319.665	2.57
320.119	2.56
320.572	2.55
321.026	2.55
321.48	2.54
321.934	2.53
322.387	2.53
322.841	2.53
323.295	2.54
323.748	2.54
324.202	2.54
324.655	2.55
325.108	2.57
325.562	2.57
326.015	2.57
326.468	2.57
326.921	2.58
327.374	2.58
327.827	2.58
328.28	2.58
328.733	2.59
329.186	2.59
329.639	2.59
330.092	2.59
330.545	2.6
330.997	2.6
331.45	2.62
331.903	2.63
332.355	2.65
332.808	2.64
333.26	2.64
333.713	2.65
334.165	2.65
334.617	2.67
335.069	2.65
335.522	2.66
335.974	2.67
336.426	2.66
336.878	2.66
337.33	2.66
337.782	2.66
338.234	2.67
338.686	2.68
339.137	2.69
339.589	2.67
340.041	2.68
340.493	2.67
340.944	2.65
341.396	2.63
341.847	2.61
342.299	2.6
342.75	2.59
343.201	2.56
343.653	2.55
344.104	2.53
344.555	2.52
345.006	2.5
345.457	2.5
345.908	2.5
346.359	2.5
346.81	2.49
347.261	2.49
347.712	2.49
348.163	2.48
348.613	2.49
349.064	2.49
349.515	2.5
349.965	2.51
350.416	2.5
350.866	2.51
351.317	2.5
351.767	2.51
352.217	2.51
352.668	2.52
353.118	2.52
353.568	2.52
354.018	2.52
354.468	2.53
354.918	2.52
355.368	2.53
355.818	2.53
356.268	2.54
356.718	2.55
357.168	2.55
357.617	2.54
358.067	2.54
358.517	2.55
358.966	2.55
359.416	2.55
359.865	2.55
360.315	2.56
360.764	2.56
361.213	2.55
361.663	2.54
362.112	2.55
362.561	2.56
363.01	2.56
363.459	2.54
363.908	2.54
364.357	2.54
364.806	2.55
365.255	2.54
365.703	2.55
366.152	2.57
366.601	2.58
367.05	2.58
367.498	2.58
367.947	2.6
368.395	2.61
368.844	2.61
369.292	2.61
369.74	2.61
370.189	2.62
370.637	2.61
371.085	2.61
371.533	2.6
371.981	2.61
372.429	2.61
372.877	2.6
373.325	2.61
373.773	2.61
374.221	2.61
374.669	2.61
375.116	2.6
375.564	2.61
376.012	2.62
376.459	2.62
376.907	2.63
377.354	2.64
377.801	2.66
378.249	2.67
378.696	2.67
379.143	2.68
379.591	2.69
380.038	2.71
380.485	2.71
380.932	2.72
381.379	2.73
381.826	2.74
382.273	2.75
382.72	2.75
383.166	2.77
383.613	2.79
384.06	2.8
384.506	2.82
384.953	2.84
385.4	2.87
385.846	2.91
386.292	2.93
386.739	2.96
387.185	3
387.631	3.04
388.078	3.07
388.524	3.11
388.97	3.13
389.416	3.18
389.862	3.23
390.308	3.28
390.754	3.34
391.2	3.41
391.645	3.47
392.091	3.53
392.537	3.58
392.983	3.65
393.428	3.74
393.874	3.85
394.319	3.97
394.765	4.1
395.21	4.21
395.655	4.34
396.101	4.48
396.546	4.63
396.991	4.81
397.436	5
397.881	5.2
398.326	5.39
398.771	5.57
399.216	5.73
399.661	5.88
400.106	6.02
400.551	6.12
400.995	6.22
401.44	6.32
401.885	6.42
402.329	6.53
402.774	6.63
403.218	6.75
403.663	6.87
404.107	7.01
404.551	7.14
404.995	7.28
405.44	7.41
405.884	7.54
406.328	7.69
406.772	7.84
407.216	8
407.66	8.16
408.104	8.28
408.547	8.42
408.991	8.55
409.435	8.68
409.879	8.83
410.322	8.99
410.766	9.18
411.209	9.35
411.653	9.51
412.096	9.66
412.54	9.79
412.983	9.95
413.426	10.12
413.869	10.25
414.312	10.41
414.756	10.55
415.199	10.67
415.642	10.76
416.085	10.85
416.527	10.9
416.97	10.93
417.413	10.95
417.856	10.95
418.298	10.94
418.741	10.96
419.184	11
419.626	11.05
420.069	11.1
420.511	11.18
420.953	11.27
421.396	11.38
421.838	11.5
422.28	11.65
422.722	11.81
423.164	11.94
423.606	12.06
424.048	12.14
424.49	12.16
424.932	12.13
425.374	12
425.816	11.81
426.258	11.64
426.699	11.52
427.141	11.51
427.582	11.59
428.024	11.74
428.465	11.9
428.907	12.03
429.348	12.18
429.789	12.39
430.231	12.74
430.672	13.18
431.113	13.65
431.554	14.11
431.995	14.47
432.436	14.74
432.877	14.95
433.318	15.15
433.759	15.38
434.2	15.64
434.64	15.92
435.081	16.18
435.522	16.41
435.962	16.6
436.403	16.77
436.843	16.92
437.284	17.07
437.724	17.24
438.164	17.44
438.604	17.68
439.045	17.93
439.485	18.15
439.925	18.34
440.365	18.53
440.805	18.68
441.245	18.83
441.685	18.96
442.125	19.11
442.564	19.29
443.004	19.45
443.444	19.64
443.883	19.82
444.323	20
444.762	20.18
445.202	20.38
445.641	20.64
446.081	20.93
446.52	21.22
446.959	21.51
447.398	21.73
447.837	21.87
448.276	21.93
448.716	21.99
449.154	22.04
449.593	22.08
450.032	22.07
450.471	22
450.91	21.94
451.349	21.87
451.787	21.8
452.226	21.75
452.664	21.75
453.103	21.75
453.541	21.74
453.98	21.72
454.418	21.67
454.856	21.63
455.295	21.58
455.733	21.53
456.171	21.51
456.609	21.5
457.047	21.48
457.485	21.49
457.923	21.57
458.361	21.66
458.798	21.78
459.236	21.89
459.674	22
460.111	22.14
460.549	22.26
460.987	22.38
461.424	22.54
461.862	22.69
462.299	22.8
462.736	22.91
463.173	23.06
463.611	23.21
464.048	23.42
464.485	23.66
464.922	23.91
465.359	24.15
465.796	24.4
466.233	24.61
466.67	24.85
467.106	25.16
467.543	25.48
467.98	25.77
468.416	26.05
468.853	26.29
469.29	26.5
469.726	26.73
470.162	26.99
470.599	27.22
471.035	27.43
471.471	27.6
471.907	27.69
472.344	27.75
472.78	27.82
473.216	27.91
473.652	27.99
474.088	28.04
474.523	28.11
474.959	28.12
475.395	28.14
475.831	28.14
476.266	28.17
476.702	28.18
477.138	28.2
477.573	28.2
478.008	28.14
478.444	28.06
478.879	27.99
479.314	27.83
479.75	27.67
480.185	27.49
480.62	27.27
481.055	26.92
481.49	26.47
481.925	25.97
482.36	25.48
482.795	25.07
483.229	24.75
483.664	24.51
484.099	24.3
484.534	24.14
484.968	24.01
485.403	23.96
485.837	24.04
486.271	24.24
486.706	24.44
487.14	24.62
487.574	24.71
488.009	24.74
488.443	24.74
488.877	24.79
489.311	24.84
489.745	24.89
490.179	24.96
490.613	25
491.046	25.04
491.48	25.1
491.914	25.21
492.348	25.35
492.781	25.52
493.215	25.67
493.648	25.76
494.082	25.82
494.515	25.87
494.948	25.9
495.382	25.93
495.815	25.96
496.248	25.99
496.681	25.98
497.114	25.95
497.547	25.91
497.98	25.91
498.413	25.96
498.846	26.06
499.279	26.14
499.711	26.2
500.144	26.29
500.577	26.42
501.009	26.59
501.442	26.81
501.874	27.08
502.306	27.33
502.739	27.54
503.171	27.7
503.603	27.83
504.036	28
504.468	28.18
504.9	28.36
505.332	28.52
505.764	28.65
506.196	28.77
506.627	28.88
507.059	29.04
507.491	29.19
507.923	29.38
508.354	29.59
508.786	29.74
509.217	29.85
509.649	29.94
510.08	30.02
510.512	30.11
510.943	30.22
511.374	30.3
511.805	30.33
512.237	30.24
512.668	30.11
513.099	29.97
513.53	29.87
513.961	29.82
514.391	29.81
514.822	29.86
515.253	29.94
515.684	30.03
516.114	30.16
516.545	30.34
516.975	30.67
517.406	31.04
517.836	31.43
518.267	31.77
518.697	32.07
519.127	32.38
519.558	32.68
519.988	32.95
520.418	33.2
520.848	33.41
521.278	33.57
521.708	33.81
522.138	33.82
522.567	33.74
522.997	33.71
523.427	33.74
523.857	33.81
524.286	33.85
524.716	33.9
525.145	33.96
525.575	34
526.004	34.1
526.433	34.09
526.863	34.35
527.292	34.66
527.721	34.88
528.15	34.99
528.579	35
529.008	35
529.437	34.95
529.866	34.89
530.295	34.87
530.724	34.86
531.152	34.85
531.581	34.84
532.01	34.78
532.438	34.76
532.867	34.79
533.295	34.84
533.723	34.88
534.152	34.96
534.58	35.01
535.008	34.99
535.436	34.92
535.865	34.78
536.293	34.63
536.721	34.54
537.149	34.5
537.576	34.51
538.004	34.55
538.432	34.54
538.86	34.55
539.287	34.58
539.715	34.67
540.143	34.8
540.57	34.98
540.998	35.18
541.425	35.36
541.852	35.55
542.28	35.72
542.707	35.85
543.134	36
543.561	36.12
543.988	36.26
544.415	36.38
544.842	36.51
545.269	36.67
545.696	36.8
546.123	36.94
546.549	37.08
546.976	37.2
547.403	37.35
547.829	37.51
548.256	37.69
548.682	37.82
549.108	37.96
549.535	38.1
549.961	38.23
550.387	38.37
550.813	38.5
551.24	38.63
551.666	38.73
552.092	38.79
552.518	38.82
552.943	38.82
553.369	38.85
553.795	38.83
554.221	38.76
554.646	38.63
555.072	38.49
555.498	38.34
555.923	38.19
556.349	38.08
556.774	37.98
557.199	37.91
557.625	37.82
558.05	37.74
558.475	37.68
558.9	37.64
559.325	37.61
559.75	37.55
560.175	37.48
560.6	37.39
561.025	37.24
561.449	37.06
561.874	36.86
562.299	36.66
562.723	36.48
563.148	36.26
563.572	36.02
563.997	35.79
564.421	35.54
564.846	35.28
565.27	35.04
565.694	34.81
566.118	34.58
566.542	34.34
566.966	34.08
567.39	33.84
567.814	33.62
568.238	33.46
568.662	33.32
569.086	33.22
569.509	33.13
569.933	33.03
570.357	32.92
570.78	32.85
571.204	32.79
571.627	32.76
572.05	32.7
572.474	32.63
572.897	32.54
573.32	32.43
573.743	32.31
574.166	32.19
574.589	32.09
575.012	32.01
575.435	31.95
575.858	31.93
576.281	31.93
576.704	31.95
577.126	31.98
577.549	32.04
577.972	32.12
578.394	32.23
578.817	32.38
579.239	32.53
579.661	32.7
580.084	32.86
580.506	33.01
580.928	33.13
581.35	33.23
581.772	33.3
582.194	33.4
582.616	33.52
583.038	33.63
583.46	33.73
583.882	33.79
584.303	33.78
584.725	33.69
585.147	33.61
585.568	33.57
585.99	33.58
586.411	33.67
586.833	33.75
587.254	33.81
587.675	33.9
588.096	34
588.518	34.16
588.939	34.39
589.36	34.68
589.781	35
590.202	35.3
590.623	35.55
591.043	35.73
591.464	35.9
591.885	36.05
592.305	36.2
592.726	36.34
593.147	36.46
593.567	36.53
593.987	36.6
594.408	36.64
594.828	36.69
595.248	36.75
595.669	36.8
596.089	36.81
596.509	36.81
596.929	36.78
597.349	36.72
597.769	36.67
598.189	36.63
598.608	36.64
599.028	36.67
599.448	36.69
599.867	36.71
600.287	36.73
600.706	36.78
601.126	36.84
601.545	36.9
601.965	36.96
602.384	37.03
602.803	37.07
603.222	37.09
603.641	37.08
604.061	37.08
604.48	37.03
604.898	36.98
605.317	36.93
605.736	36.87
606.155	36.8
606.574	36.74
606.992	36.68
607.411	36.64
607.829	36.56
608.248	36.5
608.666	36.43
609.085	36.38
609.503	36.33
609.921	36.26
610.339	36.21
610.758	36.16
611.176	36.1
611.594	36.02
612.012	35.91
612.43	35.81
612.847	35.71
613.265	35.62
613.683	35.57
614.101	35.54
614.518	35.51
614.936	35.49
615.353	35.45
615.771	35.47
616.188	35.48
616.606	35.53
617.023	35.61
617.44	35.64
617.857	35.66
618.274	35.62
618.691	35.56
619.108	35.5
619.525	35.41
619.942	35.32
620.359	35.18
620.776	35.06
621.192	34.91
621.609	34.78
622.026	34.67
622.442	34.57
622.859	34.51
623.275	34.43
623.691	34.33
624.108	34.25
624.524	34.18
624.94	34.14
625.356	34.07
625.772	34.01
626.188	33.97
626.604	33.9
627.02	33.84
627.436	33.77
627.852	33.73
628.268	33.73
628.683	33.74
629.099	33.74
629.514	33.73
629.93	33.75
630.345	33.79
630.761	33.81
631.176	33.85
631.591	33.88
632.007	33.91
632.422	33.93
632.837	33.96
633.252	33.99
633.667	34.02
634.082	34.06
634.497	34.09
634.911	34.1
635.326	34.1
635.741	34.08
636.155	34.05
636.57	34.02
636.984	33.98
637.399	33.92
637.813	33.87
638.228	33.81
638.642	33.76
639.056	33.68
639.47	33.63
639.884	33.57
640.298	33.51
640.712	33.49
641.126	33.44
641.54	33.39
641.954	33.33
642.368	33.24
642.781	33.17
643.195	33.08
643.609	32.99
644.022	32.91
644.436	32.82
644.849	32.72
645.262	32.58
645.676	32.46
646.089	32.37
646.502	32.33
646.915	32.28
647.328	32.23
647.741	32.18
648.154	32.15
648.567	32.11
648.98	32.08
649.393	32.08
649.805	32.1
650.218	32.1
650.631	32.06
651.043	31.91
651.456	31.66
651.868	31.31
652.28	30.91
652.693	30.56
653.105	30.26
653.517	30.04
653.929	29.87
654.341	29.74
654.753	29.64
655.165	29.57
655.577	29.57
655.989	29.71
656.401	29.94
656.813	30.23
657.224	30.47
657.636	30.65
658.047	30.78
658.459	30.81
658.87	30.8
659.282	30.77
659.693	30.73
660.104	30.66
660.515	30.58
660.926	30.49
661.338	30.41
661.749	30.3
662.159	30.18
662.57	30.05
662.981	29.94
663.392	29.84
663.803	29.74
664.213	29.65
664.624	29.57
665.035	29.49
665.445	29.4
665.855	29.29
666.266	29.2
666.676	29.1
667.086	28.97
667.497	28.86
667.907	28.74
668.317	28.62
668.727	28.52
669.137	28.42
669.547	28.32
669.956	28.21
670.366	28.12
670.776	28.03
671.186	27.95
671.595	27.9
672.005	27.83
672.414	27.8
672.824	27.74
673.233	27.7
673.642	27.64
674.052	27.6
674.461	27.54
674.87	27.51
675.279	27.49
675.688	27.47
676.097	27.45
676.506	27.45
676.915	27.42
677.323	27.4
677.732	27.38
678.141	27.37
678.549	27.35
678.958	27.36
679.366	27.36
679.775	27.33
680.183	27.32
680.592	27.32
681	27.3
681.408	27.3
681.816	27.27
682.224	27.12
682.632	26.85
683.04	26.48
683.448	26.1
683.856	25.73
684.264	25.42
684.671	25.12
685.079	24.83
685.487	24.57
685.894	24.34
686.302	24.19
686.709	24.18
687.116	24.34
687.524	24.63
687.931	24.98
688.338	25.35
688.745	25.67
689.152	26
689.559	26.34
689.966	26.65
690.373	26.94
690.78	27.22
691.187	27.48
691.593	27.73
692	27.98
692.407	28.22
692.813	28.46
693.22	28.7
693.626	28.93
694.032	29.17
694.439	29.42
694.845	29.66
695.251	29.89
695.657	30.12
696.063	30.34
696.469	30.54
696.875	30.72
697.281	30.87
697.687	31.04
698.093	31.2
698.498	31.37
698.904	31.56
699.31	31.77
699.715	32
700.12	32.27
700.526	32.52
700.931	32.8
701.337	33.08
701.742	33.37
702.147	33.67
702.552	33.98
702.957	34.25
703.362	34.54
703.767	34.81
704.172	35.08
704.577	35.29
704.981	35.53
705.386	35.75
705.791	36
706.195	36.24
706.6	36.48
707.004	36.7
707.408	36.93
707.813	37.15
708.217	37.35
708.621	37.57
709.025	37.8
709.43	38.02
709.834	38.25
710.237	38.44
710.641	38.62
711.045	38.81
711.449	39.02
711.853	39.22
712.256	39.35
712.66	39.45
713.064	39.47
713.467	39.48
713.87	39.42
714.274	39.29
714.677	39.17
715.08	39.02
715.484	38.88
715.887	38.75
716.29	38.62
716.693	38.62
717.096	38.71
717.499	38.93
717.901	39.2
718.304	39.54
718.707	39.91
719.109	40.27
719.512	40.62
719.915	40.95
720.317	41.22
720.719	41.47
721.122	41.7
721.524	41.85
721.926	41.96
722.328	42.03
722.731	42.1
723.133	42.19
723.535	42.27
723.937	42.4
724.338	42.52
724.74	42.67
725.142	42.95
725.544	43.07
725.945	43.25
726.347	43.36
726.748	43.48
727.15	43.6
727.551	43.75
727.952	43.91
728.354	44.09
728.755	44.3
729.156	44.52
729.557	44.6
729.958	44.82
730.359	45.02
730.76	45.25
731.161	45.45
731.562	45.66
731.962	45.8
732.363	45.94
732.763	46.04
733.164	46.13
733.564	46.19
733.965	46.26
734.365	46.29
734.766	46.29
735.166	46.33
735.566	46.35
735.966	46.35
736.366	46.38
736.766	46.36
737.166	46.39
737.566	46.39
737.966	46.39
738.365	46.4
738.765	46.44
739.165	46.49
739.564	46.54
739.964	46.56
740.363	46.57
740.763	46.61
741.162	46.67
741.561	46.68
741.96	46.72
742.36	46.78
742.759	46.81
743.158	46.81
743.557	46.82
743.955	46.81
744.354	46.81
744.753	46.85
745.152	46.84
745.55	46.81
745.949	46.81
746.348	46.78
746.746	46.72
747.144	46.69
747.543	46.63
747.941	46.59
748.339	46.52
748.737	46.47
749.136	46.38
749.534	46.33
749.932	46.3
750.33	46.25
750.727	46.23
751.125	46.22
751.523	46.18
751.921	46.17
752.318	46.16
752.716	46.13
753.113	46.11
753.511	46.12
753.908	46.12
754.305	46.08
754.703	45.93
755.1	45.62
755.497	45.02
755.894	44.12
756.291	43.03
756.688	41.8
757.085	40.65
757.482	39.59
757.878	38.6
758.275	37.6
758.672	36.61
759.068	35.73
759.465	35
759.861	34.61
760.258	34.59
760.654	34.86
761.05	35.31
761.447	35.8
761.843	36.27
762.239	36.72
762.635	37.24
763.031	37.87
763.427	38.56
763.822	39.36
764.218	40.16
764.614	40.9
765.01	41.57
765.405	42.2
765.801	42.72
766.196	43.23
766.592	43.65
766.987	44.05
767.382	44.31
767.778	44.53
768.173	44.66
768.568	44.75
768.963	44.82
769.358	44.9
769.753	44.95
770.148	44.99
770.542	45
770.937	44.98
771.332	44.95
771.726	44.97
772.121	44.96
772.515	44.96
772.91	44.92
773.304	44.9
773.699	44.85
774.093	44.81
774.487	44.81
