Data from N_2_DEC_ON_6N_Splice17_13-15-15-736.txt Node
Date: Sat Mar 07 13:15:15 EST 2020
User: sa697716
Spectrometer: NQ5500242
Trigger mode: 0
Integration Time (sec): 1.450000E-1
Scans to average: 20
Nonlinearity correction enabled: false
Boxcar width: 5
Storing dark spectrum: false
XAxis mode: Wavelengths
Number of Pixels in Spectrum: 512
>>>>>Begin Spectral Data<<<<<
187.83	154.26
188.298	166.42
188.766	150.74
189.233	137.67
189.701	130.71
190.169	179.13
190.636	163.67
191.104	196.39
191.571	228.46
192.039	189.8
192.506	185.12
192.974	70.33
193.441	232.74
193.908	164.15
194.375	106.82
194.842	56.86
195.31	161.63
195.777	259.95
196.244	46.26
196.711	41.37
197.177	41.24
197.644	39.56
198.111	38.83
198.578	38.3
199.045	38.21
199.511	38.81
199.978	38.76
200.445	38.85
200.911	38.47
201.378	38.8
201.844	38.55
202.31	38.52
202.777	38.65
203.243	38.96
203.709	38.89
204.176	38.68
204.642	38.41
205.108	38.41
205.574	38.31
206.04	38.21
206.506	38.03
206.972	38.03
207.438	37.54
207.903	36.91
208.369	35.98
208.835	35.42
209.301	34.95
209.766	34.16
210.232	33.53
210.697	32.91
211.163	32.25
211.628	31.4
212.094	30.91
212.559	30.38
213.024	29.71
213.49	29.38
213.955	28.75
214.42	28.25
214.885	27.75
215.35	27.11
215.815	26.15
216.28	25.02
216.745	23.78
217.21	22.54
217.675	21.52
218.14	20.74
218.604	19.91
219.069	19.23
219.534	18.65
219.998	18.15
220.463	17.69
220.927	17.26
221.392	16.96
221.856	16.72
222.32	16.49
222.785	16.3
223.249	16.11
223.713	15.93
224.177	15.79
224.642	15.63
225.106	15.45
225.57	15.26
226.034	15.13
226.497	14.98
226.961	14.82
227.425	14.66
227.889	14.51
228.353	14.36
228.816	14.22
229.28	14.06
229.744	13.93
230.207	13.8
230.671	13.67
231.134	13.55
231.597	13.44
232.061	13.32
232.524	13.22
232.987	13.09
233.45	12.99
233.914	12.87
234.377	12.77
234.84	12.66
235.303	12.57
235.766	12.48
236.229	12.37
236.691	12.27
237.154	12.19
237.617	12.09
238.08	12.01
238.542	11.92
239.005	11.86
239.468	11.78
239.93	11.7
240.393	11.63
240.855	11.54
241.317	11.46
241.78	11.4
242.242	11.32
242.704	11.26
243.166	11.18
243.629	11.11
244.091	11.02
244.553	10.95
245.015	10.87
245.477	10.79
245.939	10.74
246.4	10.67
246.862	10.6
247.324	10.54
247.786	10.47
248.247	10.41
248.709	10.34
249.17	10.27
249.632	10.21
250.093	10.16
250.555	10.12
251.016	10.06
251.477	10
251.939	9.94
252.4	9.9
252.861	9.85
253.322	9.8
253.783	9.75
254.244	9.71
254.705	9.66
255.166	9.61
255.627	9.55
256.088	9.5
256.549	9.45
257.009	9.39
257.47	9.34
257.931	9.28
258.391	9.22
258.852	9.15
259.312	9.1
259.773	9.05
260.233	9.01
260.694	8.96
261.154	8.91
261.614	8.86
262.074	8.82
262.534	8.77
262.994	8.73
263.455	8.69
263.915	8.66
264.374	8.62
264.834	8.6
265.294	8.56
265.754	8.54
266.214	8.52
266.673	8.5
267.133	8.48
267.593	8.46
268.052	8.44
268.512	8.42
268.971	8.4
269.431	8.38
269.89	8.35
270.349	8.33
270.809	8.3
271.268	8.27
271.727	8.24
272.186	8.21
272.645	8.19
273.104	8.15
273.563	8.12
274.022	8.09
274.481	8.07
274.94	8.05
275.399	8.01
275.857	7.98
276.316	7.95
276.775	7.93
277.233	7.9
277.692	7.88
278.15	7.86
278.609	7.84
279.067	7.82
279.525	7.8
279.984	7.77
280.442	7.75
280.9	7.73
281.358	7.72
281.816	7.7
282.274	7.67
282.732	7.65
283.19	7.62
283.648	7.58
284.106	7.55
284.564	7.53
285.021	7.52
285.479	7.49
285.937	7.47
286.394	7.45
286.852	7.42
287.309	7.4
287.767	7.38
288.224	7.36
288.682	7.34
289.139	7.32
289.596	7.31
290.053	7.29
290.511	7.27
290.968	7.25
291.425	7.24
291.882	7.23
292.339	7.22
292.796	7.21
293.252	7.19
293.709	7.19
294.166	7.18
294.623	7.16
295.079	7.14
295.536	7.13
295.992	7.11
296.449	7.1
296.905	7.08
297.362	7.07
297.818	7.07
298.274	7.06
298.731	7.04
299.187	7.02
299.643	7.01
300.099	7.01
300.555	7
301.011	6.99
301.467	6.98
301.923	6.97
302.379	6.96
302.835	6.95
303.291	6.93
303.746	6.93
304.202	6.92
304.658	6.92
305.113	6.91
305.569	6.91
306.024	6.9
306.479	6.89
306.935	6.89
307.39	6.9
307.845	6.89
308.301	6.9
308.756	6.89
309.211	6.89
309.666	6.89
310.121	6.89
310.576	6.89
311.031	6.89
311.486	6.89
311.94	6.88
312.395	6.88
312.85	6.89
313.305	6.88
313.759	6.89
314.214	6.88
314.668	6.88
315.123	6.87
315.577	6.87
316.032	6.87
316.486	6.86
316.94	6.85
317.394	6.84
317.849	6.82
318.303	6.81
318.757	6.79
319.211	6.78
319.665	6.77
320.119	6.77
320.572	6.75
321.026	6.74
321.48	6.74
321.934	6.72
322.387	6.72
322.841	6.72
323.295	6.72
323.748	6.72
324.202	6.72
324.655	6.71
325.108	6.71
325.562	6.71
326.015	6.71
326.468	6.71
326.921	6.7
327.374	6.7
327.827	6.69
328.28	6.69
328.733	6.68
329.186	6.67
329.639	6.67
330.092	6.66
330.545	6.65
330.997	6.64
331.45	6.64
331.903	6.64
332.355	6.64
332.808	6.63
333.26	6.63
333.713	6.62
334.165	6.62
334.617	6.61
335.069	6.61
335.522	6.6
335.974	6.6
336.426	6.59
336.878	6.59
337.33	6.59
337.782	6.59
338.234	6.6
338.686	6.59
339.137	6.6
339.589	6.59
340.041	6.6
340.493	6.6
340.944	6.59
341.396	6.58
341.847	6.58
342.299	6.57
342.75	6.56
343.201	6.53
343.653	6.53
344.104	6.51
344.555	6.51
345.006	6.51
345.457	6.5
345.908	6.49
346.359	6.5
346.81	6.48
347.261	6.48
347.712	6.47
348.163	6.48
348.613	6.48
349.064	6.48
349.515	6.48
349.965	6.48
350.416	6.47
350.866	6.47
351.317	6.47
351.767	6.48
352.217	6.47
352.668	6.48
353.118	6.48
353.568	6.48
354.018	6.48
354.468	6.49
354.918	6.49
355.368	6.51
355.818	6.51
356.268	6.52
356.718	6.52
357.168	6.53
357.617	6.53
358.067	6.54
358.517	6.55
358.966	6.56
359.416	6.57
359.865	6.57
360.315	6.58
360.764	6.59
361.213	6.59
361.663	6.6
362.112	6.61
362.561	6.63
363.01	6.64
363.459	6.64
363.908	6.64
364.357	6.65
364.806	6.65
365.255	6.65
365.703	6.67
366.152	6.68
366.601	6.69
367.05	6.69
367.498	6.69
367.947	6.69
368.395	6.7
368.844	6.71
369.292	6.71
369.74	6.73
370.189	6.73
370.637	6.74
371.085	6.74
371.533	6.75
371.981	6.76
372.429	6.78
372.877	6.79
373.325	6.8
373.773	6.82
374.221	6.82
374.669	6.83
375.116	6.84
375.564	6.84
376.012	6.87
376.459	6.87
376.907	6.89
377.354	6.89
377.801	6.91
378.249	6.92
378.696	6.94
379.143	6.96
379.591	6.98
380.038	6.99
380.485	7
380.932	7.02
381.379	7.05
381.826	7.06
382.273	7.08
382.72	7.09
383.166	7.11
383.613	7.12
384.06	7.13
384.506	7.15
384.953	7.17
385.4	7.2
385.846	7.22
386.292	7.23
386.739	7.26
387.185	7.27
387.631	7.3
388.078	7.32
388.524	7.34
388.97	7.36
389.416	7.38
389.862	7.4
390.308	7.43
390.754	7.46
391.2	7.48
391.645	7.51
392.091	7.55
392.537	7.58
392.983	7.6
393.428	7.62
393.874	7.64
394.319	7.67
394.765	7.7
395.21	7.72
395.655	7.74
396.101	7.77
396.546	7.79
396.991	7.81
397.436	7.83
397.881	7.87
398.326	7.89
398.771	7.92
399.216	7.94
399.661	7.97
400.106	7.99
400.551	8
400.995	8.01
401.44	8.03
401.885	8.05
402.329	8.06
402.774	8.08
403.218	8.11
403.663	8.13
404.107	8.13
404.551	8.15
404.995	8.16
405.44	8.17
405.884	8.18
406.328	8.2
406.772	8.19
407.216	8.2
407.66	8.2
408.104	8.18
408.547	8.18
408.991	8.21
409.435	8.21
409.879	8.21
410.322	8.23
410.766	8.24
411.209	8.25
411.653	8.27
412.096	8.29
412.54	8.3
412.983	8.32
413.426	8.36
413.869	8.36
414.312	8.38
414.756	8.38
415.199	8.39
415.642	8.39
416.085	8.39
416.527	8.38
416.97	8.38
417.413	8.39
417.856	8.39
418.298	8.39
418.741	8.39
419.184	8.39
419.626	8.4
420.069	8.42
420.511	8.43
420.953	8.44
421.396	8.46
421.838	8.45
422.28	8.46
422.722	8.47
423.164	8.46
423.606	8.45
424.048	8.45
424.49	8.45
424.932	8.43
425.374	8.4
425.816	8.38
426.258	8.37
426.699	8.35
427.141	8.36
427.582	8.36
428.024	8.36
428.465	8.37
428.907	8.35
429.348	8.33
429.789	8.34
430.231	8.37
430.672	8.38
431.113	8.39
431.554	8.4
431.995	8.4
432.436	8.4
432.877	8.41
433.318	8.42
433.759	8.44
434.2	8.46
434.64	8.47
435.081	8.46
435.522	8.47
435.962	8.47
436.403	8.49
436.843	8.49
437.284	8.49
437.724	8.49
438.164	8.49
438.604	8.5
439.045	8.49
439.485	8.48
439.925	8.49
440.365	8.5
440.805	8.51
441.245	8.53
441.685	8.55
442.125	8.57
442.564	8.59
443.004	8.58
443.444	8.58
443.883	8.61
444.323	8.63
444.762	8.64
445.202	8.64
445.641	8.68
446.081	8.69
446.52	8.69
446.959	8.7
447.398	8.72
447.837	8.74
448.276	8.77
448.716	8.8
449.154	8.81
449.593	8.84
450.032	8.86
450.471	8.85
450.91	8.86
451.349	8.88
451.787	8.89
452.226	8.91
452.664	8.92
453.103	8.91
453.541	8.92
453.98	8.94
454.418	8.92
454.856	8.92
455.295	8.92
455.733	8.91
456.171	8.92
456.609	8.91
457.047	8.9
457.485	8.9
457.923	8.92
458.361	8.91
458.798	8.91
459.236	8.92
459.674	8.92
460.111	8.91
460.549	8.93
460.987	8.92
461.424	8.93
461.862	8.93
462.299	8.93
462.736	8.92
463.173	8.92
463.611	8.92
464.048	8.93
464.485	8.94
464.922	8.93
465.359	8.94
465.796	8.96
466.233	8.96
466.67	8.97
467.106	8.97
467.543	8.97
467.98	8.97
468.416	8.96
468.853	8.96
469.29	8.96
469.726	8.97
470.162	8.96
470.599	8.95
471.035	8.95
471.471	8.94
471.907	8.94
472.344	8.96
472.78	8.96
473.216	8.97
473.652	8.98
474.088	8.96
474.523	8.97
474.959	8.97
475.395	8.95
475.831	8.95
476.266	8.95
476.702	8.95
477.138	8.94
477.573	8.94
478.008	8.94
478.444	8.92
478.879	8.94
479.314	8.93
479.75	8.94
480.185	8.94
480.62	8.93
481.055	8.92
481.49	8.92
481.925	8.92
482.36	8.92
482.795	8.93
483.229	8.93
483.664	8.93
484.099	8.93
484.534	8.93
484.968	8.95
485.403	8.96
485.837	8.97
486.271	8.98
486.706	9
487.14	9.01
487.574	9.02
488.009	9.04
488.443	9.07
488.877	9.09
489.311	9.12
489.745	9.15
490.179	9.19
490.613	9.23
491.046	9.27
491.48	9.31
491.914	9.36
492.348	9.39
492.781	9.44
493.215	9.49
493.648	9.54
494.082	9.59
494.515	9.65
494.948	9.7
495.382	9.75
495.815	9.81
496.248	9.87
496.681	9.94
497.114	10
497.547	10.07
497.98	10.15
498.413	10.23
498.846	10.31
499.279	10.38
499.711	10.46
500.144	10.55
500.577	10.64
501.009	10.74
501.442	10.82
501.874	10.93
502.306	11.03
502.739	11.14
503.171	11.25
503.603	11.36
504.036	11.49
504.468	11.63
504.9	11.75
505.332	11.89
505.764	12.02
506.196	12.17
506.627	12.31
507.059	12.46
507.491	12.6
507.923	12.77
508.354	12.94
508.786	13.11
509.217	13.28
509.649	13.46
510.08	13.65
510.512	13.84
510.943	14.02
511.374	14.2
511.805	14.4
512.237	14.59
512.668	14.77
513.099	14.96
513.53	15.15
513.961	15.35
514.391	15.55
514.822	15.75
515.253	15.96
515.684	16.17
516.114	16.38
516.545	16.58
516.975	16.79
517.406	17.01
517.836	17.21
518.267	17.42
518.697	17.61
519.127	17.8
519.558	17.99
519.988	18.19
520.418	18.39
520.848	18.57
521.278	18.76
521.708	19.01
522.138	19.19
522.567	19.35
522.997	19.51
523.427	19.67
523.857	19.83
524.286	19.97
524.716	20.13
525.145	20.27
525.575	20.42
526.004	20.56
526.433	20.62
526.863	20.75
527.292	20.89
527.721	21.02
528.15	21.13
528.579	21.25
529.008	21.36
529.437	21.45
529.866	21.55
530.295	21.63
530.724	21.72
531.152	21.82
531.581	21.91
532.01	21.97
532.438	22.06
532.867	22.14
533.295	22.2
533.723	22.25
534.152	22.31
534.58	22.37
535.008	22.41
535.436	22.46
535.865	22.49
536.293	22.53
536.721	22.58
537.149	22.61
537.576	22.63
538.004	22.66
538.432	22.7
538.86	22.73
539.287	22.74
539.715	22.77
540.143	22.78
540.57	22.8
540.998	22.81
541.425	22.82
541.852	22.84
542.28	22.86
542.707	22.89
543.134	22.9
543.561	22.92
543.988	22.94
544.415	22.95
544.842	22.96
545.269	22.97
545.696	22.99
546.123	22.99
546.549	23
546.976	23.02
547.403	23.02
547.829	23.02
548.256	23.03
548.682	23.04
549.108	23.04
549.535	23.05
549.961	23.05
550.387	23.04
550.813	23.05
551.24	23.05
551.666	23.03
552.092	23.04
552.518	23.05
552.943	23.02
553.369	23.02
553.795	23.02
554.221	23.01
554.646	22.99
555.072	22.97
555.498	22.94
555.923	22.92
556.349	22.88
556.774	22.84
557.199	22.77
557.625	22.72
558.05	22.69
558.475	22.65
558.9	22.58
559.325	22.54
559.75	22.49
560.175	22.43
560.6	22.36
561.025	22.29
561.449	22.23
561.874	22.18
562.299	22.12
562.723	22.02
563.148	21.92
563.572	21.84
563.997	21.73
564.421	21.64
564.846	21.55
565.27	21.46
565.694	21.37
566.118	21.27
566.542	21.16
566.966	21.06
567.39	20.97
567.814	20.88
568.238	20.78
568.662	20.7
569.086	20.6
569.509	20.49
569.933	20.39
570.357	20.29
570.78	20.18
571.204	20.09
571.627	20
572.05	19.91
572.474	19.83
572.897	19.73
573.32	19.65
573.743	19.55
574.166	19.46
574.589	19.37
575.012	19.27
575.435	19.2
575.858	19.11
576.281	19.03
576.704	18.94
577.126	18.85
577.549	18.76
577.972	18.68
578.394	18.61
578.817	18.55
579.239	18.48
579.661	18.41
580.084	18.36
580.506	18.3
580.928	18.24
581.35	18.19
581.772	18.12
582.194	18.07
582.616	18.02
583.038	17.98
583.46	17.91
583.882	17.86
584.303	17.81
584.725	17.74
585.147	17.69
585.568	17.63
585.99	17.59
586.411	17.54
586.833	17.49
587.254	17.44
587.675	17.38
588.096	17.34
588.518	17.31
588.939	17.28
589.36	17.24
589.781	17.19
590.202	17.15
590.623	17.13
591.043	17.09
591.464	17.08
591.885	17.04
592.305	17.02
592.726	17.01
593.147	16.96
593.567	16.92
593.987	16.9
594.408	16.9
594.828	16.87
595.248	16.86
595.669	16.84
596.089	16.82
596.509	16.8
596.929	16.77
597.349	16.74
597.769	16.73
598.189	16.71
598.608	16.68
599.028	16.65
599.448	16.61
599.867	16.57
600.287	16.55
600.706	16.51
601.126	16.48
601.545	16.45
601.965	16.41
602.384	16.37
602.803	16.35
603.222	16.32
603.641	16.27
604.061	16.23
604.48	16.19
604.898	16.15
605.317	16.1
605.736	16.06
606.155	16.01
606.574	15.96
606.992	15.91
607.411	15.84
607.829	15.77
608.248	15.71
608.666	15.66
609.085	15.61
609.503	15.57
609.921	15.51
610.339	15.46
610.758	15.41
611.176	15.36
611.594	15.3
612.012	15.25
612.43	15.22
612.847	15.17
613.265	15.11
613.683	15.04
614.101	14.98
614.518	14.92
614.936	14.87
615.353	14.8
615.771	14.74
616.188	14.69
616.606	14.64
617.023	14.59
617.44	14.55
617.857	14.52
618.274	14.47
618.691	14.42
619.108	14.39
619.525	14.35
619.942	14.33
620.359	14.32
620.776	14.3
621.192	14.28
621.609	14.26
622.026	14.23
622.442	14.21
622.859	14.19
623.275	14.18
623.691	14.16
624.108	14.15
624.524	14.14
624.94	14.11
625.356	14.1
625.772	14.08
626.188	14.07
626.604	14.06
627.02	14.05
627.436	14.04
627.852	14.04
628.268	14.01
628.683	14.01
629.099	14.01
629.514	14
629.93	13.99
630.345	13.98
630.761	13.95
631.176	13.94
631.591	13.91
632.007	13.88
632.422	13.84
632.837	13.81
633.252	13.77
633.667	13.71
634.082	13.66
634.497	13.61
634.911	13.55
635.326	13.51
635.741	13.45
636.155	13.38
636.57	13.32
636.984	13.25
637.399	13.18
637.813	13.11
638.228	13.04
638.642	12.96
639.056	12.87
639.47	12.79
639.884	12.7
640.298	12.61
640.712	12.52
641.126	12.44
641.54	12.34
641.954	12.26
642.368	12.18
642.781	12.09
643.195	12.02
643.609	11.94
644.022	11.85
644.436	11.78
644.849	11.71
645.262	11.64
645.676	11.56
646.089	11.5
646.502	11.43
646.915	11.38
647.328	11.33
647.741	11.26
648.154	11.22
648.567	11.19
648.98	11.14
649.393	11.11
649.805	11.07
650.218	11.04
650.631	11.01
651.043	10.98
651.456	10.96
651.868	10.92
652.28	10.89
652.693	10.84
653.105	10.8
653.517	10.76
653.929	10.72
654.341	10.67
654.753	10.63
655.165	10.58
655.577	10.53
655.989	10.46
656.401	10.4
656.813	10.33
657.224	10.27
657.636	10.2
658.047	10.13
658.459	10.06
658.87	9.99
659.282	9.92
659.693	9.85
660.104	9.77
660.515	9.7
660.926	9.63
661.338	9.56
661.749	9.48
662.159	9.42
662.57	9.37
662.981	9.31
663.392	9.25
663.803	9.18
664.213	9.12
664.624	9.07
665.035	9.02
665.445	8.97
665.855	8.93
666.266	8.9
666.676	8.86
667.086	8.81
667.497	8.77
667.907	8.75
668.317	8.73
668.727	8.71
669.137	8.69
669.547	8.68
669.956	8.66
670.366	8.64
670.776	8.63
671.186	8.62
671.595	8.62
672.005	8.61
672.414	8.6
672.824	8.59
673.233	8.6
673.642	8.61
674.052	8.61
674.461	8.62
674.87	8.63
675.279	8.65
675.688	8.67
676.097	8.68
676.506	8.71
676.915	8.73
677.323	8.76
677.732	8.78
678.141	8.81
678.549	8.84
678.958	8.88
679.366	8.93
679.775	8.97
680.183	9.02
680.592	9.1
681	9.16
681.408	9.25
681.816	9.34
682.224	9.45
682.632	9.55
683.04	9.68
683.448	9.8
683.856	9.94
684.264	10.08
684.671	10.25
685.079	10.42
685.487	10.61
685.894	10.81
686.302	11.03
686.709	11.25
687.116	11.5
687.524	11.77
687.931	12.05
688.338	12.34
688.745	12.64
689.152	12.95
689.559	13.31
689.966	13.64
690.373	13.99
690.78	14.35
691.187	14.72
691.593	15.1
692	15.48
692.407	15.87
692.813	16.26
693.22	16.64
693.626	17.04
694.032	17.43
694.439	17.83
694.845	18.25
695.251	18.64
695.657	19.05
696.063	19.44
696.469	19.83
696.875	20.23
697.281	20.62
697.687	21.02
698.093	21.41
698.498	21.78
698.904	22.14
699.31	22.48
699.715	22.86
700.12	23.21
700.526	23.55
700.931	23.9
701.337	24.22
701.742	24.54
702.147	24.86
702.552	25.16
702.957	25.45
703.362	25.75
703.767	26.03
704.172	26.31
704.577	26.59
704.981	26.88
705.386	27.15
705.791	27.43
706.195	27.69
706.6	27.96
707.004	28.19
707.408	28.46
707.813	28.71
708.217	28.95
708.621	29.19
709.025	29.4
709.43	29.6
709.834	29.83
710.237	30.03
710.641	30.22
711.045	30.41
711.449	30.64
711.853	30.86
712.256	31.06
712.66	31.25
713.064	31.43
713.467	31.64
713.87	31.81
714.274	31.96
714.677	32.14
715.08	32.32
715.484	32.51
715.887	32.68
716.29	32.83
716.693	33
717.096	33.15
717.499	33.34
717.901	33.5
718.304	33.66
718.707	33.83
719.109	33.99
719.512	34.13
719.915	34.26
720.317	34.36
720.719	34.48
721.122	34.61
721.524	34.75
721.926	34.86
722.328	34.96
722.731	35.06
723.133	35.2
723.535	35.3
723.937	35.41
724.338	35.52
724.74	35.64
725.142	35.81
725.544	35.88
725.945	35.98
726.347	36.04
726.748	36.12
727.15	36.18
727.551	36.24
727.952	36.32
728.354	36.37
728.755	36.44
729.156	36.49
729.557	36.49
729.958	36.57
730.359	36.62
730.76	36.69
731.161	36.75
731.562	36.83
731.962	36.86
732.363	36.91
732.763	36.96
733.164	36.99
733.564	37.05
733.965	37.07
734.365	37.11
734.766	37.14
735.166	37.18
735.566	37.22
735.966	37.26
736.366	37.3
736.766	37.33
737.166	37.37
737.566	37.43
737.966	37.45
738.365	37.49
738.765	37.54
739.165	37.56
739.564	37.58
739.964	37.6
740.363	37.6
740.763	37.64
741.162	37.66
741.561	37.67
741.96	37.66
742.36	37.67
742.759	37.7
743.158	37.68
743.557	37.68
743.955	37.7
744.354	37.73
744.753	37.78
745.152	37.81
745.55	37.82
745.949	37.85
746.348	37.88
746.746	37.87
747.144	37.88
747.543	37.91
747.941	37.93
748.339	37.94
748.737	37.94
749.136	37.94
749.534	37.93
749.932	37.91
750.33	37.89
750.727	37.9
751.125	37.93
751.523	37.93
751.921	37.95
752.318	37.94
752.716	37.94
753.113	37.94
753.511	37.95
753.908	37.99
754.305	38.01
754.703	38.01
755.1	38
755.497	37.99
755.894	37.97
756.291	37.96
756.688	37.96
757.085	37.97
757.482	37.98
757.878	37.98
758.275	37.97
758.672	37.96
759.068	37.97
759.465	37.99
759.861	38.01
760.258	38.04
760.654	38.06
761.05	38.07
761.447	38.08
761.843	38.06
762.239	38.03
762.635	38.03
763.031	38.04
763.427	38.03
763.822	38.02
764.218	38.01
764.614	38.01
765.01	37.99
765.405	37.99
765.801	37.97
766.196	37.97
766.592	37.98
766.987	37.96
767.382	37.96
767.778	37.98
768.173	37.97
768.568	37.96
768.963	37.95
769.358	37.95
769.753	37.95
770.148	37.95
770.542	37.96
770.937	37.96
771.332	37.93
771.726	37.92
772.121	37.91
772.515	37.91
772.91	37.89
773.304	37.9
773.699	37.86
774.093	37.84
774.487	37.83
774.881	37.83
775.275	37.82
775.669	37.8
776.063	37.81
776.457	37.82
776.851	37.79
777.245	37.77
777.638	37.76
778.032	37.79
778.425	37.81
