Data from N_2_DEC_OH_4N_Splice17_13-04-11-509.txt Node
Date: Sat Mar 07 13:04:11 EST 2020
User: sa697716
Spectrometer: NQ5500242
Trigger mode: 0
Integration Time (sec): 1.450000E-1
Scans to average: 20
Nonlinearity correction enabled: false
Boxcar width: 5
Storing dark spectrum: false
XAxis mode: Wavelengths
Number of Pixels in Spectrum: 512
>>>>>Begin Spectral Data<<<<<
187.83	69.62
188.298	70.36
188.766	27.97
189.233	27.24
189.701	30.62
190.169	43.81
190.636	2.94
191.104	-83.58
191.571	-427.57
192.039	-579.85
192.506	-866.67
192.974	189.89
193.441	177.59
193.908	-12.94
194.375	-12.23
194.842	-67.8
195.31	-58.52
195.777	-352.04
196.244	17.09
196.711	29.49
197.177	33.42
197.644	33.73
198.111	34.04
198.578	35.16
199.045	35.27
199.511	35.36
199.978	35.69
200.445	35.84
200.911	35.89
201.378	35.89
201.844	36
202.31	35.91
202.777	36.23
203.243	36.46
203.709	35.96
204.176	35.97
204.642	35.92
205.108	35.78
205.574	35.68
206.04	35.44
206.506	35.14
206.972	35.06
207.438	34.98
207.903	34.35
208.369	33.58
208.835	33.32
209.301	32.48
209.766	31.51
210.232	30.65
210.697	29.83
211.163	29
211.628	28.44
212.094	27.78
212.559	27.16
213.024	26.58
213.49	26.15
213.955	25.29
214.42	24.82
214.885	24.32
215.35	23.53
215.815	22.54
216.28	21.12
216.745	19.41
217.21	17.78
217.675	16.39
218.14	15.28
218.604	14.23
219.069	13.4
219.534	12.69
219.998	12.07
220.463	11.56
220.927	11.08
221.392	10.76
221.856	10.51
222.32	10.27
222.785	10.07
223.249	9.84
223.713	9.66
224.177	9.51
224.642	9.35
225.106	9.16
225.57	9
226.034	8.87
226.497	8.75
226.961	8.61
227.425	8.49
227.889	8.36
228.353	8.25
228.816	8.12
229.28	8
229.744	7.89
230.207	7.8
230.671	7.71
231.134	7.61
231.597	7.52
232.061	7.43
232.524	7.35
232.987	7.25
233.45	7.18
233.914	7.1
234.377	7.02
234.84	6.93
235.303	6.87
235.766	6.81
236.229	6.73
236.691	6.66
237.154	6.59
237.617	6.54
238.08	6.47
238.542	6.39
239.005	6.34
239.468	6.27
239.93	6.22
240.393	6.17
240.855	6.09
241.317	6.04
241.78	5.98
242.242	5.93
242.704	5.88
243.166	5.84
243.629	5.81
244.091	5.75
244.553	5.7
245.015	5.65
245.477	5.6
245.939	5.56
246.4	5.51
246.862	5.46
247.324	5.42
247.786	5.36
248.247	5.31
248.709	5.26
249.17	5.22
249.632	5.19
250.093	5.16
250.555	5.12
251.016	5.09
251.477	5.05
251.939	5.03
252.4	5.01
252.861	4.99
253.322	4.96
253.783	4.93
254.244	4.91
254.705	4.87
255.166	4.84
255.627	4.8
256.088	4.78
256.549	4.77
257.009	4.73
257.47	4.69
257.931	4.65
258.391	4.62
258.852	4.58
259.312	4.55
259.773	4.52
260.233	4.5
260.694	4.48
261.154	4.44
261.614	4.42
262.074	4.39
262.534	4.37
262.994	4.35
263.455	4.34
263.915	4.33
264.374	4.32
264.834	4.31
265.294	4.29
265.754	4.28
266.214	4.27
266.673	4.25
267.133	4.24
267.593	4.23
268.052	4.21
268.512	4.2
268.971	4.19
269.431	4.18
269.89	4.16
270.349	4.16
270.809	4.14
271.268	4.13
271.727	4.12
272.186	4.11
272.645	4.1
273.104	4.09
273.563	4.07
274.022	4.06
274.481	4.05
274.94	4.04
275.399	4.03
275.857	4.02
276.316	4.01
276.775	4
277.233	3.99
277.692	3.98
278.15	3.97
278.609	3.97
279.067	3.96
279.525	3.95
279.984	3.94
280.442	3.93
280.9	3.92
281.358	3.92
281.816	3.91
282.274	3.9
282.732	3.89
283.19	3.88
283.648	3.88
284.106	3.87
284.564	3.86
285.021	3.85
285.479	3.85
285.937	3.83
286.394	3.82
286.852	3.8
287.309	3.79
287.767	3.78
288.224	3.77
288.682	3.75
289.139	3.74
289.596	3.73
290.053	3.71
290.511	3.7
290.968	3.69
291.425	3.67
291.882	3.66
292.339	3.65
292.796	3.64
293.252	3.62
293.709	3.62
294.166	3.61
294.623	3.59
295.079	3.58
295.536	3.58
295.992	3.57
296.449	3.56
296.905	3.56
297.362	3.55
297.818	3.54
298.274	3.55
298.731	3.53
299.187	3.52
299.643	3.52
300.099	3.51
300.555	3.5
301.011	3.49
301.467	3.48
301.923	3.46
302.379	3.46
302.835	3.46
303.291	3.44
303.746	3.44
304.202	3.43
304.658	3.43
305.113	3.43
305.569	3.42
306.024	3.42
306.479	3.41
306.935	3.41
307.39	3.4
307.845	3.4
308.301	3.4
308.756	3.4
309.211	3.39
309.666	3.39
310.121	3.4
310.576	3.4
311.031	3.39
311.486	3.39
311.94	3.39
312.395	3.38
312.85	3.38
313.305	3.37
313.759	3.37
314.214	3.36
314.668	3.35
315.123	3.34
315.577	3.33
316.032	3.33
316.486	3.33
316.94	3.33
317.394	3.32
317.849	3.31
318.303	3.31
318.757	3.29
319.211	3.29
319.665	3.27
320.119	3.26
320.572	3.26
321.026	3.25
321.48	3.24
321.934	3.23
322.387	3.21
322.841	3.21
323.295	3.21
323.748	3.2
324.202	3.2
324.655	3.2
325.108	3.2
325.562	3.19
326.015	3.19
326.468	3.2
326.921	3.2
327.374	3.19
327.827	3.19
328.28	3.18
328.733	3.17
329.186	3.17
329.639	3.17
330.092	3.17
330.545	3.17
330.997	3.16
331.45	3.16
331.903	3.16
332.355	3.18
332.808	3.17
333.26	3.18
333.713	3.18
334.165	3.17
334.617	3.17
335.069	3.16
335.522	3.16
335.974	3.16
336.426	3.15
336.878	3.14
337.33	3.13
337.782	3.13
338.234	3.13
338.686	3.13
339.137	3.14
339.589	3.13
340.041	3.13
340.493	3.12
340.944	3.11
341.396	3.11
341.847	3.11
342.299	3.1
342.75	3.09
343.201	3.08
343.653	3.06
344.104	3.05
344.555	3.04
345.006	3.03
345.457	3.03
345.908	3.03
346.359	3.03
346.81	3.02
347.261	3.02
347.712	3.01
348.163	3
348.613	3
349.064	3
349.515	2.99
349.965	2.99
350.416	2.98
350.866	2.97
351.317	2.96
351.767	2.97
352.217	2.97
352.668	2.98
353.118	2.98
353.568	2.98
354.018	2.98
354.468	2.99
354.918	2.99
355.368	3
355.818	3
356.268	3
356.718	3
357.168	3
357.617	2.99
358.067	2.98
358.517	2.98
358.966	2.99
359.416	2.98
359.865	2.97
360.315	2.97
360.764	2.97
361.213	2.96
361.663	2.94
362.112	2.95
362.561	2.96
363.01	2.96
363.459	2.95
363.908	2.94
364.357	2.94
364.806	2.93
365.255	2.94
365.703	2.94
366.152	2.95
366.601	2.96
367.05	2.95
367.498	2.94
367.947	2.95
368.395	2.96
368.844	2.96
369.292	2.95
369.74	2.96
370.189	2.96
370.637	2.97
371.085	2.96
371.533	2.96
371.981	2.97
372.429	2.97
372.877	2.96
373.325	2.95
373.773	2.95
374.221	2.95
374.669	2.95
375.116	2.93
375.564	2.92
376.012	2.93
376.459	2.92
376.907	2.93
377.354	2.92
377.801	2.93
378.249	2.93
378.696	2.94
379.143	2.95
379.591	2.95
380.038	2.95
380.485	2.97
380.932	2.97
381.379	2.98
381.826	2.98
382.273	2.99
382.72	2.98
383.166	2.98
383.613	2.99
384.06	2.99
384.506	2.99
384.953	2.99
385.4	2.98
385.846	2.99
386.292	2.99
386.739	2.98
387.185	2.98
387.631	2.98
388.078	2.99
388.524	2.99
388.97	2.99
389.416	3.01
389.862	3.02
390.308	3.04
390.754	3.06
391.2	3.08
391.645	3.09
392.091	3.12
392.537	3.14
392.983	3.16
393.428	3.17
393.874	3.18
394.319	3.19
394.765	3.2
395.21	3.2
395.655	3.21
396.101	3.23
396.546	3.24
396.991	3.25
397.436	3.26
397.881	3.29
398.326	3.3
398.771	3.33
399.216	3.33
399.661	3.36
400.106	3.38
400.551	3.39
400.995	3.39
401.44	3.41
401.885	3.41
402.329	3.44
402.774	3.45
403.218	3.48
403.663	3.49
404.107	3.51
404.551	3.52
404.995	3.53
405.44	3.53
405.884	3.55
406.328	3.56
406.772	3.57
407.216	3.56
407.66	3.57
408.104	3.56
408.547	3.56
408.991	3.57
409.435	3.56
409.879	3.58
410.322	3.61
410.766	3.62
411.209	3.64
411.653	3.66
412.096	3.68
412.54	3.69
412.983	3.7
413.426	3.74
413.869	3.76
414.312	3.79
414.756	3.8
415.199	3.79
415.642	3.8
416.085	3.8
416.527	3.79
416.97	3.78
417.413	3.78
417.856	3.79
418.298	3.78
418.741	3.78
419.184	3.77
419.626	3.77
420.069	3.78
420.511	3.79
420.953	3.8
421.396	3.82
421.838	3.82
422.28	3.83
422.722	3.84
423.164	3.84
423.606	3.84
424.048	3.86
424.49	3.86
424.932	3.85
425.374	3.83
425.816	3.82
426.258	3.81
426.699	3.82
427.141	3.82
427.582	3.82
428.024	3.83
428.465	3.84
428.907	3.82
429.348	3.81
429.789	3.82
430.231	3.84
430.672	3.85
431.113	3.86
431.554	3.86
431.995	3.86
432.436	3.87
432.877	3.88
433.318	3.89
433.759	3.92
434.2	3.94
434.64	3.94
435.081	3.96
435.522	3.98
435.962	4
436.403	4.02
436.843	4.03
437.284	4.02
437.724	4.01
438.164	3.99
438.604	3.99
439.045	3.99
439.485	3.99
439.925	3.98
440.365	3.97
440.805	3.96
441.245	3.96
441.685	3.96
442.125	3.98
442.564	3.99
443.004	3.99
443.444	3.99
443.883	3.99
444.323	3.97
444.762	3.97
445.202	3.96
445.641	3.97
446.081	3.97
446.52	3.95
446.959	3.96
447.398	3.97
447.837	3.96
448.276	3.95
448.716	3.97
449.154	3.99
449.593	3.99
450.032	3.99
450.471	3.97
450.91	3.96
451.349	3.96
451.787	3.94
452.226	3.94
452.664	3.93
453.103	3.92
453.541	3.9
453.98	3.9
454.418	3.87
454.856	3.87
455.295	3.87
455.733	3.85
456.171	3.85
456.609	3.84
457.047	3.82
457.485	3.81
457.923	3.81
458.361	3.81
458.798	3.82
459.236	3.82
459.674	3.81
460.111	3.81
460.549	3.82
460.987	3.82
461.424	3.84
461.862	3.86
462.299	3.86
462.736	3.86
463.173	3.87
463.611	3.87
464.048	3.88
464.485	3.89
464.922	3.89
465.359	3.89
465.796	3.91
466.233	3.91
466.67	3.92
467.106	3.93
467.543	3.92
467.98	3.91
468.416	3.89
468.853	3.88
469.29	3.87
469.726	3.88
470.162	3.87
470.599	3.85
471.035	3.83
471.471	3.81
471.907	3.79
472.344	3.79
472.78	3.79
473.216	3.79
473.652	3.79
474.088	3.77
474.523	3.76
474.959	3.75
475.395	3.73
475.831	3.73
476.266	3.72
476.702	3.7
477.138	3.69
477.573	3.68
478.008	3.68
478.444	3.67
478.879	3.67
479.314	3.67
479.75	3.66
480.185	3.65
480.62	3.64
481.055	3.63
481.49	3.62
481.925	3.63
482.36	3.62
482.795	3.62
483.229	3.61
483.664	3.61
484.099	3.59
484.534	3.59
484.968	3.6
485.403	3.6
485.837	3.6
486.271	3.61
486.706	3.6
487.14	3.59
487.574	3.59
488.009	3.59
488.443	3.59
488.877	3.61
489.311	3.62
489.745	3.63
490.179	3.64
490.613	3.65
491.046	3.65
491.48	3.67
491.914	3.68
492.348	3.7
492.781	3.72
493.215	3.75
493.648	3.76
494.082	3.77
494.515	3.78
494.948	3.79
495.382	3.81
495.815	3.85
496.248	3.88
496.681	3.91
497.114	3.93
497.547	3.95
497.98	3.97
498.413	4.01
498.846	4.05
499.279	4.08
499.711	4.12
500.144	4.16
500.577	4.2
501.009	4.25
501.442	4.29
501.874	4.35
502.306	4.41
502.739	4.49
503.171	4.56
503.603	4.62
504.036	4.69
504.468	4.76
504.9	4.83
505.332	4.91
505.764	4.99
506.196	5.06
506.627	5.15
507.059	5.25
507.491	5.34
507.923	5.45
508.354	5.57
508.786	5.69
509.217	5.82
509.649	5.95
510.08	6.09
510.512	6.23
510.943	6.37
511.374	6.52
511.805	6.67
512.237	6.83
512.668	6.98
513.099	7.14
513.53	7.31
513.961	7.49
514.391	7.67
514.822	7.86
515.253	8.04
515.684	8.25
516.114	8.45
516.545	8.64
516.975	8.85
517.406	9.06
517.836	9.27
518.267	9.5
518.697	9.69
519.127	9.9
519.558	10.11
519.988	10.32
520.418	10.52
520.848	10.73
521.278	10.95
521.708	11.34
522.138	11.54
522.567	11.74
522.997	11.93
523.427	12.13
523.857	12.32
524.286	12.5
524.716	12.69
525.145	12.87
525.575	13.05
526.004	13.23
526.433	13.21
526.863	13.36
527.292	13.52
527.721	13.67
528.15	13.81
528.579	13.96
529.008	14.1
529.437	14.21
529.866	14.33
530.295	14.44
530.724	14.55
531.152	14.66
531.581	14.77
532.01	14.87
532.438	14.97
532.867	15.05
533.295	15.13
533.723	15.2
534.152	15.27
534.58	15.35
535.008	15.4
535.436	15.45
535.865	15.49
536.293	15.53
536.721	15.57
537.149	15.61
537.576	15.65
538.004	15.7
538.432	15.74
538.86	15.78
539.287	15.82
539.715	15.86
540.143	15.9
540.57	15.93
540.998	15.95
541.425	15.98
541.852	16
542.28	16.02
542.707	16.04
543.134	16.05
543.561	16.08
543.988	16.09
544.415	16.11
544.842	16.12
545.269	16.15
545.696	16.19
546.123	16.2
546.549	16.23
546.976	16.27
547.403	16.28
547.829	16.29
548.256	16.3
548.682	16.31
549.108	16.34
549.535	16.36
549.961	16.36
550.387	16.35
550.813	16.35
551.24	16.34
551.666	16.33
552.092	16.32
552.518	16.32
552.943	16.29
553.369	16.28
553.795	16.24
554.221	16.2
554.646	16.16
555.072	16.13
555.498	16.08
555.923	16.03
556.349	15.97
556.774	15.9
557.199	15.84
557.625	15.78
558.05	15.7
558.475	15.64
558.9	15.58
559.325	15.51
559.75	15.41
560.175	15.33
560.6	15.24
561.025	15.14
561.449	15.03
561.874	14.91
562.299	14.81
562.723	14.69
563.148	14.56
563.572	14.42
563.997	14.29
564.421	14.16
564.846	14.03
565.27	13.9
565.694	13.78
566.118	13.65
566.542	13.53
566.966	13.39
567.39	13.26
567.814	13.14
568.238	13
568.662	12.88
569.086	12.75
569.509	12.62
569.933	12.51
570.357	12.38
570.78	12.27
571.204	12.15
571.627	12.04
572.05	11.92
572.474	11.82
572.897	11.72
573.32	11.62
573.743	11.51
574.166	11.41
574.589	11.3
575.012	11.19
575.435	11.1
575.858	11.02
576.281	10.92
576.704	10.84
577.126	10.76
577.549	10.67
577.972	10.58
578.394	10.5
578.817	10.44
579.239	10.37
579.661	10.31
580.084	10.24
580.506	10.17
580.928	10.1
581.35	10.03
581.772	9.96
582.194	9.9
582.616	9.83
583.038	9.77
583.46	9.7
583.882	9.65
584.303	9.58
584.725	9.53
585.147	9.48
585.568	9.44
585.99	9.39
586.411	9.34
586.833	9.29
587.254	9.24
587.675	9.19
588.096	9.14
588.518	9.08
588.939	9.06
589.36	9.01
589.781	8.96
590.202	8.93
590.623	8.9
591.043	8.86
591.464	8.83
591.885	8.8
592.305	8.77
592.726	8.76
593.147	8.74
593.567	8.69
593.987	8.66
594.408	8.63
594.828	8.6
595.248	8.57
595.669	8.54
596.089	8.53
596.509	8.51
596.929	8.48
597.349	8.45
597.769	8.42
598.189	8.39
598.608	8.38
599.028	8.36
599.448	8.33
599.867	8.3
600.287	8.28
600.706	8.25
601.126	8.22
601.545	8.2
601.965	8.18
602.384	8.15
602.803	8.12
603.222	8.09
603.641	8.05
604.061	8.01
604.48	7.98
604.898	7.93
605.317	7.89
605.736	7.84
606.155	7.79
606.574	7.74
606.992	7.69
607.411	7.65
607.829	7.57
608.248	7.51
608.666	7.46
609.085	7.41
609.503	7.37
609.921	7.31
610.339	7.27
610.758	7.22
611.176	7.17
611.594	7.13
612.012	7.07
612.43	7.04
612.847	7
613.265	6.95
613.683	6.91
614.101	6.87
614.518	6.82
614.936	6.77
615.353	6.72
615.771	6.68
616.188	6.64
616.606	6.61
617.023	6.58
617.44	6.55
617.857	6.52
618.274	6.49
618.691	6.45
619.108	6.42
619.525	6.39
619.942	6.38
620.359	6.35
620.776	6.33
621.192	6.31
621.609	6.29
622.026	6.27
622.442	6.26
622.859	6.23
623.275	6.22
623.691	6.21
624.108	6.2
624.524	6.18
624.94	6.17
625.356	6.16
625.772	6.15
626.188	6.14
626.604	6.14
627.02	6.13
627.436	6.13
627.852	6.12
628.268	6.12
628.683	6.11
629.099	6.09
629.514	6.07
629.93	6.07
630.345	6.06
630.761	6.04
631.176	6.02
631.591	6
632.007	5.98
632.422	5.95
632.837	5.92
633.252	5.89
633.667	5.86
634.082	5.83
634.497	5.78
634.911	5.73
635.326	5.69
635.741	5.64
636.155	5.59
636.57	5.54
636.984	5.49
637.399	5.45
637.813	5.39
638.228	5.33
638.642	5.27
639.056	5.21
639.47	5.17
639.884	5.11
640.298	5.05
640.712	4.99
641.126	4.92
641.54	4.86
641.954	4.8
642.368	4.75
642.781	4.71
643.195	4.66
643.609	4.62
644.022	4.56
644.436	4.51
644.849	4.47
645.262	4.43
645.676	4.39
646.089	4.36
646.502	4.34
646.915	4.31
647.328	4.29
647.741	4.26
648.154	4.23
648.567	4.23
648.98	4.21
649.393	4.2
649.805	4.18
650.218	4.16
650.631	4.16
651.043	4.15
651.456	4.13
651.868	4.11
652.28	4.1
652.693	4.09
653.105	4.07
653.517	4.06
653.929	4.05
654.341	4.04
654.753	4.03
655.165	4
655.577	3.98
655.989	3.96
656.401	3.94
656.813	3.93
657.224	3.91
657.636	3.87
658.047	3.86
658.459	3.84
658.87	3.82
659.282	3.8
659.693	3.79
660.104	3.76
660.515	3.74
660.926	3.72
661.338	3.7
661.749	3.68
662.159	3.68
662.57	3.66
662.981	3.65
663.392	3.64
663.803	3.63
664.213	3.62
664.624	3.61
665.035	3.6
665.445	3.6
665.855	3.6
666.266	3.61
666.676	3.61
667.086	3.6
667.497	3.6
667.907	3.6
668.317	3.6
668.727	3.6
669.137	3.61
669.547	3.62
669.956	3.63
670.366	3.64
670.776	3.64
671.186	3.64
671.595	3.65
672.005	3.67
672.414	3.68
672.824	3.7
673.233	3.71
673.642	3.72
674.052	3.74
674.461	3.76
674.87	3.79
675.279	3.82
675.688	3.85
676.097	3.88
676.506	3.91
676.915	3.94
677.323	3.96
677.732	3.98
678.141	4
678.549	4.02
678.958	4.05
679.366	4.07
679.775	4.09
680.183	4.12
680.592	4.14
681	4.17
681.408	4.21
681.816	4.25
682.224	4.3
682.632	4.34
683.04	4.38
683.448	4.42
683.856	4.46
684.264	4.51
684.671	4.57
685.079	4.62
685.487	4.7
685.894	4.78
686.302	4.87
686.709	4.98
687.116	5.09
687.524	5.22
687.931	5.37
688.338	5.55
688.745	5.72
689.152	5.93
689.559	6.16
689.966	6.41
690.373	6.67
690.78	6.94
691.187	7.24
691.593	7.56
692	7.9
692.407	8.25
692.813	8.63
693.22	9.02
693.626	9.43
694.032	9.84
694.439	10.26
694.845	10.72
695.251	11.19
695.657	11.66
696.063	12.14
696.469	12.63
696.875	13.13
697.281	13.62
697.687	14.13
698.093	14.63
698.498	15.15
698.904	15.66
699.31	16.15
699.715	16.66
700.12	17.17
700.526	17.67
700.931	18.2
701.337	18.7
701.742	19.21
702.147	19.7
702.552	20.22
702.957	20.7
703.362	21.18
703.767	21.68
704.172	22.15
704.577	22.63
704.981	23.09
705.386	23.55
705.791	24.04
706.195	24.5
706.6	24.98
707.004	25.42
707.408	25.88
707.813	26.35
708.217	26.81
708.621	27.27
709.025	27.73
709.43	28.18
709.834	28.64
710.237	29.06
710.641	29.5
711.045	29.93
711.449	30.37
711.853	30.83
712.256	31.22
712.66	31.61
713.064	31.99
713.467	32.38
713.87	32.75
714.274	33.13
714.677	33.51
715.08	33.9
715.484	34.28
715.887	34.65
716.29	34.97
716.693	35.35
717.096	35.73
717.499	36.08
717.901	36.44
718.304	36.79
718.707	37.13
719.109	37.47
719.512	37.77
719.915	38.08
720.317	38.37
720.719	38.68
721.122	38.97
721.524	39.26
721.926	39.57
722.328	39.84
722.731	40.11
723.133	40.38
723.535	40.65
723.937	40.91
724.338	41.16
724.74	41.42
725.142	41.77
725.544	42.01
725.945	42.25
726.347	42.45
726.748	42.64
727.15	42.83
727.551	43.07
727.952	43.24
728.354	43.41
728.755	43.58
729.156	43.73
729.557	43.76
729.958	43.91
730.359	44.03
730.76	44.19
731.161	44.35
731.562	44.5
731.962	44.6
732.363	44.75
732.763	44.89
733.164	45.03
733.564	45.17
733.965	45.32
734.365	45.47
734.766	45.56
735.166	45.68
735.566	45.78
735.966	45.89
736.366	45.99
736.766	46.07
737.166	46.16
737.566	46.25
737.966	46.33
738.365	46.4
738.765	46.47
739.165	46.57
739.564	46.62
739.964	46.68
740.363	46.73
740.763	46.8
741.162	46.87
741.561	46.91
741.96	46.94
742.36	46.98
742.759	47.02
743.158	47.06
743.557	47.1
743.955	47.19
744.354	47.24
744.753	47.29
745.152	47.35
745.55	47.38
745.949	47.45
746.348	47.51
746.746	47.54
747.144	47.59
747.543	47.62
747.941	47.65
748.339	47.63
748.737	47.65
749.136	47.65
749.534	47.64
749.932	47.64
750.33	47.63
750.727	47.65
751.125	47.66
751.523	47.63
751.921	47.65
752.318	47.67
752.716	47.72
753.113	47.72
753.511	47.74
753.908	47.81
754.305	47.84
754.703	47.87
755.1	47.87
755.497	47.87
755.894	47.89
756.291	47.88
756.688	47.87
757.085	47.87
757.482	47.87
757.878	47.88
758.275	47.85
758.672	47.83
759.068	47.85
759.465	47.84
759.861	47.87
760.258	47.88
760.654	47.92
761.05	47.93
761.447	47.94
761.843	47.95
762.239	47.95
762.635	47.97
763.031	47.99
763.427	47.98
763.822	47.97
764.218	47.98
764.614	47.99
765.01	47.97
765.405	47.97
765.801	47.97
766.196	47.97
766.592	47.95
766.987	47.94
767.382	47.93
767.778	47.92
768.173	47.94
768.568	47.89
768.963	47.88
769.358	47.89
769.753	47.88
770.148	47.86
770.542	47.86
770.937	47.87
771.332	47.86
771.726	47.84
772.121	47.83
772.515	47.83
772.91	47.86
773.304	47.87
773.699	47.86
774.093	47.86
774.487	47.87
774.881	47.89
775.275	47.89
775.669	47.88
776.063	47.87
776.457	47.88
776.851	47.87
777.245	47.84
777.638	47.84
778.032	47.82
778.425	47.86
778.819	47.85
779.212	47.83
779.606	47.84
779.999	47.86
780.392	47.9
780.786	47.89
781.179	47.92
781.572	47.95
781.965	47.96
782.358	47.96
782.751	47.94
783.143	47.93
783.536	47.92
783.929	47.91
784.322	47.91
784.714	47.91
785.107	47.91
785.499	47.88
785.891	47.89
786.284	47.89
786.676	47.89
787.068	47.91
787.46	47.89
