Data from N_2_HIR_IL_4N_Splice17_13-10-42-234.txt Node
Date: Sat Mar 07 13:10:42 EST 2020
User: sa697716
Spectrometer: NQ5500242
Trigger mode: 0
Integration Time (sec): 1.450000E-1
Scans to average: 20
Nonlinearity correction enabled: false
Boxcar width: 5
Storing dark spectrum: false
XAxis mode: Wavelengths
Number of Pixels in Spectrum: 512
>>>>>Begin Spectral Data<<<<<
187.83	193
188.298	213.07
188.766	217.83
189.233	176.73
189.701	184.55
190.169	201.81
190.636	253.12
191.104	371.41
191.571	277.09
192.039	-133.63
192.506	-454.76
192.974	116.08
193.441	222.11
193.908	168.58
194.375	116.73
194.842	104.28
195.31	117.5
195.777	265.05
196.244	49.94
196.711	43.64
197.177	43.43
197.644	44.28
198.111	44.14
198.578	44.23
199.045	44.75
199.511	44.58
199.978	44.52
200.445	44.77
200.911	44.68
201.378	44.68
201.844	44.65
202.31	44.42
202.777	44.5
203.243	44.51
203.709	44.25
204.176	43.63
204.642	43.51
205.108	43.54
205.574	43.17
206.04	42.92
206.506	42.79
206.972	42.6
207.438	42.34
207.903	41.47
208.369	41.1
208.835	40.69
209.301	40.48
209.766	39.56
210.232	38.81
210.697	38.2
211.163	37.52
211.628	36.76
212.094	36.31
212.559	36.17
213.024	35.66
213.49	35.05
213.955	34.49
214.42	33.79
214.885	33.37
215.35	32.37
215.815	31.27
216.28	29.98
216.745	28.53
217.21	27.08
217.675	25.55
218.14	24.55
218.604	23.65
219.069	22.89
219.534	22.27
219.998	21.74
220.463	21.37
220.927	20.99
221.392	20.66
221.856	20.37
222.32	20.09
222.785	19.93
223.249	19.71
223.713	19.51
224.177	19.3
224.642	19.1
225.106	18.87
225.57	18.61
226.034	18.41
226.497	18.23
226.961	18.07
227.425	17.91
227.889	17.71
228.353	17.51
228.816	17.33
229.28	17.15
229.744	16.96
230.207	16.79
230.671	16.64
231.134	16.46
231.597	16.31
232.061	16.12
232.524	15.95
232.987	15.78
233.45	15.64
233.914	15.47
234.377	15.31
234.84	15.17
235.303	15.03
235.766	14.89
236.229	14.75
236.691	14.6
237.154	14.5
237.617	14.37
238.08	14.24
238.542	14.1
239.005	13.99
239.468	13.86
239.93	13.75
240.393	13.65
240.855	13.52
241.317	13.39
241.78	13.28
242.242	13.14
242.704	13.04
243.166	12.93
243.629	12.84
244.091	12.74
244.553	12.64
245.015	12.54
245.477	12.43
245.939	12.34
246.4	12.26
246.862	12.17
247.324	12.08
247.786	11.99
248.247	11.91
248.709	11.81
249.17	11.71
249.632	11.63
250.093	11.55
250.555	11.47
251.016	11.4
251.477	11.33
251.939	11.27
252.4	11.21
252.861	11.15
253.322	11.08
253.783	11.02
254.244	10.97
254.705	10.91
255.166	10.86
255.627	10.81
256.088	10.76
256.549	10.69
257.009	10.62
257.47	10.55
257.931	10.49
258.391	10.42
258.852	10.35
259.312	10.3
259.773	10.24
260.233	10.18
260.694	10.12
261.154	10.05
261.614	10.01
262.074	9.96
262.534	9.91
262.994	9.87
263.455	9.84
263.915	9.8
264.374	9.77
264.834	9.76
265.294	9.73
265.754	9.71
266.214	9.69
266.673	9.67
267.133	9.66
267.593	9.64
268.052	9.63
268.512	9.61
268.971	9.6
269.431	9.57
269.89	9.55
270.349	9.52
270.809	9.5
271.268	9.48
271.727	9.46
272.186	9.43
272.645	9.41
273.104	9.38
273.563	9.35
274.022	9.33
274.481	9.3
274.94	9.28
275.399	9.25
275.857	9.23
276.316	9.21
276.775	9.17
277.233	9.14
277.692	9.12
278.15	9.09
278.609	9.07
279.067	9.03
279.525	9.01
279.984	8.98
280.442	8.95
280.9	8.93
281.358	8.89
281.816	8.88
282.274	8.85
282.732	8.82
283.19	8.8
283.648	8.76
284.106	8.73
284.564	8.69
285.021	8.67
285.479	8.64
285.937	8.61
286.394	8.58
286.852	8.54
287.309	8.51
287.767	8.47
288.224	8.42
288.682	8.39
289.139	8.35
289.596	8.31
290.053	8.27
290.511	8.23
290.968	8.2
291.425	8.17
291.882	8.15
292.339	8.12
292.796	8.11
293.252	8.09
293.709	8.07
294.166	8.05
294.623	8.03
295.079	8
295.536	7.99
295.992	7.96
296.449	7.94
296.905	7.91
297.362	7.89
297.818	7.86
298.274	7.84
298.731	7.81
299.187	7.78
299.643	7.77
300.099	7.76
300.555	7.73
301.011	7.71
301.467	7.7
301.923	7.67
302.379	7.65
302.835	7.64
303.291	7.62
303.746	7.6
304.202	7.6
304.658	7.58
305.113	7.55
305.569	7.53
306.024	7.52
306.479	7.5
306.935	7.48
307.39	7.47
307.845	7.45
308.301	7.44
308.756	7.43
309.211	7.4
309.666	7.39
310.121	7.38
310.576	7.37
311.031	7.34
311.486	7.32
311.94	7.32
312.395	7.29
312.85	7.28
313.305	7.25
313.759	7.24
314.214	7.23
314.668	7.2
315.123	7.18
315.577	7.17
316.032	7.15
316.486	7.13
316.94	7.1
317.394	7.07
317.849	7.05
318.303	7.03
318.757	7.01
319.211	6.99
319.665	6.96
320.119	6.94
320.572	6.92
321.026	6.9
321.48	6.88
321.934	6.87
322.387	6.85
322.841	6.83
323.295	6.82
323.748	6.81
324.202	6.8
324.655	6.79
325.108	6.78
325.562	6.77
326.015	6.76
326.468	6.75
326.921	6.74
327.374	6.72
327.827	6.71
328.28	6.69
328.733	6.67
329.186	6.65
329.639	6.64
330.092	6.63
330.545	6.62
330.997	6.61
331.45	6.59
331.903	6.58
332.355	6.57
332.808	6.57
333.26	6.56
333.713	6.55
334.165	6.53
334.617	6.52
335.069	6.51
335.522	6.5
335.974	6.48
336.426	6.47
336.878	6.46
337.33	6.44
337.782	6.43
338.234	6.43
338.686	6.42
339.137	6.42
339.589	6.4
340.041	6.39
340.493	6.38
340.944	6.36
341.396	6.35
341.847	6.33
342.299	6.31
342.75	6.28
343.201	6.25
343.653	6.24
344.104	6.21
344.555	6.19
345.006	6.17
345.457	6.16
345.908	6.15
346.359	6.15
346.81	6.14
347.261	6.13
347.712	6.12
348.163	6.12
348.613	6.12
349.064	6.12
349.515	6.11
349.965	6.1
350.416	6.09
350.866	6.08
351.317	6.06
351.767	6.06
352.217	6.07
352.668	6.07
353.118	6.07
353.568	6.05
354.018	6.06
354.468	6.06
354.918	6.06
355.368	6.06
355.818	6.05
356.268	6.05
356.718	6.05
357.168	6.02
357.617	6.01
358.067	6
358.517	6.01
358.966	6
359.416	5.99
359.865	5.98
360.315	5.98
360.764	5.97
361.213	5.96
361.663	5.95
362.112	5.96
362.561	5.95
363.01	5.94
363.459	5.92
363.908	5.9
364.357	5.9
364.806	5.88
365.255	5.88
365.703	5.89
366.152	5.89
366.601	5.88
367.05	5.87
367.498	5.86
367.947	5.86
368.395	5.87
368.844	5.86
369.292	5.84
369.74	5.84
370.189	5.84
370.637	5.82
371.085	5.81
371.533	5.8
371.981	5.78
372.429	5.77
372.877	5.77
373.325	5.76
373.773	5.75
374.221	5.74
374.669	5.73
375.116	5.72
375.564	5.71
376.012	5.7
376.459	5.7
376.907	5.71
377.354	5.69
377.801	5.68
378.249	5.68
378.696	5.68
379.143	5.67
379.591	5.67
380.038	5.66
380.485	5.65
380.932	5.64
381.379	5.63
381.826	5.62
382.273	5.61
382.72	5.58
383.166	5.58
383.613	5.57
384.06	5.56
384.506	5.57
384.953	5.56
385.4	5.56
385.846	5.56
386.292	5.55
386.739	5.54
387.185	5.53
387.631	5.54
388.078	5.52
388.524	5.51
388.97	5.5
389.416	5.49
389.862	5.49
390.308	5.49
390.754	5.49
391.2	5.5
391.645	5.51
392.091	5.52
392.537	5.52
392.983	5.52
393.428	5.53
393.874	5.52
394.319	5.53
394.765	5.53
395.21	5.53
395.655	5.54
396.101	5.55
396.546	5.55
396.991	5.57
397.436	5.57
397.881	5.6
398.326	5.62
398.771	5.64
399.216	5.65
399.661	5.66
400.106	5.67
400.551	5.68
400.995	5.67
401.44	5.68
401.885	5.69
402.329	5.72
402.774	5.73
403.218	5.75
403.663	5.77
404.107	5.78
404.551	5.8
404.995	5.82
405.44	5.83
405.884	5.87
406.328	5.88
406.772	5.89
407.216	5.9
407.66	5.92
408.104	5.91
408.547	5.93
408.991	5.95
409.435	5.96
409.879	5.98
410.322	6.01
410.766	6.04
411.209	6.06
411.653	6.09
412.096	6.11
412.54	6.12
412.983	6.14
413.426	6.18
413.869	6.2
414.312	6.23
414.756	6.25
415.199	6.24
415.642	6.25
416.085	6.26
416.527	6.27
416.97	6.26
417.413	6.27
417.856	6.27
418.298	6.26
418.741	6.26
419.184	6.27
419.626	6.28
420.069	6.31
420.511	6.33
420.953	6.35
421.396	6.36
421.838	6.39
422.28	6.41
422.722	6.44
423.164	6.45
423.606	6.46
424.048	6.46
424.49	6.47
424.932	6.45
425.374	6.42
425.816	6.38
426.258	6.38
426.699	6.37
427.141	6.36
427.582	6.36
428.024	6.36
428.465	6.36
428.907	6.35
429.348	6.33
429.789	6.34
430.231	6.36
430.672	6.4
431.113	6.41
431.554	6.41
431.995	6.42
432.436	6.43
432.877	6.43
433.318	6.45
433.759	6.47
434.2	6.5
434.64	6.51
435.081	6.52
435.522	6.54
435.962	6.55
436.403	6.56
436.843	6.58
437.284	6.57
437.724	6.59
438.164	6.58
438.604	6.6
439.045	6.59
439.485	6.59
439.925	6.59
440.365	6.6
440.805	6.61
441.245	6.63
441.685	6.64
442.125	6.65
442.564	6.65
443.004	6.64
443.444	6.64
443.883	6.67
444.323	6.66
444.762	6.67
445.202	6.67
445.641	6.68
446.081	6.68
446.52	6.68
446.959	6.71
447.398	6.73
447.837	6.75
448.276	6.77
448.716	6.78
449.154	6.8
449.593	6.81
450.032	6.81
450.471	6.79
450.91	6.78
451.349	6.78
451.787	6.76
452.226	6.74
452.664	6.74
453.103	6.73
453.541	6.72
453.98	6.72
454.418	6.69
454.856	6.7
455.295	6.69
455.733	6.67
456.171	6.66
456.609	6.65
457.047	6.64
457.485	6.63
457.923	6.61
458.361	6.6
458.798	6.6
459.236	6.61
459.674	6.58
460.111	6.58
460.549	6.59
460.987	6.59
461.424	6.6
461.862	6.59
462.299	6.61
462.736	6.62
463.173	6.62
463.611	6.62
464.048	6.62
464.485	6.64
464.922	6.65
465.359	6.64
465.796	6.66
466.233	6.65
466.67	6.67
467.106	6.68
467.543	6.68
467.98	6.68
468.416	6.66
468.853	6.66
469.29	6.65
469.726	6.64
470.162	6.63
470.599	6.62
471.035	6.61
471.471	6.59
471.907	6.56
472.344	6.55
472.78	6.55
473.216	6.54
473.652	6.54
474.088	6.51
474.523	6.52
474.959	6.51
475.395	6.49
475.831	6.5
476.266	6.5
476.702	6.5
477.138	6.49
477.573	6.48
478.008	6.48
478.444	6.46
478.879	6.47
479.314	6.46
479.75	6.45
480.185	6.43
480.62	6.42
481.055	6.4
481.49	6.39
481.925	6.38
482.36	6.37
482.795	6.36
483.229	6.36
483.664	6.36
484.099	6.36
484.534	6.36
484.968	6.37
485.403	6.37
485.837	6.39
486.271	6.41
486.706	6.42
487.14	6.43
487.574	6.45
488.009	6.47
488.443	6.49
488.877	6.51
489.311	6.54
489.745	6.57
490.179	6.61
490.613	6.65
491.046	6.67
491.48	6.72
491.914	6.77
492.348	6.82
492.781	6.87
493.215	6.93
493.648	6.99
494.082	7.05
494.515	7.11
494.948	7.17
495.382	7.23
495.815	7.32
496.248	7.39
496.681	7.46
497.114	7.55
497.547	7.64
497.98	7.72
498.413	7.82
498.846	7.92
499.279	8.02
499.711	8.14
500.144	8.26
500.577	8.37
501.009	8.5
501.442	8.63
501.874	8.78
502.306	8.92
502.739	9.09
503.171	9.25
503.603	9.42
504.036	9.6
504.468	9.77
504.9	9.95
505.332	10.14
505.764	10.34
506.196	10.55
506.627	10.76
507.059	10.98
507.491	11.19
507.923	11.43
508.354	11.68
508.786	11.93
509.217	12.19
509.649	12.47
510.08	12.74
510.512	13.03
510.943	13.31
511.374	13.61
511.805	13.9
512.237	14.19
512.668	14.5
513.099	14.79
513.53	15.11
513.961	15.42
514.391	15.74
514.822	16.08
515.253	16.4
515.684	16.73
516.114	17.07
516.545	17.42
516.975	17.77
517.406	18.1
517.836	18.46
518.267	18.81
518.697	19.14
519.127	19.47
519.558	19.8
519.988	20.13
520.418	20.45
520.848	20.78
521.278	21.09
521.708	21.56
522.138	21.88
522.567	22.17
522.997	22.44
523.427	22.73
523.857	23.01
524.286	23.26
524.716	23.52
525.145	23.78
525.575	24.01
526.004	24.25
526.433	24.32
526.863	24.53
527.292	24.75
527.721	24.95
528.15	25.14
528.579	25.33
529.008	25.53
529.437	25.69
529.866	25.85
530.295	26.01
530.724	26.15
531.152	26.29
531.581	26.42
532.01	26.56
532.438	26.69
532.867	26.83
533.295	26.94
533.723	27.04
534.152	27.13
534.58	27.25
535.008	27.33
535.436	27.42
535.865	27.47
536.293	27.55
536.721	27.61
537.149	27.69
537.576	27.72
538.004	27.77
538.432	27.81
538.86	27.87
539.287	27.88
539.715	27.93
540.143	27.97
540.57	28.02
540.998	28.06
541.425	28.09
541.852	28.11
542.28	28.15
542.707	28.19
543.134	28.23
543.561	28.25
543.988	28.29
544.415	28.3
544.842	28.31
545.269	28.34
545.696	28.36
546.123	28.39
546.549	28.41
546.976	28.44
547.403	28.45
547.829	28.46
548.256	28.48
548.682	28.49
549.108	28.52
549.535	28.54
549.961	28.54
550.387	28.55
550.813	28.55
551.24	28.55
551.666	28.54
552.092	28.53
552.518	28.53
552.943	28.5
553.369	28.47
553.795	28.44
554.221	28.4
554.646	28.35
555.072	28.29
555.498	28.22
555.923	28.14
556.349	28.08
556.774	28
557.199	27.92
557.625	27.83
558.05	27.75
558.475	27.66
558.9	27.56
559.325	27.48
559.75	27.39
560.175	27.29
560.6	27.17
561.025	27.05
561.449	26.93
561.874	26.8
562.299	26.67
562.723	26.53
563.148	26.37
563.572	26.21
563.997	26.06
564.421	25.89
564.846	25.73
565.27	25.58
565.694	25.41
566.118	25.25
566.542	25.09
566.966	24.92
567.39	24.75
567.814	24.58
568.238	24.42
568.662	24.25
569.086	24.08
569.509	23.91
569.933	23.74
570.357	23.58
570.78	23.39
571.204	23.23
571.627	23.06
572.05	22.89
572.474	22.75
572.897	22.6
573.32	22.45
573.743	22.29
574.166	22.15
574.589	22
575.012	21.85
575.435	21.72
575.858	21.59
576.281	21.46
576.704	21.34
577.126	21.2
577.549	21.08
577.972	20.95
578.394	20.84
578.817	20.72
579.239	20.61
579.661	20.51
580.084	20.4
580.506	20.3
580.928	20.19
581.35	20.08
581.772	19.97
582.194	19.88
582.616	19.81
583.038	19.72
583.46	19.63
583.882	19.54
584.303	19.46
584.725	19.38
585.147	19.29
585.568	19.22
585.99	19.15
586.411	19.07
586.833	18.99
587.254	18.89
587.675	18.81
588.096	18.73
588.518	18.67
588.939	18.62
589.36	18.54
589.781	18.49
590.202	18.44
590.623	18.38
591.043	18.32
591.464	18.26
591.885	18.21
592.305	18.17
592.726	18.12
593.147	18.07
593.567	18.01
593.987	17.96
594.408	17.92
594.828	17.87
595.248	17.84
595.669	17.81
596.089	17.77
596.509	17.73
596.929	17.69
597.349	17.65
597.769	17.63
598.189	17.6
598.608	17.58
599.028	17.53
599.448	17.49
599.867	17.45
600.287	17.4
600.706	17.35
601.126	17.3
601.545	17.25
601.965	17.21
602.384	17.14
602.803	17.07
603.222	17
603.641	16.93
604.061	16.86
604.48	16.77
604.898	16.69
605.317	16.62
605.736	16.56
606.155	16.49
606.574	16.4
606.992	16.32
607.411	16.24
607.829	16.13
608.248	16.04
608.666	15.96
609.085	15.88
609.503	15.8
609.921	15.72
610.339	15.62
610.758	15.53
611.176	15.44
611.594	15.35
612.012	15.25
612.43	15.18
612.847	15.1
613.265	15
613.683	14.91
614.101	14.82
614.518	14.73
614.936	14.64
615.353	14.55
615.771	14.47
616.188	14.4
616.606	14.34
617.023	14.27
617.44	14.21
617.857	14.14
618.274	14.07
618.691	14.01
619.108	13.95
619.525	13.9
619.942	13.86
620.359	13.82
620.776	13.77
621.192	13.73
621.609	13.7
622.026	13.66
622.442	13.65
622.859	13.63
623.275	13.6
623.691	13.58
624.108	13.55
624.524	13.52
624.94	13.5
625.356	13.48
625.772	13.47
626.188	13.46
626.604	13.44
627.02	13.41
627.436	13.39
627.852	13.39
628.268	13.36
628.683	13.35
629.099	13.34
629.514	13.32
629.93	13.3
630.345	13.27
630.761	13.23
631.176	13.17
631.591	13.13
632.007	13.09
632.422	13.03
632.837	12.98
633.252	12.9
633.667	12.82
634.082	12.74
634.497	12.66
634.911	12.57
635.326	12.47
635.741	12.39
636.155	12.28
636.57	12.17
636.984	12.05
637.399	11.93
637.813	11.82
638.228	11.69
638.642	11.55
639.056	11.41
639.47	11.27
639.884	11.14
640.298	11
640.712	10.86
641.126	10.72
641.54	10.58
641.954	10.44
642.368	10.29
642.781	10.16
643.195	10.04
643.609	9.92
644.022	9.8
644.436	9.69
644.849	9.57
645.262	9.47
645.676	9.36
646.089	9.26
646.502	9.18
646.915	9.11
647.328	9.03
647.741	8.95
648.154	8.88
648.567	8.82
648.98	8.76
649.393	8.7
649.805	8.66
650.218	8.62
650.631	8.58
651.043	8.54
651.456	8.48
651.868	8.45
652.28	8.41
652.693	8.37
653.105	8.31
653.517	8.26
653.929	8.21
654.341	8.14
654.753	8.07
655.165	8.01
655.577	7.95
655.989	7.9
656.401	7.82
656.813	7.75
657.224	7.67
657.636	7.58
658.047	7.51
658.459	7.42
658.87	7.33
659.282	7.24
659.693	7.15
660.104	7.05
660.515	6.96
660.926	6.88
661.338	6.79
661.749	6.7
662.159	6.63
662.57	6.55
662.981	6.49
663.392	6.43
663.803	6.37
664.213	6.31
664.624	6.26
665.035	6.2
665.445	6.15
665.855	6.11
666.266	6.08
666.676	6.04
667.086	6
667.497	5.97
667.907	5.95
668.317	5.92
668.727	5.9
669.137	5.88
669.547	5.88
669.956	5.87
670.366	5.86
670.776	5.85
671.186	5.85
671.595	5.84
672.005	5.84
672.414	5.85
672.824	5.86
673.233	5.87
673.642	5.89
674.052	5.91
674.461	5.93
674.87	5.95
675.279	5.98
675.688	6.01
676.097	6.05
676.506	6.09
676.915	6.12
677.323	6.16
677.732	6.17
678.141	6.21
678.549	6.26
678.958	6.3
679.366	6.36
679.775	6.42
680.183	6.48
680.592	6.56
681	6.63
681.408	6.71
681.816	6.81
682.224	6.94
682.632	7.06
683.04	7.19
683.448	7.34
683.856	7.49
684.264	7.67
684.671	7.87
685.079	8.09
685.487	8.34
685.894	8.62
686.302	8.9
686.709	9.23
687.116	9.58
687.524	9.97
687.931	10.38
688.338	10.84
688.745	11.29
689.152	11.78
689.559	12.3
689.966	12.84
690.373	13.4
690.78	13.98
691.187	14.57
691.593	15.19
692	15.81
692.407	16.44
692.813	17.1
693.22	17.74
693.626	18.4
694.032	19.07
694.439	19.75
694.845	20.44
695.251	21.14
695.657	21.8
696.063	22.48
696.469	23.16
696.875	23.83
697.281	24.5
697.687	25.19
698.093	25.83
698.498	26.48
698.904	27.12
699.31	27.74
699.715	28.34
700.12	28.95
700.526	29.54
700.931	30.11
701.337	30.68
701.742	31.22
702.147	31.77
702.552	32.33
702.957	32.85
703.362	33.34
703.767	33.81
704.172	34.31
704.577	34.79
704.981	35.26
705.386	35.71
705.791	36.16
706.195	36.62
706.6	37.05
707.004	37.46
707.408	37.88
707.813	38.32
708.217	38.75
708.621	39.17
709.025	39.59
709.43	39.96
709.834	40.36
710.237	40.72
710.641	41.1
711.045	41.46
711.449	41.83
711.853	42.2
712.256	42.53
712.66	42.85
713.064	43.15
713.467	43.46
713.87	43.79
714.274	44.09
714.677	44.42
715.08	44.71
715.484	45
715.887	45.29
716.29	45.54
716.693	45.82
717.096	46.1
717.499	46.39
717.901	46.65
718.304	46.9
718.707	47.17
719.109	47.41
719.512	47.65
719.915	47.9
720.317	48.12
720.719	48.31
721.122	48.52
721.524	48.73
721.926	48.93
722.328	49.13
722.731	49.32
723.133	49.51
723.535	49.69
723.937	49.87
724.338	50.03
724.74	50.18
725.142	50.47
725.544	50.61
725.945	50.81
726.347	50.95
726.748	51.1
727.15	51.21
727.551	51.36
727.952	51.47
728.354	51.6
728.755	51.72
729.156	51.85
729.557	51.88
729.958	51.96
730.359	52.05
730.76	52.16
731.161	52.23
731.562	52.38
731.962	52.46
732.363	52.56
732.763	52.65
733.164	52.73
733.564	52.8
733.965	52.86
734.365	52.99
734.766	53.03
735.166	53.11
735.566	53.19
735.966	53.24
736.366	53.27
736.766	53.32
737.166	53.37
737.566	53.42
737.966	53.49
738.365	53.54
738.765	53.58
739.165	53.63
739.564	53.66
739.964	53.71
740.363	53.75
740.763	53.8
741.162	53.85
741.561	53.87
741.96	53.88
742.36	53.9
742.759	53.95
743.158	53.96
743.557	53.96
743.955	53.98
744.354	53.98
744.753	54
745.152	54.04
745.55	54.04
745.949	54.07
746.348	54.1
746.746	54.13
747.144	54.15
747.543	54.15
747.941	54.19
748.339	54.2
748.737	54.21
749.136	54.2
749.534	54.2
749.932	54.22
750.33	54.22
750.727	54.22
751.125	54.22
751.523	54.2
751.921	54.25
752.318	54.26
752.716	54.27
753.113	54.32
753.511	54.36
753.908	54.36
754.305	54.38
754.703	54.4
755.1	54.41
755.497	54.43
755.894	54.43
756.291	54.41
756.688	54.4
757.085	54.39
757.482	54.36
757.878	54.37
758.275	54.36
758.672	54.35
759.068	54.33
759.465	54.32
759.861	54.32
760.258	54.35
760.654	54.33
761.05	54.34
761.447	54.36
761.843	54.36
762.239	54.32
762.635	54.31
763.031	54.32
763.427	54.31
763.822	54.33
764.218	54.32
764.614	54.31
765.01	54.32
765.405	54.32
765.801	54.27
766.196	54.28
766.592	54.28
766.987	54.29
767.382	54.27
767.778	54.27
768.173	54.26
768.568	54.24
768.963	54.23
769.358	54.24
769.753	54.24
770.148	54.25
770.542	54.23
770.937	54.24
771.332	54.23
771.726	54.24
772.121	54.23
772.515	54.22
772.91	54.23
773.304	54.22
773.699	54.21
774.093	54.19
774.487	54.19
774.881	54.21
775.275	54.2
775.669	54.18
776.063	54.2
776.457	54.2
776.851	54.18
777.245	54.14
777.638	54.14
778.032	54.15
778.425	54.17
778.819	54.19
779.212	54.17
779.606	54.2
