Data from N_2_HIR_WI_4N_Splice17_13-33-46-401.txt Node
Date: Sat Mar 07 13:33:46 EST 2020
User: sa697716
Spectrometer: NQ5500242
Trigger mode: 0
Integration Time (sec): 1.450000E-1
Scans to average: 20
Nonlinearity correction enabled: false
Boxcar width: 5
Storing dark spectrum: false
XAxis mode: Wavelengths
Number of Pixels in Spectrum: 512
>>>>>Begin Spectral Data<<<<<
187.83	118.86
188.298	130.18
188.766	104.16
189.233	101.12
189.701	103.22
190.169	138.46
190.636	146.8
191.104	207.61
191.571	88.51
192.039	177.27
192.506	365.98
192.974	10.03
193.441	74.47
193.908	-40.56
194.375	42.16
194.842	23.26
195.31	159.06
195.777	271.14
196.244	90.74
196.711	85.83
197.177	89.51
197.644	87.21
198.111	86.98
198.578	86.95
199.045	87.73
199.511	87.01
199.978	86.94
200.445	86.8
200.911	86.89
201.378	87.09
201.844	86.72
202.31	86.05
202.777	86.44
203.243	86.19
203.709	85.76
204.176	84.74
204.642	84.14
205.108	83.77
205.574	83.27
206.04	82.36
206.506	81.26
206.972	80.69
207.438	79.88
207.903	78.59
208.369	76.91
208.835	75.19
209.301	73.69
209.766	71.8
210.232	69.85
210.697	67.82
211.163	66.02
211.628	64.66
212.094	62.88
212.559	61.27
213.024	59.92
213.49	58.5
213.955	57.11
214.42	55.63
214.885	54.07
215.35	51.81
215.815	48.94
216.28	45.37
216.745	41.35
217.21	37.52
217.675	33.94
218.14	30.83
218.604	28.13
219.069	25.87
219.534	24.05
219.998	22.46
220.463	21.24
220.927	20.08
221.392	19.24
221.856	18.5
222.32	17.88
222.785	17.36
223.249	16.85
223.713	16.38
224.177	15.98
224.642	15.59
225.106	15.2
225.57	14.81
226.034	14.52
226.497	14.21
226.961	13.93
227.425	13.67
227.889	13.4
228.353	13.13
228.816	12.9
229.28	12.65
229.744	12.42
230.207	12.22
230.671	12
231.134	11.79
231.597	11.61
232.061	11.43
232.524	11.24
232.987	11.06
233.45	10.91
233.914	10.75
234.377	10.61
234.84	10.47
235.303	10.35
235.766	10.24
236.229	10.14
236.691	10.03
237.154	9.91
237.617	9.81
238.08	9.71
238.542	9.61
239.005	9.53
239.468	9.42
239.93	9.35
240.393	9.25
240.855	9.14
241.317	9.06
241.78	8.96
242.242	8.87
242.704	8.8
243.166	8.71
243.629	8.64
244.091	8.54
244.553	8.46
245.015	8.36
245.477	8.28
245.939	8.21
246.4	8.12
246.862	8.04
247.324	7.97
247.786	7.88
248.247	7.8
248.709	7.72
249.17	7.64
249.632	7.59
250.093	7.53
250.555	7.47
251.016	7.4
251.477	7.34
251.939	7.29
252.4	7.23
252.861	7.18
253.322	7.13
253.783	7.1
254.244	7.06
254.705	7
255.166	6.95
255.627	6.9
256.088	6.85
256.549	6.81
257.009	6.75
257.47	6.7
257.931	6.64
258.391	6.58
258.852	6.52
259.312	6.47
259.773	6.42
260.233	6.37
260.694	6.32
261.154	6.27
261.614	6.22
262.074	6.17
262.534	6.13
262.994	6.09
263.455	6.05
263.915	6.02
264.374	5.98
264.834	5.94
265.294	5.9
265.754	5.88
266.214	5.85
266.673	5.83
267.133	5.8
267.593	5.77
268.052	5.76
268.512	5.74
268.971	5.72
269.431	5.69
269.89	5.67
270.349	5.65
270.809	5.63
271.268	5.61
271.727	5.59
272.186	5.58
272.645	5.57
273.104	5.54
273.563	5.52
274.022	5.5
274.481	5.49
274.94	5.48
275.399	5.46
275.857	5.45
276.316	5.43
276.775	5.42
277.233	5.4
277.692	5.38
278.15	5.37
278.609	5.36
279.067	5.34
279.525	5.33
279.984	5.31
280.442	5.3
280.9	5.29
281.358	5.28
281.816	5.27
282.274	5.26
282.732	5.25
283.19	5.24
283.648	5.22
284.106	5.21
284.564	5.19
285.021	5.19
285.479	5.17
285.937	5.15
286.394	5.14
286.852	5.12
287.309	5.1
287.767	5.09
288.224	5.07
288.682	5.05
289.139	5.03
289.596	5.01
290.053	4.98
290.511	4.95
290.968	4.93
291.425	4.9
291.882	4.88
292.339	4.85
292.796	4.83
293.252	4.81
293.709	4.8
294.166	4.78
294.623	4.76
295.079	4.74
295.536	4.73
295.992	4.72
296.449	4.7
296.905	4.69
297.362	4.68
297.818	4.66
298.274	4.66
298.731	4.64
299.187	4.63
299.643	4.62
300.099	4.61
300.555	4.6
301.011	4.58
301.467	4.58
301.923	4.57
302.379	4.56
302.835	4.56
303.291	4.54
303.746	4.53
304.202	4.53
304.658	4.52
305.113	4.52
305.569	4.52
306.024	4.51
306.479	4.5
306.935	4.49
307.39	4.49
307.845	4.48
308.301	4.47
308.756	4.48
309.211	4.47
309.666	4.48
310.121	4.47
310.576	4.47
311.031	4.47
311.486	4.48
311.94	4.49
312.395	4.48
312.85	4.48
313.305	4.48
313.759	4.48
314.214	4.47
314.668	4.45
315.123	4.45
315.577	4.43
316.032	4.42
316.486	4.39
316.94	4.38
317.394	4.37
317.849	4.36
318.303	4.33
318.757	4.31
319.211	4.29
319.665	4.28
320.119	4.26
320.572	4.24
321.026	4.23
321.48	4.22
321.934	4.2
322.387	4.18
322.841	4.17
323.295	4.16
323.748	4.15
324.202	4.15
324.655	4.15
325.108	4.15
325.562	4.15
326.015	4.14
326.468	4.14
326.921	4.14
327.374	4.14
327.827	4.14
328.28	4.14
328.733	4.14
329.186	4.14
329.639	4.14
330.092	4.14
330.545	4.14
330.997	4.13
331.45	4.13
331.903	4.14
332.355	4.14
332.808	4.15
333.26	4.14
333.713	4.15
334.165	4.14
334.617	4.14
335.069	4.15
335.522	4.16
335.974	4.16
336.426	4.15
336.878	4.14
337.33	4.13
337.782	4.14
338.234	4.14
338.686	4.13
339.137	4.12
339.589	4.11
340.041	4.1
340.493	4.08
340.944	4.06
341.396	4.05
341.847	4.04
342.299	4.02
342.75	3.99
343.201	3.96
343.653	3.95
344.104	3.93
344.555	3.91
345.006	3.89
345.457	3.88
345.908	3.87
346.359	3.87
346.81	3.85
347.261	3.84
347.712	3.83
348.163	3.83
348.613	3.83
349.064	3.83
349.515	3.82
349.965	3.82
350.416	3.82
350.866	3.82
351.317	3.8
351.767	3.81
352.217	3.81
352.668	3.81
353.118	3.8
353.568	3.79
354.018	3.79
354.468	3.8
354.918	3.79
355.368	3.79
355.818	3.79
356.268	3.79
356.718	3.8
357.168	3.79
357.617	3.78
358.067	3.78
358.517	3.8
358.966	3.8
359.416	3.79
359.865	3.79
360.315	3.79
360.764	3.79
361.213	3.78
361.663	3.77
362.112	3.78
362.561	3.78
363.01	3.78
363.459	3.75
363.908	3.73
364.357	3.74
364.806	3.73
365.255	3.73
365.703	3.73
366.152	3.73
366.601	3.74
367.05	3.73
367.498	3.72
367.947	3.71
368.395	3.73
368.844	3.73
369.292	3.72
369.74	3.72
370.189	3.71
370.637	3.7
371.085	3.69
371.533	3.68
371.981	3.67
372.429	3.67
372.877	3.65
373.325	3.65
373.773	3.64
374.221	3.63
374.669	3.62
375.116	3.61
375.564	3.6
376.012	3.6
376.459	3.59
376.907	3.6
377.354	3.6
377.801	3.61
378.249	3.6
378.696	3.6
379.143	3.59
379.591	3.59
380.038	3.59
380.485	3.59
380.932	3.58
381.379	3.58
381.826	3.58
382.273	3.57
382.72	3.56
383.166	3.55
383.613	3.54
384.06	3.52
384.506	3.52
384.953	3.51
385.4	3.52
385.846	3.52
386.292	3.5
386.739	3.49
387.185	3.48
387.631	3.48
388.078	3.48
388.524	3.47
388.97	3.47
389.416	3.47
389.862	3.47
390.308	3.47
390.754	3.48
391.2	3.49
391.645	3.49
392.091	3.51
392.537	3.52
392.983	3.53
393.428	3.54
393.874	3.55
394.319	3.55
394.765	3.55
395.21	3.56
395.655	3.56
396.101	3.57
396.546	3.58
396.991	3.59
397.436	3.6
397.881	3.62
398.326	3.64
398.771	3.65
399.216	3.66
399.661	3.68
400.106	3.69
400.551	3.69
400.995	3.69
401.44	3.7
401.885	3.71
402.329	3.73
402.774	3.73
403.218	3.76
403.663	3.78
404.107	3.8
404.551	3.82
404.995	3.84
405.44	3.85
405.884	3.87
406.328	3.89
406.772	3.89
407.216	3.9
407.66	3.91
408.104	3.9
408.547	3.91
408.991	3.92
409.435	3.92
409.879	3.94
410.322	3.96
410.766	3.99
411.209	4.03
411.653	4.07
412.096	4.09
412.54	4.12
412.983	4.15
413.426	4.2
413.869	4.23
414.312	4.28
414.756	4.31
415.199	4.33
415.642	4.34
416.085	4.36
416.527	4.36
416.97	4.34
417.413	4.35
417.856	4.34
418.298	4.34
418.741	4.33
419.184	4.32
419.626	4.33
420.069	4.34
420.511	4.35
420.953	4.36
421.396	4.38
421.838	4.41
422.28	4.43
422.722	4.47
423.164	4.48
423.606	4.51
424.048	4.53
424.49	4.54
424.932	4.54
425.374	4.52
425.816	4.49
426.258	4.49
426.699	4.48
427.141	4.47
427.582	4.46
428.024	4.47
428.465	4.47
428.907	4.47
429.348	4.46
429.789	4.47
430.231	4.51
430.672	4.55
431.113	4.58
431.554	4.6
431.995	4.62
432.436	4.63
432.877	4.65
433.318	4.68
433.759	4.7
434.2	4.74
434.64	4.76
435.081	4.77
435.522	4.78
435.962	4.8
436.403	4.83
436.843	4.86
437.284	4.85
437.724	4.87
438.164	4.87
438.604	4.88
439.045	4.9
439.485	4.9
439.925	4.91
440.365	4.91
440.805	4.93
441.245	4.94
441.685	4.95
442.125	4.99
442.564	4.99
443.004	5.01
443.444	5.02
443.883	5.02
444.323	5.03
444.762	5.04
445.202	5.05
445.641	5.06
446.081	5.08
446.52	5.08
446.959	5.09
447.398	5.11
447.837	5.12
448.276	5.13
448.716	5.15
449.154	5.17
449.593	5.2
450.032	5.21
450.471	5.19
450.91	5.2
451.349	5.21
451.787	5.2
452.226	5.19
452.664	5.18
453.103	5.17
453.541	5.16
453.98	5.16
454.418	5.13
454.856	5.12
455.295	5.11
455.733	5.08
456.171	5.07
456.609	5.07
457.047	5.05
457.485	5.04
457.923	5.03
458.361	5.02
458.798	5.02
459.236	5.01
459.674	5
460.111	5
460.549	5.02
460.987	5.02
461.424	5.01
461.862	5.03
462.299	5.05
462.736	5.05
463.173	5.06
463.611	5.05
464.048	5.08
464.485	5.08
464.922	5.08
465.359	5.08
465.796	5.08
466.233	5.09
466.67	5.09
467.106	5.1
467.543	5.09
467.98	5.09
468.416	5.08
468.853	5.07
469.29	5.07
469.726	5.07
470.162	5.07
470.599	5.07
471.035	5.06
471.471	5.05
471.907	5.04
472.344	5.04
472.78	5.04
473.216	5.04
473.652	5.04
474.088	5.02
474.523	5.01
474.959	5
475.395	4.98
475.831	4.97
476.266	4.97
476.702	4.96
477.138	4.95
477.573	4.94
478.008	4.93
478.444	4.9
478.879	4.91
479.314	4.89
479.75	4.88
480.185	4.87
480.62	4.85
481.055	4.83
481.49	4.81
481.925	4.81
482.36	4.8
482.795	4.79
483.229	4.78
483.664	4.78
484.099	4.78
484.534	4.77
484.968	4.79
485.403	4.79
485.837	4.8
486.271	4.81
486.706	4.82
487.14	4.83
487.574	4.84
488.009	4.85
488.443	4.86
488.877	4.88
489.311	4.91
489.745	4.93
490.179	4.96
490.613	4.99
491.046	5.02
491.48	5.05
491.914	5.09
492.348	5.13
492.781	5.18
493.215	5.23
493.648	5.28
494.082	5.32
494.515	5.37
494.948	5.42
495.382	5.47
495.815	5.54
496.248	5.61
496.681	5.68
497.114	5.75
497.547	5.82
497.98	5.91
498.413	5.98
498.846	6.07
499.279	6.16
499.711	6.25
500.144	6.36
500.577	6.46
501.009	6.56
501.442	6.68
501.874	6.79
502.306	6.91
502.739	7.04
503.171	7.18
503.603	7.31
504.036	7.46
504.468	7.6
504.9	7.75
505.332	7.9
505.764	8.06
506.196	8.22
506.627	8.41
507.059	8.59
507.491	8.76
507.923	8.95
508.354	9.15
508.786	9.35
509.217	9.56
509.649	9.78
510.08	9.99
510.512	10.22
510.943	10.44
511.374	10.66
511.805	10.89
512.237	11.13
512.668	11.37
513.099	11.61
513.53	11.85
513.961	12.09
514.391	12.34
514.822	12.6
515.253	12.85
515.684	13.11
516.114	13.38
516.545	13.63
516.975	13.88
517.406	14.13
517.836	14.38
518.267	14.64
518.697	14.9
519.127	15.14
519.558	15.37
519.988	15.62
520.418	15.84
520.848	16.06
521.278	16.3
521.708	16.69
522.138	16.93
522.567	17.15
522.997	17.36
523.427	17.57
523.857	17.78
524.286	17.97
524.716	18.15
525.145	18.35
525.575	18.52
526.004	18.7
526.433	18.7
526.863	18.85
527.292	19.01
527.721	19.14
528.15	19.29
528.579	19.42
529.008	19.57
529.437	19.7
529.866	19.81
530.295	19.95
530.724	20.06
531.152	20.17
531.581	20.28
532.01	20.38
532.438	20.48
532.867	20.55
533.295	20.63
533.723	20.71
534.152	20.76
534.58	20.85
535.008	20.91
535.436	20.98
535.865	21.02
536.293	21.07
536.721	21.12
537.149	21.18
537.576	21.24
538.004	21.29
538.432	21.33
538.86	21.37
539.287	21.4
539.715	21.44
540.143	21.47
540.57	21.51
540.998	21.53
541.425	21.56
541.852	21.58
542.28	21.59
542.707	21.62
543.134	21.64
543.561	21.67
543.988	21.68
544.415	21.7
544.842	21.72
545.269	21.75
545.696	21.77
546.123	21.8
546.549	21.82
546.976	21.86
547.403	21.86
547.829	21.87
548.256	21.89
548.682	21.9
549.108	21.93
549.535	21.96
549.961	21.96
550.387	21.98
550.813	21.99
551.24	22
551.666	22
552.092	22
552.518	22.01
552.943	21.99
553.369	21.99
553.795	21.96
554.221	21.93
554.646	21.9
555.072	21.87
555.498	21.83
555.923	21.78
556.349	21.72
556.774	21.66
557.199	21.61
557.625	21.57
558.05	21.52
558.475	21.47
558.9	21.41
559.325	21.35
559.75	21.27
560.175	21.21
560.6	21.13
561.025	21.06
561.449	20.99
561.874	20.9
562.299	20.81
562.723	20.71
563.148	20.6
563.572	20.48
563.997	20.37
564.421	20.25
564.846	20.14
565.27	20.01
565.694	19.9
566.118	19.77
566.542	19.65
566.966	19.51
567.39	19.38
567.814	19.26
568.238	19.12
568.662	19
569.086	18.87
569.509	18.73
569.933	18.62
570.357	18.49
570.78	18.35
571.204	18.23
571.627	18.12
572.05	18
572.474	17.89
572.897	17.79
573.32	17.69
573.743	17.57
574.166	17.48
574.589	17.37
575.012	17.27
575.435	17.18
575.858	17.1
576.281	16.99
576.704	16.9
577.126	16.82
577.549	16.73
577.972	16.64
578.394	16.58
578.817	16.51
579.239	16.45
579.661	16.37
580.084	16.31
580.506	16.24
580.928	16.18
581.35	16.12
581.772	16.04
582.194	15.98
582.616	15.92
583.038	15.85
583.46	15.79
583.882	15.72
584.303	15.65
584.725	15.58
585.147	15.54
585.568	15.49
585.99	15.44
586.411	15.39
586.833	15.33
587.254	15.27
587.675	15.23
588.096	15.18
588.518	15.14
588.939	15.1
589.36	15.05
589.781	14.99
590.202	14.95
590.623	14.91
591.043	14.88
591.464	14.84
591.885	14.82
592.305	14.79
592.726	14.77
593.147	14.73
593.567	14.7
593.987	14.67
594.408	14.64
594.828	14.6
595.248	14.56
595.669	14.53
596.089	14.49
596.509	14.46
596.929	14.41
597.349	14.36
597.769	14.33
598.189	14.3
598.608	14.27
599.028	14.25
599.448	14.22
599.867	14.18
600.287	14.14
600.706	14.1
601.126	14.07
601.545	14.03
601.965	14
602.384	13.95
602.803	13.9
603.222	13.85
603.641	13.79
604.061	13.74
604.48	13.69
604.898	13.64
605.317	13.58
605.736	13.52
606.155	13.46
606.574	13.39
606.992	13.33
607.411	13.28
607.829	13.18
608.248	13.1
608.666	13.04
609.085	12.97
609.503	12.89
609.921	12.82
610.339	12.74
610.758	12.67
611.176	12.59
611.594	12.53
612.012	12.46
612.43	12.42
612.847	12.36
613.265	12.29
613.683	12.23
614.101	12.16
614.518	12.1
614.936	12.03
615.353	11.96
615.771	11.92
616.188	11.86
616.606	11.8
617.023	11.74
617.44	11.69
617.857	11.64
618.274	11.59
618.691	11.55
619.108	11.5
619.525	11.46
619.942	11.43
620.359	11.38
620.776	11.36
621.192	11.32
621.609	11.3
622.026	11.28
622.442	11.28
622.859	11.25
623.275	11.24
623.691	11.23
624.108	11.21
624.524	11.2
624.94	11.18
625.356	11.17
625.772	11.16
626.188	11.15
626.604	11.13
627.02	11.11
627.436	11.1
627.852	11.09
628.268	11.08
628.683	11.07
629.099	11.06
629.514	11.05
629.93	11.03
630.345	11.02
630.761	11
631.176	10.98
631.591	10.95
632.007	10.93
632.422	10.88
632.837	10.85
633.252	10.8
633.667	10.75
634.082	10.69
634.497	10.63
634.911	10.57
635.326	10.5
635.741	10.43
636.155	10.35
636.57	10.28
636.984	10.22
637.399	10.13
637.813	10.04
638.228	9.95
638.642	9.86
639.056	9.76
639.47	9.67
639.884	9.58
640.298	9.47
640.712	9.36
641.126	9.25
641.54	9.13
641.954	9.01
642.368	8.91
642.781	8.8
643.195	8.7
643.609	8.59
644.022	8.49
644.436	8.39
644.849	8.3
645.262	8.21
645.676	8.13
646.089	8.04
646.502	7.98
646.915	7.92
647.328	7.85
647.741	7.79
648.154	7.74
648.567	7.7
648.98	7.64
649.393	7.6
649.805	7.57
650.218	7.53
650.631	7.49
651.043	7.46
651.456	7.42
651.868	7.38
652.28	7.34
652.693	7.3
653.105	7.25
653.517	7.2
653.929	7.15
654.341	7.1
654.753	7.05
655.165	7
655.577	6.94
655.989	6.87
656.401	6.81
656.813	6.74
657.224	6.66
657.636	6.58
658.047	6.5
658.459	6.42
658.87	6.34
659.282	6.24
659.693	6.16
660.104	6.07
660.515	5.99
660.926	5.92
661.338	5.83
661.749	5.76
662.159	5.68
662.57	5.61
662.981	5.54
663.392	5.48
663.803	5.43
664.213	5.36
664.624	5.31
665.035	5.25
665.445	5.2
665.855	5.17
666.266	5.14
666.676	5.11
667.086	5.07
667.497	5.04
667.907	5.02
668.317	5
668.727	4.98
669.137	4.97
669.547	4.96
669.956	4.95
670.366	4.93
670.776	4.92
671.186	4.91
671.595	4.91
672.005	4.89
672.414	4.89
672.824	4.89
673.233	4.89
673.642	4.9
674.052	4.91
674.461	4.91
674.87	4.92
675.279	4.95
675.688	4.96
676.097	4.98
676.506	5.02
676.915	5.05
677.323	5.07
677.732	5.1
678.141	5.13
678.549	5.16
678.958	5.2
679.366	5.26
679.775	5.3
680.183	5.36
680.592	5.44
681	5.51
681.408	5.59
681.816	5.69
682.224	5.79
682.632	5.91
683.04	6.04
683.448	6.18
683.856	6.32
684.264	6.49
684.671	6.68
685.079	6.88
685.487	7.1
685.894	7.34
686.302	7.6
686.709	7.88
687.116	8.18
687.524	8.5
687.931	8.85
688.338	9.22
688.745	9.6
689.152	9.98
689.559	10.4
689.966	10.82
690.373	11.26
690.78	11.72
691.187	12.17
691.593	12.63
692	13.1
692.407	13.56
692.813	14.05
693.22	14.54
693.626	15.04
694.032	15.53
694.439	16.03
694.845	16.52
695.251	17.01
695.657	17.49
696.063	17.98
696.469	18.46
696.875	18.96
697.281	19.43
697.687	19.9
698.093	20.33
698.498	20.78
698.904	21.22
699.31	21.63
699.715	22.06
700.12	22.49
700.526	22.89
700.931	23.28
701.337	23.65
701.742	24.02
702.147	24.4
702.552	24.78
702.957	25.1
703.362	25.47
703.767	25.81
704.172	26.14
704.577	26.46
704.981	26.8
705.386	27.11
705.791	27.43
706.195	27.75
706.6	28.05
707.004	28.34
707.408	28.66
707.813	28.94
708.217	29.23
708.621	29.52
709.025	29.77
709.43	30.03
709.834	30.31
710.237	30.55
710.641	30.79
711.045	31.02
711.449	31.26
711.853	31.5
712.256	31.7
712.66	31.92
713.064	32.11
713.467	32.36
713.87	32.56
714.274	32.74
714.677	32.94
715.08	33.14
715.484	33.36
715.887	33.57
716.29	33.74
716.693	33.92
717.096	34.11
717.499	34.31
717.901	34.47
718.304	34.66
718.707	34.84
719.109	35.02
719.512	35.16
719.915	35.32
720.317	35.44
720.719	35.56
721.122	35.72
721.524	35.85
721.926	35.98
722.328	36.13
722.731	36.24
723.133	36.36
723.535	36.48
723.937	36.62
724.338	36.73
724.74	36.87
725.142	37.07
725.544	37.17
725.945	37.3
726.347	37.39
726.748	37.47
727.15	37.56
727.551	37.64
727.952	37.7
728.354	37.79
728.755	37.86
729.156	37.92
729.557	37.92
729.958	37.97
730.359	38.02
730.76	38.1
731.161	38.14
731.562	38.18
731.962	38.22
732.363	38.29
732.763	38.33
733.164	38.39
733.564	38.43
733.965	38.45
734.365	38.51
734.766	38.55
735.166	38.57
735.566	38.63
735.966	38.69
736.366	38.74
736.766	38.79
737.166	38.82
737.566	38.85
737.966	38.91
738.365	38.96
738.765	38.98
739.165	39.03
739.564	39.05
739.964	39.07
740.363	39.07
740.763	39.12
741.162	39.14
741.561	39.15
741.96	39.16
742.36	39.15
742.759	39.16
743.158	39.19
743.557	39.17
743.955	39.2
744.354	39.22
744.753	39.25
745.152	39.26
745.55	39.3
745.949	39.32
746.348	39.34
746.746	39.35
747.144	39.38
747.543	39.39
747.941	39.42
748.339	39.41
748.737	39.41
749.136	39.41
749.534	39.39
749.932	39.36
750.33	39.34
750.727	39.33
751.125	39.34
751.523	39.33
751.921	39.33
752.318	39.35
752.716	39.35
753.113	39.37
753.511	39.38
753.908	39.4
754.305	39.42
754.703	39.43
755.1	39.44
755.497	39.44
755.894	39.44
756.291	39.44
756.688	39.43
757.085	39.42
757.482	39.4
757.878	39.42
758.275	39.4
758.672	39.39
759.068	39.41
759.465	39.4
759.861	39.41
760.258	39.41
760.654	39.41
761.05	39.45
761.447	39.46
761.843	39.46
762.239	39.43
762.635	39.44
763.031	39.45
763.427	39.44
763.822	39.48
764.218	39.49
764.614	39.5
765.01	39.49
765.405	39.46
765.801	39.44
766.196	39.45
766.592	39.48
766.987	39.49
767.382	39.48
767.778	39.48
768.173	39.48
768.568	39.46
768.963	39.46
769.358	39.48
769.753	39.46
770.148	39.47
770.542	39.48
770.937	39.47
771.332	39.46
771.726	39.46
772.121	39.46
772.515	39.47
772.91	39.47
773.304	39.47
773.699	39.46
774.093	39.46
774.487	39.47
774.881	39.48
775.275	39.47
775.669	39.47
776.063	39.48
776.457	39.49
776.851	39.47
777.245	39.45
777.638	39.44
778.032	39.46
778.425	39.5
778.819	39.48
779.212	39.49
779.606	39.52
779.999	39.52
780.392	39.54
780.786	39.53
781.179	39.56
781.572	39.6
781.965	39.61
782.358	39.6
