Data from N_2_DEC_NC_4N_Splice17_13-26-41-969.txt Node
Date: Sat Mar 07 13:26:41 EST 2020
User: sa697716
Spectrometer: NQ5500242
Trigger mode: 0
Integration Time (sec): 1.450000E-1
Scans to average: 20
Nonlinearity correction enabled: false
Boxcar width: 5
Storing dark spectrum: false
XAxis mode: Wavelengths
Number of Pixels in Spectrum: 512
>>>>>Begin Spectral Data<<<<<
187.83	181.29
188.298	188.32
188.766	178.08
189.233	155.48
189.701	148.42
190.169	163.89
190.636	200.58
191.104	257.48
191.571	201.63
192.039	182.09
192.506	-249.84
192.974	169.91
193.441	154.65
193.908	128.27
194.375	114.93
194.842	16.22
195.31	12.65
195.777	10.38
196.244	50.33
196.711	52.16
197.177	53.95
197.644	52.06
198.111	51.7
198.578	51.91
199.045	52.03
199.511	51.55
199.978	51.5
200.445	51.65
200.911	51.82
201.378	51.34
201.844	50.84
202.31	50.06
202.777	49.85
203.243	49.51
203.709	48.75
204.176	47.8
204.642	47.76
205.108	47.81
205.574	47.05
206.04	46.29
206.506	45.78
206.972	45.49
207.438	45.08
207.903	44.43
208.369	43.21
208.835	42.54
209.301	41.73
209.766	40.2
210.232	38.7
210.697	37.61
211.163	36.4
211.628	35.47
212.094	34.47
212.559	33.49
213.024	32.55
213.49	31.65
213.955	30.7
214.42	29.99
214.885	29.04
215.35	27.82
215.815	26.36
216.28	24.51
216.745	22.25
217.21	20.04
217.675	18.04
218.14	16.31
218.604	14.85
219.069	13.58
219.534	12.47
219.998	11.55
220.463	10.85
220.927	10.18
221.392	9.67
221.856	9.27
222.32	8.93
222.785	8.64
223.249	8.36
223.713	8.12
224.177	7.93
224.642	7.74
225.106	7.56
225.57	7.35
226.034	7.19
226.497	7.05
226.961	6.91
227.425	6.77
227.889	6.64
228.353	6.52
228.816	6.39
229.28	6.26
229.744	6.15
230.207	6.04
230.671	5.96
231.134	5.86
231.597	5.79
232.061	5.7
232.524	5.63
232.987	5.56
233.45	5.51
233.914	5.45
234.377	5.37
234.84	5.31
235.303	5.27
235.766	5.22
236.229	5.17
236.691	5.11
237.154	5.07
237.617	5.02
238.08	4.97
238.542	4.9
239.005	4.87
239.468	4.84
239.93	4.8
240.393	4.77
240.855	4.71
241.317	4.67
241.78	4.63
242.242	4.57
242.704	4.54
243.166	4.51
243.629	4.49
244.091	4.44
244.553	4.4
245.015	4.37
245.477	4.33
245.939	4.3
246.4	4.27
246.862	4.24
247.324	4.21
247.786	4.18
248.247	4.15
248.709	4.11
249.17	4.07
249.632	4.06
250.093	4.04
250.555	4.01
251.016	3.99
251.477	3.96
251.939	3.95
252.4	3.92
252.861	3.9
253.322	3.88
253.783	3.85
254.244	3.84
254.705	3.82
255.166	3.79
255.627	3.77
256.088	3.75
256.549	3.74
257.009	3.72
257.47	3.7
257.931	3.67
258.391	3.64
258.852	3.62
259.312	3.6
259.773	3.57
260.233	3.55
260.694	3.53
261.154	3.5
261.614	3.48
262.074	3.46
262.534	3.43
262.994	3.41
263.455	3.4
263.915	3.38
264.374	3.36
264.834	3.35
265.294	3.32
265.754	3.31
266.214	3.3
266.673	3.29
267.133	3.27
267.593	3.27
268.052	3.25
268.512	3.25
268.971	3.24
269.431	3.22
269.89	3.21
270.349	3.21
270.809	3.19
271.268	3.19
271.727	3.17
272.186	3.16
272.645	3.16
273.104	3.15
273.563	3.14
274.022	3.13
274.481	3.12
274.94	3.12
275.399	3.12
275.857	3.11
276.316	3.11
276.775	3.1
277.233	3.1
277.692	3.1
278.15	3.09
278.609	3.08
279.067	3.08
279.525	3.07
279.984	3.07
280.442	3.06
280.9	3.06
281.358	3.05
281.816	3.05
282.274	3.04
282.732	3.03
283.19	3.03
283.648	3.02
284.106	3.01
284.564	3
285.021	2.99
285.479	2.98
285.937	2.96
286.394	2.95
286.852	2.93
287.309	2.93
287.767	2.92
288.224	2.9
288.682	2.89
289.139	2.89
289.596	2.87
290.053	2.86
290.511	2.85
290.968	2.84
291.425	2.83
291.882	2.82
292.339	2.81
292.796	2.81
293.252	2.8
293.709	2.79
294.166	2.78
294.623	2.78
295.079	2.76
295.536	2.76
295.992	2.75
296.449	2.74
296.905	2.74
297.362	2.73
297.818	2.72
298.274	2.72
298.731	2.72
299.187	2.71
299.643	2.7
300.099	2.71
300.555	2.7
301.011	2.69
301.467	2.69
301.923	2.69
302.379	2.69
302.835	2.69
303.291	2.69
303.746	2.68
304.202	2.69
304.658	2.69
305.113	2.69
305.569	2.7
306.024	2.7
306.479	2.69
306.935	2.69
307.39	2.69
307.845	2.69
308.301	2.7
308.756	2.7
309.211	2.69
309.666	2.7
310.121	2.7
310.576	2.71
311.031	2.71
311.486	2.72
311.94	2.73
312.395	2.72
312.85	2.73
313.305	2.73
313.759	2.73
314.214	2.73
314.668	2.72
315.123	2.72
315.577	2.72
316.032	2.71
316.486	2.71
316.94	2.7
317.394	2.69
317.849	2.67
318.303	2.66
318.757	2.65
319.211	2.65
319.665	2.64
320.119	2.63
320.572	2.62
321.026	2.62
321.48	2.61
321.934	2.61
322.387	2.61
322.841	2.61
323.295	2.61
323.748	2.6
324.202	2.6
324.655	2.6
325.108	2.61
325.562	2.6
326.015	2.61
326.468	2.61
326.921	2.61
327.374	2.61
327.827	2.62
328.28	2.62
328.733	2.63
329.186	2.63
329.639	2.63
330.092	2.63
330.545	2.64
330.997	2.63
331.45	2.63
331.903	2.64
332.355	2.65
332.808	2.64
333.26	2.65
333.713	2.64
334.165	2.64
334.617	2.64
335.069	2.63
335.522	2.64
335.974	2.65
336.426	2.64
336.878	2.63
337.33	2.63
337.782	2.63
338.234	2.63
338.686	2.63
339.137	2.63
339.589	2.63
340.041	2.63
340.493	2.62
340.944	2.61
341.396	2.61
341.847	2.6
342.299	2.59
342.75	2.59
343.201	2.57
343.653	2.57
344.104	2.56
344.555	2.55
345.006	2.54
345.457	2.53
345.908	2.53
346.359	2.53
346.81	2.53
347.261	2.52
347.712	2.51
348.163	2.51
348.613	2.51
349.064	2.51
349.515	2.51
349.965	2.52
350.416	2.51
350.866	2.5
351.317	2.5
351.767	2.5
352.217	2.5
352.668	2.51
353.118	2.52
353.568	2.52
354.018	2.52
354.468	2.52
354.918	2.52
355.368	2.53
355.818	2.54
356.268	2.54
356.718	2.54
357.168	2.55
357.617	2.55
358.067	2.54
358.517	2.55
358.966	2.56
359.416	2.56
359.865	2.56
360.315	2.57
360.764	2.57
361.213	2.57
361.663	2.57
362.112	2.58
362.561	2.59
363.01	2.59
363.459	2.58
363.908	2.57
364.357	2.58
364.806	2.57
365.255	2.58
365.703	2.6
366.152	2.61
366.601	2.62
367.05	2.62
367.498	2.62
367.947	2.62
368.395	2.64
368.844	2.65
369.292	2.65
369.74	2.66
370.189	2.66
370.637	2.65
371.085	2.64
371.533	2.65
371.981	2.66
372.429	2.66
372.877	2.67
373.325	2.67
373.773	2.67
374.221	2.68
374.669	2.68
375.116	2.68
375.564	2.69
376.012	2.7
376.459	2.71
376.907	2.72
377.354	2.73
377.801	2.75
378.249	2.76
378.696	2.78
379.143	2.8
379.591	2.83
380.038	2.85
380.485	2.88
380.932	2.9
381.379	2.94
381.826	2.97
382.273	3.01
382.72	3.03
383.166	3.07
383.613	3.11
384.06	3.15
384.506	3.21
384.953	3.29
385.4	3.37
385.846	3.49
386.292	3.59
386.739	3.71
387.185	3.84
387.631	3.98
388.078	4.09
388.524	4.19
388.97	4.28
389.416	4.4
389.862	4.55
390.308	4.76
390.754	4.97
391.2	5.2
391.645	5.39
392.091	5.56
392.537	5.74
392.983	5.99
393.428	6.38
393.874	6.85
394.319	7.36
394.765	7.87
395.21	8.38
395.655	8.92
396.101	9.5
396.546	10.15
396.991	10.9
397.436	11.7
397.881	12.51
398.326	13.26
398.771	13.95
399.216	14.6
399.661	15.18
400.106	15.7
400.551	16.17
400.995	16.58
401.44	16.94
401.885	17.3
402.329	17.67
402.774	18.07
403.218	18.53
403.663	19.04
404.107	19.58
404.551	20.14
404.995	20.67
405.44	21.16
405.884	21.71
406.328	22.34
406.772	23.03
407.216	23.73
407.66	24.36
408.104	24.93
408.547	25.43
408.991	25.9
409.435	26.41
409.879	27.02
410.322	27.72
410.766	28.44
411.209	29.11
411.653	29.71
412.096	30.25
412.54	30.78
412.983	31.33
413.426	31.92
413.869	32.52
414.312	33.07
414.756	33.58
415.199	33.99
415.642	34.34
416.085	34.65
416.527	34.86
416.97	34.98
417.413	35.03
417.856	35.02
418.298	35.01
418.741	35.03
419.184	35.15
419.626	35.32
420.069	35.55
420.511	35.8
420.953	36.07
421.396	36.44
421.838	36.91
422.28	37.43
422.722	37.96
423.164	38.47
423.606	38.91
424.048	39.23
424.49	39.34
424.932	39.13
425.374	38.59
425.816	37.83
426.258	37.05
426.699	36.58
427.141	36.61
427.582	37.04
428.024	37.66
428.465	38.3
428.907	38.86
429.348	39.4
429.789	40.26
430.231	41.59
430.672	43.39
431.113	45.36
431.554	47.14
431.995	48.5
432.436	49.5
432.877	50.29
433.318	51
433.759	51.8
434.2	52.8
434.64	53.95
435.081	55.03
435.522	55.95
435.962	56.69
436.403	57.35
436.843	57.89
437.284	58.48
437.724	59.18
438.164	60.04
438.604	61.04
439.045	62.04
439.485	62.91
439.925	63.66
440.365	64.29
440.805	64.8
441.245	65.26
441.685	65.79
442.125	66.37
442.564	67
443.004	67.62
443.444	68.34
443.883	69.09
444.323	69.83
444.762	70.59
445.202	71.39
445.641	72.37
446.081	73.53
446.52	74.63
446.959	75.63
447.398	76.37
447.837	76.83
448.276	76.98
448.716	77.07
449.154	77.19
449.593	77.26
450.032	77.2
450.471	76.97
450.91	76.59
451.349	76.23
451.787	75.87
452.226	75.61
452.664	75.42
453.103	75.3
453.541	75.06
453.98	74.69
454.418	74.23
454.856	73.78
455.295	73.45
455.733	73.04
456.171	72.68
456.609	72.45
457.047	72.04
457.485	71.87
457.923	71.85
458.361	71.9
458.798	72.1
459.236	72.26
459.674	72.52
460.111	72.72
460.549	73.08
460.987	73.44
461.424	73.69
461.862	74.15
462.299	74.44
462.736	74.68
463.173	75.09
463.611	75.53
464.048	76.11
464.485	76.7
464.922	77.33
465.359	77.89
465.796	78.37
466.233	78.99
466.67	79.57
467.106	80.24
467.543	80.91
467.98	81.48
468.416	81.95
468.853	82.34
469.29	82.64
469.726	82.95
470.162	83.19
470.599	83.33
471.035	83.35
471.471	83.26
471.907	83.06
472.344	82.79
472.78	82.39
473.216	81.93
473.652	81.49
474.088	80.92
474.523	80.25
474.959	79.58
475.395	78.86
475.831	78.14
476.266	77.39
476.702	76.66
477.138	75.83
477.573	75
478.008	74.12
478.444	73.11
478.879	72.19
479.314	71.25
479.75	70.29
480.185	69.32
480.62	68.28
481.055	67.17
481.49	65.93
481.925	64.7
482.36	63.56
482.795	62.57
483.229	61.72
483.664	60.91
484.099	60.09
484.534	59.33
484.968	58.71
485.403	58.13
485.837	57.75
486.271	57.48
486.706	57.19
487.14	56.95
487.574	56.62
488.009	56.28
488.443	55.95
488.877	55.69
489.311	55.48
489.745	55.28
490.179	55.16
490.613	54.98
491.046	54.87
491.48	54.83
491.914	54.78
492.348	54.79
492.781	54.83
493.215	54.89
493.648	54.93
494.082	54.95
494.515	54.97
494.948	54.99
495.382	55.02
495.815	55.02
496.248	55.06
496.681	55.07
497.114	55.06
497.547	55.04
497.98	55.07
498.413	55.11
498.846	55.2
499.279	55.27
499.711	55.33
500.144	55.43
500.577	55.58
501.009	55.74
501.442	55.96
501.874	56.15
502.306	56.4
502.739	56.6
503.171	56.85
503.603	57.01
504.036	57.21
504.468	57.44
504.9	57.65
505.332	57.86
505.764	58.06
506.196	58.24
506.627	58.47
507.059	58.69
507.491	58.93
507.923	59.09
508.354	59.35
508.786	59.6
509.217	59.81
509.649	60.05
510.08	60.27
510.512	60.53
510.943	60.82
511.374	61.1
511.805	61.3
512.237	61.47
512.668	61.69
513.099	61.86
513.53	62.06
513.961	62.27
514.391	62.49
514.822	62.72
515.253	62.94
515.684	63.13
516.114	63.35
516.545	63.57
516.975	63.85
517.406	64.11
517.836	64.36
518.267	64.57
518.697	64.75
519.127	64.9
519.558	65.06
519.988	65.22
520.418	65.37
520.848	65.46
521.278	65.56
521.708	65.67
522.138	65.73
522.567	65.76
522.997	65.81
523.427	65.9
523.857	65.99
524.286	66.1
524.716	66.21
525.145	66.28
525.575	66.41
526.004	66.54
526.433	66.66
526.863	66.87
527.292	67.06
527.721	67.21
528.15	67.29
528.579	67.33
529.008	67.4
529.437	67.4
529.866	67.44
530.295	67.47
530.724	67.5
531.152	67.53
531.581	67.55
532.01	67.57
532.438	67.58
532.867	67.64
533.295	67.71
533.723	67.76
534.152	67.82
534.58	67.84
535.008	67.82
535.436	67.82
535.865	67.76
536.293	67.69
536.721	67.68
537.149	67.72
537.576	67.81
538.004	67.94
538.432	67.98
538.86	68.04
539.287	68.12
539.715	68.26
540.143	68.41
540.57	68.63
540.998	68.86
541.425	69.01
541.852	69.23
542.28	69.39
542.707	69.55
543.134	69.74
543.561	69.9
543.988	70.09
544.415	70.25
544.842	70.43
545.269	70.58
545.696	70.74
546.123	70.96
546.549	71.11
546.976	71.24
547.403	71.35
547.829	71.5
548.256	71.67
548.682	71.79
549.108	71.96
549.535	72.1
549.961	72.2
550.387	72.27
550.813	72.36
551.24	72.45
551.666	72.49
552.092	72.52
552.518	72.57
552.943	72.56
553.369	72.61
553.795	72.59
554.221	72.52
554.646	72.46
555.072	72.35
555.498	72.22
555.923	72.1
556.349	71.99
556.774	71.87
557.199	71.69
557.625	71.57
558.05	71.39
558.475	71.2
558.9	71.02
559.325	70.84
559.75	70.66
560.175	70.45
560.6	70.21
561.025	69.91
561.449	69.63
561.874	69.3
562.299	68.94
562.723	68.59
563.148	68.17
563.572	67.74
563.997	67.3
564.421	66.83
564.846	66.4
565.27	65.92
565.694	65.51
566.118	65
566.542	64.57
566.966	64.1
567.39	63.67
567.814	63.29
568.238	62.99
568.662	62.67
569.086	62.42
569.509	62.2
569.933	62.03
570.357	61.9
570.78	61.81
571.204	61.76
571.627	61.76
572.05	61.77
572.474	61.82
572.897	61.89
573.32	61.97
573.743	62.08
574.166	62.17
574.589	62.26
575.012	62.36
575.435	62.55
575.858	62.7
576.281	62.86
576.704	63.04
577.126	63.18
577.549	63.3
577.972	63.48
578.394	63.65
578.817	63.82
579.239	64.02
579.661	64.22
580.084	64.32
580.506	64.5
580.928	64.63
581.35	64.79
581.772	64.92
582.194	65.07
582.616	65.19
583.038	65.33
583.46	65.43
583.882	65.49
584.303	65.5
584.725	65.59
585.147	65.58
585.568	65.61
585.99	65.59
586.411	65.66
586.833	65.67
587.254	65.67
587.675	65.64
588.096	65.67
588.518	65.71
588.939	65.76
589.36	65.75
589.781	65.77
590.202	65.72
590.623	65.69
591.043	65.56
591.464	65.44
591.885	65.29
592.305	65.17
592.726	64.99
593.147	64.73
593.567	64.49
593.987	64.18
594.408	63.89
594.828	63.6
595.248	63.27
595.669	62.9
596.089	62.5
596.509	62.13
596.929	61.69
597.349	61.28
597.769	60.89
598.189	60.46
598.608	60.13
599.028	59.77
599.448	59.44
599.867	59.12
600.287	58.88
600.706	58.6
601.126	58.33
601.545	58.13
601.965	57.96
602.384	57.81
602.803	57.68
603.222	57.52
603.641	57.41
604.061	57.32
604.48	57.23
604.898	57.16
605.317	57.13
605.736	57.12
606.155	57.09
606.574	57.05
606.992	57.04
607.411	57.03
607.829	57.03
608.248	57.05
608.666	57.05
609.085	57.06
609.503	57.05
609.921	57.06
610.339	57.06
610.758	57.07
611.176	57.07
611.594	57.08
612.012	57.07
612.43	57.04
612.847	57.03
613.265	57
613.683	57.01
614.101	57.03
614.518	57.02
614.936	57.02
615.353	56.99
615.771	57.01
616.188	57
616.606	57.01
617.023	57.06
617.44	57.08
617.857	57.08
618.274	57.08
618.691	57.06
619.108	57.06
619.525	57.03
619.942	57.01
620.359	56.96
620.776	56.92
621.192	56.89
621.609	56.87
622.026	56.8
622.442	56.82
622.859	56.78
623.275	56.74
623.691	56.72
624.108	56.72
624.524	56.73
624.94	56.74
625.356	56.75
625.772	56.75
626.188	56.78
626.604	56.81
627.02	56.84
627.436	56.87
627.852	56.93
628.268	56.97
628.683	57.04
629.099	57.11
629.514	57.18
629.93	57.26
630.345	57.35
630.761	57.38
631.176	57.46
631.591	57.49
632.007	57.57
632.422	57.65
632.837	57.73
633.252	57.78
633.667	57.85
634.082	57.9
634.497	57.98
634.911	58.03
635.326	58.1
635.741	58.15
636.155	58.19
636.57	58.22
636.984	58.26
637.399	58.28
637.813	58.3
638.228	58.28
638.642	58.3
639.056	58.28
639.47	58.32
639.884	58.32
640.298	58.31
640.712	58.34
641.126	58.33
641.54	58.3
641.954	58.27
642.368	58.23
642.781	58.22
643.195	58.2
643.609	58.18
644.022	58.15
644.436	58.12
644.849	58.13
645.262	58.06
645.676	58.04
646.089	58.06
646.502	58.08
646.915	58.11
647.328	58.15
647.741	58.14
648.154	58.15
648.567	58.15
648.98	58.16
649.393	58.16
649.805	58.24
650.218	58.3
650.631	58.25
651.043	58.22
651.456	58.13
651.868	57.99
652.28	57.87
652.693	57.81
653.105	57.73
653.517	57.72
653.929	57.65
654.341	57.61
654.753	57.51
655.165	57.52
655.577	57.56
655.989	57.66
656.401	57.78
656.813	57.9
657.224	57.95
657.636	58.02
658.047	58.07
658.459	58.09
658.87	58.08
659.282	58.09
659.693	58.08
660.104	58.03
660.515	57.97
660.926	57.95
661.338	57.91
661.749	57.86
662.159	57.82
662.57	57.76
662.981	57.77
663.392	57.72
663.803	57.68
664.213	57.65
664.624	57.65
665.035	57.64
665.445	57.6
665.855	57.57
666.266	57.57
666.676	57.53
667.086	57.46
667.497	57.4
667.907	57.4
668.317	57.39
668.727	57.38
669.137	57.33
669.547	57.35
669.956	57.31
670.366	57.32
670.776	57.34
671.186	57.36
671.595	57.4
672.005	57.43
672.414	57.47
672.824	57.49
673.233	57.53
673.642	57.63
674.052	57.71
674.461	57.85
674.87	57.94
675.279	58.05
675.688	58.16
676.097	58.3
676.506	58.46
676.915	58.59
677.323	58.78
677.732	58.97
678.141	59.18
678.549	59.33
678.958	59.53
679.366	59.75
679.775	59.93
680.183	60.13
680.592	60.34
681	60.56
681.408	60.78
681.816	60.95
682.224	61.02
682.632	60.9
683.04	60.66
683.448	60.44
683.856	60.25
684.264	60.14
684.671	60.05
685.079	59.96
685.487	59.9
685.894	59.91
686.302	59.99
686.709	60.24
687.116	60.68
687.524	61.32
687.931	61.97
688.338	62.61
688.745	63.23
689.152	63.84
689.559	64.49
689.966	65.1
690.373	65.67
690.78	66.2
691.187	66.67
691.593	67.16
692	67.61
692.407	68.03
692.813	68.48
693.22	68.87
693.626	69.29
694.032	69.67
694.439	70
694.845	70.41
695.251	70.76
695.657	71.12
696.063	71.46
696.469	71.77
696.875	72.07
697.281	72.34
697.687	72.6
698.093	72.85
698.498	73.11
698.904	73.42
699.31	73.68
699.715	73.99
700.12	74.27
700.526	74.58
700.931	74.93
701.337	75.24
701.742	75.52
702.147	75.84
702.552	76.16
702.957	76.44
703.362	76.73
703.767	76.98
704.172	77.26
704.577	77.53
704.981	77.79
705.386	78
705.791	78.25
706.195	78.51
706.6	78.78
707.004	79
707.408	79.23
707.813	79.48
708.217	79.66
708.621	79.87
709.025	80.03
709.43	80.17
709.834	80.34
710.237	80.5
710.641	80.64
711.045	80.76
711.449	80.93
711.853	81.07
712.256	81.09
712.66	81.08
713.064	80.95
713.467	80.73
713.87	80.43
714.274	80.03
714.677	79.56
715.08	79.06
715.484	78.58
715.887	78.09
716.29	77.68
716.693	77.49
717.096	77.48
717.499	77.66
717.901	78.02
718.304	78.43
718.707	78.9
719.109	79.37
719.512	79.76
719.915	80.15
720.317	80.43
720.719	80.66
721.122	80.78
721.524	80.78
721.926	80.69
722.328	80.54
722.731	80.38
723.133	80.3
723.535	80.23
723.937	80.25
724.338	80.25
724.74	80.27
725.142	80.39
725.544	80.45
725.945	80.51
726.347	80.52
726.748	80.56
727.15	80.6
727.551	80.68
727.952	80.82
728.354	80.99
728.755	81.19
729.156	81.48
729.557	81.68
729.958	81.92
730.359	82.21
730.76	82.49
731.161	82.7
731.562	82.92
731.962	83.03
732.363	83.15
732.763	83.25
733.164	83.33
733.564	83.35
733.965	83.29
734.365	83.23
734.766	83.11
735.166	82.99
735.566	82.92
735.966	82.86
736.366	82.8
736.766	82.67
737.166	82.56
737.566	82.44
737.966	82.31
738.365	82.26
738.765	82.23
739.165	82.25
739.564	82.3
739.964	82.29
740.363	82.25
740.763	82.26
741.162	82.31
741.561	82.34
741.96	82.36
742.36	82.39
742.759	82.4
743.158	82.37
743.557	82.28
743.955	82.2
744.354	82.14
744.753	82.1
745.152	82.01
745.55	81.89
745.949	81.79
746.348	81.65
746.746	81.46
747.144	81.3
747.543	81.12
747.941	80.97
748.339	80.74
748.737	80.55
749.136	80.35
749.534	80.15
749.932	80.02
750.33	79.84
750.727	79.7
751.125	79.57
751.523	79.39
751.921	79.22
752.318	79.06
752.716	78.92
753.113	78.79
753.511	78.64
753.908	78.49
754.305	78.23
754.703	77.7
755.1	76.58
755.497	74.67
755.894	71.86
756.291	68.43
756.688	64.79
757.085	61.38
757.482	58.24
757.878	55.35
758.275	52.48
758.672	49.52
759.068	46.89
759.465	44.89
759.861	43.92
760.258	44.05
760.654	45.06
761.05	46.51
761.447	48.02
761.843	49.46
762.239	50.89
762.635	52.58
763.031	54.6
763.427	56.79
763.822	59.08
764.218	61.32
764.614	63.43
765.01	65.37
765.405	67.1
765.801	68.62
766.196	69.98
766.592	71.09
766.987	71.98
767.382	72.63
767.778	73.11
768.173	73.48
768.568	73.72
768.963	73.88
769.358	74.06
769.753	74.17
770.148	74.21
770.542	74.17
770.937	74.13
771.332	74.07
771.726	74.07
772.121	74.03
772.515	73.98
772.91	73.93
