Data from N_2_DEC_NC_4N_Splice17_13-27-02-746.txt Node
Date: Sat Mar 07 13:27:02 EST 2020
User: sa697716
Spectrometer: NQ5500242
Trigger mode: 0
Integration Time (sec): 1.450000E-1
Scans to average: 20
Nonlinearity correction enabled: false
Boxcar width: 5
Storing dark spectrum: false
XAxis mode: Wavelengths
Number of Pixels in Spectrum: 512
>>>>>Begin Spectral Data<<<<<
187.83	257.2
188.298	289.86
188.766	265.35
189.233	217.52
189.701	219.48
190.169	246.7
190.636	276.49
191.104	386.66
191.571	382.86
192.039	266.05
192.506	-78.07
192.974	13.95
193.441	99.75
193.908	78.01
194.375	88.93
194.842	22.6
195.31	42.89
195.777	-6.83
196.244	32.8
196.711	41.47
197.177	43.81
197.644	42.37
198.111	42.29
198.578	42.25
199.045	42.29
199.511	42.13
199.978	42.36
200.445	42.67
200.911	42.85
201.378	43.08
201.844	42.85
202.31	42.49
202.777	42.78
203.243	42.76
203.709	42.92
204.176	42.42
204.642	42.26
205.108	42.21
205.574	41.73
206.04	40.84
206.506	40.32
206.972	40.39
207.438	40.1
207.903	39.41
208.369	38.45
208.835	37.65
209.301	37.21
209.766	36.39
210.232	35.53
210.697	34.9
211.163	34.46
211.628	33.97
212.094	33.16
212.559	32.63
213.024	32.19
213.49	31.92
213.955	31.41
214.42	30.86
214.885	30.18
215.35	29.41
215.815	28.29
216.28	26.89
216.745	25.26
217.21	23.83
217.675	22.55
218.14	21.42
218.604	20.52
219.069	19.76
219.534	19.18
219.998	18.68
220.463	18.26
220.927	17.89
221.392	17.62
221.856	17.42
222.32	17.22
222.785	17.06
223.249	16.89
223.713	16.71
224.177	16.55
224.642	16.34
225.106	16.13
225.57	15.96
226.034	15.81
226.497	15.67
226.961	15.51
227.425	15.35
227.889	15.17
228.353	15.01
228.816	14.86
229.28	14.69
229.744	14.57
230.207	14.43
230.671	14.29
231.134	14.13
231.597	14
232.061	13.86
232.524	13.74
232.987	13.61
233.45	13.51
233.914	13.38
234.377	13.27
234.84	13.15
235.303	13.07
235.766	12.98
236.229	12.88
236.691	12.77
237.154	12.68
237.617	12.58
238.08	12.49
238.542	12.36
239.005	12.28
239.468	12.17
239.93	12.08
240.393	11.98
240.855	11.85
241.317	11.75
241.78	11.66
242.242	11.56
242.704	11.47
243.166	11.38
243.629	11.32
244.091	11.24
244.553	11.16
245.015	11.08
245.477	10.99
245.939	10.92
246.4	10.86
246.862	10.79
247.324	10.71
247.786	10.64
248.247	10.57
248.709	10.49
249.17	10.42
249.632	10.36
250.093	10.31
250.555	10.26
251.016	10.2
251.477	10.14
251.939	10.09
252.4	10.05
252.861	10
253.322	9.96
253.783	9.92
254.244	9.88
254.705	9.84
255.166	9.78
255.627	9.73
256.088	9.68
256.549	9.63
257.009	9.57
257.47	9.51
257.931	9.44
258.391	9.38
258.852	9.32
259.312	9.26
259.773	9.19
260.233	9.14
260.694	9.08
261.154	9.02
261.614	8.97
262.074	8.92
262.534	8.88
262.994	8.84
263.455	8.81
263.915	8.76
264.374	8.73
264.834	8.7
265.294	8.67
265.754	8.65
266.214	8.63
266.673	8.59
267.133	8.57
267.593	8.55
268.052	8.52
268.512	8.49
268.971	8.46
269.431	8.43
269.89	8.4
270.349	8.37
270.809	8.34
271.268	8.31
271.727	8.27
272.186	8.25
272.645	8.22
273.104	8.19
273.563	8.16
274.022	8.13
274.481	8.1
274.94	8.07
275.399	8.03
275.857	8
276.316	7.98
276.775	7.95
277.233	7.91
277.692	7.88
278.15	7.85
278.609	7.83
279.067	7.8
279.525	7.77
279.984	7.74
280.442	7.72
280.9	7.69
281.358	7.67
281.816	7.64
282.274	7.62
282.732	7.59
283.19	7.55
283.648	7.51
284.106	7.48
284.564	7.43
285.021	7.41
285.479	7.37
285.937	7.34
286.394	7.3
286.852	7.26
287.309	7.23
287.767	7.2
288.224	7.17
288.682	7.15
289.139	7.12
289.596	7.09
290.053	7.06
290.511	7.04
290.968	7.02
291.425	7
291.882	6.99
292.339	6.97
292.796	6.96
293.252	6.94
293.709	6.93
294.166	6.91
294.623	6.9
295.079	6.88
295.536	6.87
295.992	6.84
296.449	6.83
296.905	6.82
297.362	6.8
297.818	6.78
298.274	6.78
298.731	6.77
299.187	6.76
299.643	6.74
300.099	6.73
300.555	6.72
301.011	6.71
301.467	6.71
301.923	6.69
302.379	6.68
302.835	6.68
303.291	6.66
303.746	6.65
304.202	6.63
304.658	6.63
305.113	6.63
305.569	6.62
306.024	6.61
306.479	6.59
306.935	6.58
307.39	6.58
307.845	6.57
308.301	6.57
308.756	6.58
309.211	6.57
309.666	6.57
310.121	6.57
310.576	6.57
311.031	6.57
311.486	6.57
311.94	6.58
312.395	6.58
312.85	6.59
313.305	6.58
313.759	6.57
314.214	6.57
314.668	6.56
315.123	6.56
315.577	6.55
316.032	6.54
316.486	6.52
316.94	6.5
317.394	6.49
317.849	6.46
318.303	6.44
318.757	6.43
319.211	6.41
319.665	6.4
320.119	6.4
320.572	6.4
321.026	6.4
321.48	6.4
321.934	6.4
322.387	6.39
322.841	6.39
323.295	6.39
323.748	6.38
324.202	6.37
324.655	6.35
325.108	6.34
325.562	6.31
326.015	6.3
326.468	6.28
326.921	6.27
327.374	6.26
327.827	6.26
328.28	6.26
328.733	6.27
329.186	6.27
329.639	6.27
330.092	6.28
330.545	6.28
330.997	6.28
331.45	6.29
331.903	6.29
332.355	6.29
332.808	6.28
333.26	6.27
333.713	6.25
334.165	6.24
334.617	6.23
335.069	6.22
335.522	6.22
335.974	6.22
336.426	6.2
336.878	6.18
337.33	6.17
337.782	6.16
338.234	6.16
338.686	6.16
339.137	6.16
339.589	6.15
340.041	6.15
340.493	6.14
340.944	6.12
341.396	6.12
341.847	6.11
342.299	6.1
342.75	6.08
343.201	6.05
343.653	6.04
344.104	6.03
344.555	6.02
345.006	6.01
345.457	6
345.908	5.98
346.359	5.97
346.81	5.96
347.261	5.95
347.712	5.94
348.163	5.93
348.613	5.93
349.064	5.92
349.515	5.91
349.965	5.9
350.416	5.89
350.866	5.89
351.317	5.88
351.767	5.88
352.217	5.88
352.668	5.89
353.118	5.9
353.568	5.89
354.018	5.9
354.468	5.91
354.918	5.91
355.368	5.9
355.818	5.91
356.268	5.92
356.718	5.94
357.168	5.94
357.617	5.94
358.067	5.94
358.517	5.96
358.966	5.96
359.416	5.97
359.865	5.97
360.315	5.97
360.764	5.98
361.213	5.98
361.663	5.97
362.112	5.98
362.561	5.98
363.01	5.99
363.459	5.98
363.908	5.98
364.357	5.98
364.806	5.97
365.255	5.97
365.703	5.98
366.152	5.99
366.601	5.99
367.05	5.99
367.498	5.99
367.947	5.99
368.395	6
368.844	6
369.292	6
369.74	6.02
370.189	6.03
370.637	6.03
371.085	6.02
371.533	6.04
371.981	6.05
372.429	6.06
372.877	6.07
373.325	6.08
373.773	6.09
374.221	6.1
374.669	6.11
375.116	6.12
375.564	6.14
376.012	6.15
376.459	6.17
376.907	6.19
377.354	6.21
377.801	6.23
378.249	6.25
378.696	6.26
379.143	6.28
379.591	6.31
380.038	6.33
380.485	6.34
380.932	6.36
381.379	6.39
381.826	6.4
382.273	6.43
382.72	6.43
383.166	6.46
383.613	6.49
384.06	6.51
384.506	6.54
384.953	6.56
385.4	6.59
385.846	6.63
386.292	6.65
386.739	6.68
387.185	6.72
387.631	6.76
388.078	6.78
388.524	6.82
388.97	6.85
389.416	6.89
389.862	6.94
390.308	6.98
390.754	7.02
391.2	7.06
391.645	7.11
392.091	7.15
392.537	7.21
392.983	7.25
393.428	7.31
393.874	7.36
394.319	7.41
394.765	7.44
395.21	7.48
395.655	7.52
396.101	7.57
396.546	7.61
396.991	7.64
397.436	7.68
397.881	7.73
398.326	7.78
398.771	7.82
399.216	7.86
399.661	7.92
400.106	7.97
400.551	8.02
400.995	8.05
401.44	8.08
401.885	8.12
402.329	8.16
402.774	8.2
403.218	8.24
403.663	8.26
404.107	8.29
404.551	8.32
404.995	8.35
405.44	8.37
405.884	8.4
406.328	8.43
406.772	8.45
407.216	8.47
407.66	8.48
408.104	8.48
408.547	8.5
408.991	8.52
409.435	8.53
409.879	8.55
410.322	8.58
410.766	8.61
411.209	8.63
411.653	8.65
412.096	8.67
412.54	8.7
412.983	8.71
413.426	8.75
413.869	8.77
414.312	8.8
414.756	8.82
415.199	8.82
415.642	8.82
416.085	8.84
416.527	8.85
416.97	8.85
417.413	8.85
417.856	8.86
418.298	8.86
418.741	8.85
419.184	8.85
419.626	8.86
420.069	8.86
420.511	8.88
420.953	8.89
421.396	8.89
421.838	8.9
422.28	8.92
422.722	8.94
423.164	8.95
423.606	8.96
424.048	8.96
424.49	8.96
424.932	8.96
425.374	8.95
425.816	8.93
426.258	8.91
426.699	8.89
427.141	8.87
427.582	8.87
428.024	8.87
428.465	8.88
428.907	8.89
429.348	8.86
429.789	8.87
430.231	8.9
430.672	8.92
431.113	8.95
431.554	8.98
431.995	9
432.436	9.01
432.877	9.02
433.318	9.03
433.759	9.06
434.2	9.08
434.64	9.08
435.081	9.09
435.522	9.11
435.962	9.12
436.403	9.14
436.843	9.14
437.284	9.16
437.724	9.19
438.164	9.19
438.604	9.21
439.045	9.23
439.485	9.26
439.925	9.26
440.365	9.28
440.805	9.3
441.245	9.33
441.685	9.38
442.125	9.42
442.564	9.44
443.004	9.48
443.444	9.5
443.883	9.55
444.323	9.59
444.762	9.63
445.202	9.68
445.641	9.74
446.081	9.78
446.52	9.81
446.959	9.87
447.398	9.92
447.837	9.96
448.276	10
448.716	10.04
449.154	10.11
449.593	10.18
450.032	10.22
450.471	10.25
450.91	10.28
451.349	10.32
451.787	10.34
452.226	10.38
452.664	10.38
453.103	10.41
453.541	10.44
453.98	10.46
454.418	10.44
454.856	10.47
455.295	10.47
455.733	10.48
456.171	10.49
456.609	10.49
457.047	10.48
457.485	10.48
457.923	10.49
458.361	10.48
458.798	10.48
459.236	10.49
459.674	10.48
460.111	10.48
460.549	10.47
460.987	10.48
461.424	10.49
461.862	10.51
462.299	10.52
462.736	10.53
463.173	10.53
463.611	10.55
464.048	10.54
464.485	10.53
464.922	10.54
465.359	10.55
465.796	10.56
466.233	10.55
466.67	10.54
467.106	10.54
467.543	10.53
467.98	10.53
468.416	10.51
468.853	10.52
469.29	10.52
469.726	10.54
470.162	10.53
470.599	10.54
471.035	10.54
471.471	10.55
471.907	10.54
472.344	10.56
472.78	10.56
473.216	10.57
473.652	10.58
474.088	10.57
474.523	10.58
474.959	10.59
475.395	10.59
475.831	10.59
476.266	10.62
476.702	10.63
477.138	10.63
477.573	10.65
478.008	10.65
478.444	10.66
478.879	10.7
479.314	10.7
479.75	10.7
480.185	10.69
480.62	10.7
481.055	10.69
481.49	10.69
481.925	10.72
482.36	10.73
482.795	10.74
483.229	10.75
483.664	10.75
484.099	10.77
484.534	10.78
484.968	10.81
485.403	10.83
485.837	10.86
486.271	10.89
486.706	10.9
487.14	10.94
487.574	10.97
488.009	11.01
488.443	11.04
488.877	11.09
489.311	11.14
489.745	11.2
490.179	11.25
490.613	11.32
491.046	11.38
491.48	11.45
491.914	11.51
492.348	11.59
492.781	11.66
493.215	11.74
493.648	11.82
494.082	11.9
494.515	11.98
494.948	12.06
495.382	12.14
495.815	12.24
496.248	12.33
496.681	12.43
497.114	12.52
497.547	12.62
497.98	12.72
498.413	12.83
498.846	12.94
499.279	13.05
499.711	13.16
500.144	13.29
500.577	13.41
501.009	13.52
501.442	13.65
501.874	13.8
502.306	13.93
502.739	14.09
503.171	14.23
503.603	14.38
504.036	14.54
504.468	14.7
504.9	14.86
505.332	15.01
505.764	15.19
506.196	15.36
506.627	15.52
507.059	15.71
507.491	15.88
507.923	16.07
508.354	16.27
508.786	16.46
509.217	16.66
509.649	16.87
510.08	17.08
510.512	17.3
510.943	17.52
511.374	17.74
511.805	17.96
512.237	18.16
512.668	18.39
513.099	18.59
513.53	18.81
513.961	19.01
514.391	19.22
514.822	19.44
515.253	19.64
515.684	19.83
516.114	20.05
516.545	20.25
516.975	20.46
517.406	20.66
517.836	20.85
518.267	21.07
518.697	21.27
519.127	21.45
519.558	21.63
519.988	21.82
520.418	22
520.848	22.18
521.278	22.35
521.708	22.67
522.138	22.85
522.567	23.02
522.997	23.16
523.427	23.32
523.857	23.48
524.286	23.62
524.716	23.77
525.145	23.9
525.575	24.02
526.004	24.15
526.433	24.11
526.863	24.21
527.292	24.32
527.721	24.44
528.15	24.53
528.579	24.63
529.008	24.72
529.437	24.79
529.866	24.88
530.295	24.96
530.724	25.03
531.152	25.12
531.581	25.2
532.01	25.27
532.438	25.35
532.867	25.41
533.295	25.46
533.723	25.51
534.152	25.55
534.58	25.6
535.008	25.64
535.436	25.68
535.865	25.71
536.293	25.73
536.721	25.77
537.149	25.78
537.576	25.8
538.004	25.83
538.432	25.87
538.86	25.9
539.287	25.92
539.715	25.96
540.143	25.99
540.57	25.99
540.998	26.02
541.425	26.04
541.852	26.08
542.28	26.1
542.707	26.11
543.134	26.12
543.561	26.14
543.988	26.16
544.415	26.15
544.842	26.15
545.269	26.18
545.696	26.2
546.123	26.2
546.549	26.2
546.976	26.21
547.403	26.22
547.829	26.24
548.256	26.24
548.682	26.23
549.108	26.26
549.535	26.29
549.961	26.29
550.387	26.3
550.813	26.31
551.24	26.31
551.666	26.32
552.092	26.33
552.518	26.32
552.943	26.33
553.369	26.34
553.795	26.33
554.221	26.32
554.646	26.31
555.072	26.31
555.498	26.29
555.923	26.28
556.349	26.26
556.774	26.23
557.199	26.19
557.625	26.17
558.05	26.13
558.475	26.09
558.9	26.06
559.325	26.04
559.75	26
560.175	25.94
560.6	25.9
561.025	25.86
561.449	25.82
561.874	25.79
562.299	25.73
562.723	25.68
563.148	25.63
563.572	25.55
563.997	25.47
564.421	25.39
564.846	25.33
565.27	25.25
565.694	25.19
566.118	25.12
566.542	25.03
566.966	24.95
567.39	24.88
567.814	24.78
568.238	24.71
568.662	24.63
569.086	24.57
569.509	24.49
569.933	24.42
570.357	24.33
570.78	24.24
571.204	24.17
571.627	24.1
572.05	24.01
572.474	23.94
572.897	23.88
573.32	23.8
573.743	23.71
574.166	23.63
574.589	23.56
575.012	23.47
575.435	23.4
575.858	23.33
576.281	23.25
576.704	23.19
577.126	23.12
577.549	23.05
577.972	22.98
578.394	22.93
578.817	22.88
579.239	22.81
579.661	22.77
580.084	22.72
580.506	22.67
580.928	22.62
581.35	22.57
581.772	22.51
582.194	22.47
582.616	22.42
583.038	22.36
583.46	22.31
583.882	22.27
584.303	22.21
584.725	22.16
585.147	22.1
585.568	22.06
585.99	22.03
586.411	22
586.833	21.95
587.254	21.9
587.675	21.87
588.096	21.84
588.518	21.8
588.939	21.78
589.36	21.76
589.781	21.73
590.202	21.73
590.623	21.7
591.043	21.65
591.464	21.65
591.885	21.63
592.305	21.62
592.726	21.62
593.147	21.6
593.567	21.58
593.987	21.55
594.408	21.53
594.828	21.48
595.248	21.48
595.669	21.48
596.089	21.46
596.509	21.45
596.929	21.44
597.349	21.42
597.769	21.4
598.189	21.38
598.608	21.39
599.028	21.37
599.448	21.36
599.867	21.32
600.287	21.3
600.706	21.28
601.126	21.24
601.545	21.21
601.965	21.19
602.384	21.15
602.803	21.11
603.222	21.06
603.641	21.01
604.061	20.98
604.48	20.93
604.898	20.86
605.317	20.82
605.736	20.78
606.155	20.72
606.574	20.65
606.992	20.59
607.411	20.54
607.829	20.47
608.248	20.41
608.666	20.35
609.085	20.29
609.503	20.24
609.921	20.18
610.339	20.11
610.758	20.06
611.176	19.99
611.594	19.93
612.012	19.85
612.43	19.8
612.847	19.73
613.265	19.67
613.683	19.62
614.101	19.57
614.518	19.5
614.936	19.45
615.353	19.38
615.771	19.33
616.188	19.28
616.606	19.24
617.023	19.2
617.44	19.17
617.857	19.13
618.274	19.08
618.691	19.03
619.108	18.99
619.525	18.94
619.942	18.93
620.359	18.9
620.776	18.88
621.192	18.85
621.609	18.82
622.026	18.8
622.442	18.77
622.859	18.76
623.275	18.75
623.691	18.75
624.108	18.74
624.524	18.72
624.94	18.7
625.356	18.68
625.772	18.67
626.188	18.65
626.604	18.64
627.02	18.63
627.436	18.62
627.852	18.61
628.268	18.58
628.683	18.58
629.099	18.57
629.514	18.56
629.93	18.56
630.345	18.55
630.761	18.53
631.176	18.51
631.591	18.5
632.007	18.47
632.422	18.44
632.837	18.41
633.252	18.37
633.667	18.33
634.082	18.28
634.497	18.24
634.911	18.18
635.326	18.12
635.741	18.06
636.155	17.99
636.57	17.92
636.984	17.85
637.399	17.79
637.813	17.7
638.228	17.62
638.642	17.53
639.056	17.43
639.47	17.34
639.884	17.25
640.298	17.15
640.712	17.04
641.126	16.94
641.54	16.83
641.954	16.72
642.368	16.61
642.781	16.5
643.195	16.41
643.609	16.31
644.022	16.22
644.436	16.12
644.849	16.01
645.262	15.92
645.676	15.84
646.089	15.76
646.502	15.68
646.915	15.61
647.328	15.55
647.741	15.49
648.154	15.41
648.567	15.35
648.98	15.29
649.393	15.25
649.805	15.21
650.218	15.15
650.631	15.1
651.043	15.05
651.456	15.01
651.868	14.94
652.28	14.88
652.693	14.85
653.105	14.8
653.517	14.75
653.929	14.69
654.341	14.62
654.753	14.54
655.165	14.47
655.577	14.4
655.989	14.31
656.401	14.21
656.813	14.14
657.224	14.02
657.636	13.9
658.047	13.79
658.459	13.68
658.87	13.57
659.282	13.45
659.693	13.33
660.104	13.19
660.515	13.09
660.926	12.98
661.338	12.85
661.749	12.74
662.159	12.63
662.57	12.53
662.981	12.43
663.392	12.31
663.803	12.23
664.213	12.13
664.624	12.05
665.035	11.95
665.445	11.87
665.855	11.79
666.266	11.72
666.676	11.66
667.086	11.58
667.497	11.52
667.907	11.46
668.317	11.4
668.727	11.35
669.137	11.31
669.547	11.27
669.956	11.22
670.366	11.19
670.776	11.17
671.186	11.13
671.595	11.11
672.005	11.09
672.414	11.08
672.824	11.06
673.233	11.05
673.642	11.04
674.052	11.04
674.461	11.06
674.87	11.07
675.279	11.08
675.688	11.1
676.097	11.12
676.506	11.15
676.915	11.16
677.323	11.19
677.732	11.22
678.141	11.26
678.549	11.31
678.958	11.35
679.366	11.41
679.775	11.48
680.183	11.57
680.592	11.67
681	11.78
681.408	11.91
681.816	12.06
682.224	12.23
682.632	12.41
683.04	12.6
683.448	12.81
683.856	13.02
684.264	13.27
684.671	13.53
685.079	13.8
685.487	14.08
685.894	14.4
686.302	14.71
686.709	15.03
687.116	15.38
687.524	15.74
687.931	16.12
688.338	16.51
688.745	16.9
689.152	17.29
689.559	17.7
689.966	18.11
690.373	18.54
690.78	18.98
691.187	19.4
691.593	19.81
692	20.23
692.407	20.63
692.813	21.04
693.22	21.43
693.626	21.83
694.032	22.21
694.439	22.59
694.845	22.96
695.251	23.3
695.657	23.66
696.063	23.99
696.469	24.35
696.875	24.7
697.281	25.03
697.687	25.35
698.093	25.67
698.498	25.99
698.904	26.29
699.31	26.57
699.715	26.86
700.12	27.14
700.526	27.41
700.931	27.67
701.337	27.91
701.742	28.15
702.147	28.39
702.552	28.61
702.957	28.81
703.362	29.02
703.767	29.21
704.172	29.42
704.577	29.6
704.981	29.79
705.386	29.97
705.791	30.14
706.195	30.3
706.6	30.47
707.004	30.63
707.408	30.79
707.813	30.97
708.217	31.12
708.621	31.28
709.025	31.43
709.43	31.57
709.834	31.73
710.237	31.87
710.641	32.03
711.045	32.14
711.449	32.29
711.853	32.43
712.256	32.54
712.66	32.67
713.064	32.78
713.467	32.89
713.87	33.01
714.274	33.08
714.677	33.18
715.08	33.27
715.484	33.4
715.887	33.52
716.29	33.59
716.693	33.7
717.096	33.8
717.499	33.9
717.901	33.99
718.304	34.09
718.707	34.19
719.109	34.3
719.512	34.38
719.915	34.44
720.317	34.47
720.719	34.53
721.122	34.6
721.524	34.66
721.926	34.74
722.328	34.83
722.731	34.88
723.133	34.94
723.535	34.99
723.937	35.07
724.338	35.11
724.74	35.19
725.142	35.35
725.544	35.39
725.945	35.47
726.347	35.49
726.748	35.51
727.15	35.55
727.551	35.6
727.952	35.63
728.354	35.67
728.755	35.71
729.156	35.74
729.557	35.67
729.958	35.68
730.359	35.7
730.76	35.73
731.161	35.77
731.562	35.81
731.962	35.81
732.363	35.85
732.763	35.86
733.164	35.86
733.564	35.9
733.965	35.93
734.365	35.98
734.766	36
735.166	36.01
735.566	36.03
735.966	36.06
736.366	36.09
736.766	36.08
737.166	36.11
737.566	36.14
737.966	36.15
738.365	36.16
738.765	36.17
739.165	36.18
739.564	36.22
739.964	36.24
740.363	36.21
740.763	36.23
741.162	36.25
741.561	36.25
741.96	36.24
742.36	36.25
742.759	36.26
743.158	36.25
743.557	36.24
743.955	36.22
744.354	36.23
744.753	36.25
745.152	36.28
745.55	36.27
745.949	36.29
746.348	36.32
746.746	36.32
747.144	36.34
747.543	36.36
747.941	36.41
748.339	36.41
748.737	36.42
749.136	36.41
749.534	36.4
749.932	36.42
750.33	36.43
750.727	36.44
751.125	36.45
751.523	36.45
751.921	36.46
752.318	36.46
752.716	36.46
753.113	36.47
753.511	36.49
753.908	36.52
754.305	36.53
754.703	36.51
755.1	36.51
755.497	36.51
755.894	36.5
756.291	36.51
756.688	36.51
757.085	36.52
757.482	36.51
757.878	36.51
758.275	36.49
758.672	36.5
759.068	36.51
759.465	36.52
759.861	36.5
760.258	36.51
760.654	36.49
761.05	36.5
761.447	36.49
761.843	36.49
762.239	36.46
762.635	36.45
763.031	36.44
763.427	36.44
763.822	36.45
764.218	36.48
764.614	36.5
765.01	36.49
765.405	36.5
765.801	36.48
766.196	36.48
766.592	36.49
766.987	36.51
767.382	36.49
767.778	36.47
768.173	36.45
768.568	36.45
768.963	36.4
769.358	36.41
769.753	36.4
770.148	36.39
770.542	36.39
770.937	36.4
771.332	36.4
771.726	36.41
772.121	36.43
772.515	36.43
772.91	36.43
773.304	36.45
773.699	36.44
774.093	36.41
