Data from N_2_DEC_NC_4N_Splice17_13-27-20-554.txt Node
Date: Sat Mar 07 13:27:20 EST 2020
User: sa697716
Spectrometer: NQ5500242
Trigger mode: 0
Integration Time (sec): 1.450000E-1
Scans to average: 20
Nonlinearity correction enabled: false
Boxcar width: 5
Storing dark spectrum: false
XAxis mode: Wavelengths
Number of Pixels in Spectrum: 512
>>>>>Begin Spectral Data<<<<<
187.83	136.21
188.298	137.71
188.766	114.95
189.233	81.34
189.701	74.22
190.169	87.63
190.636	90.63
191.104	93.79
191.571	-111.34
192.039	-184.75
192.506	-712.93
192.974	155.69
193.441	250.36
193.908	84.01
194.375	-28.06
194.842	-94.14
195.31	-152.76
195.777	-363.83
196.244	18.05
196.711	35.35
197.177	40.21
197.644	40.3
198.111	40.04
198.578	40.22
199.045	41.11
199.511	41.33
199.978	41.34
200.445	41.69
200.911	41.64
201.378	41.52
201.844	41.46
202.31	40.83
202.777	40.98
203.243	41.02
203.709	40.76
204.176	40.25
204.642	40
205.108	40
205.574	39.73
206.04	39.51
206.506	39.15
206.972	39.12
207.438	39.11
207.903	38.75
208.369	38.03
208.835	37.58
209.301	36.95
209.766	36.26
210.232	35.54
210.697	34.86
211.163	34.19
211.628	33.61
212.094	32.68
212.559	32.23
213.024	31.47
213.49	31.22
213.955	30.6
214.42	30.14
214.885	29.56
215.35	28.57
215.815	27.59
216.28	26.09
216.745	24.69
217.21	23.52
217.675	22.3
218.14	21.38
218.604	20.59
219.069	19.96
219.534	19.45
219.998	18.94
220.463	18.58
220.927	18.18
221.392	17.91
221.856	17.69
222.32	17.46
222.785	17.29
223.249	17.1
223.713	16.9
224.177	16.74
224.642	16.52
225.106	16.32
225.57	16.12
226.034	15.99
226.497	15.85
226.961	15.71
227.425	15.56
227.889	15.39
228.353	15.24
228.816	15.08
229.28	14.9
229.744	14.76
230.207	14.63
230.671	14.5
231.134	14.36
231.597	14.24
232.061	14.1
232.524	13.98
232.987	13.87
233.45	13.76
233.914	13.64
234.377	13.53
234.84	13.41
235.303	13.32
235.766	13.23
236.229	13.14
236.691	13.04
237.154	12.94
237.617	12.85
238.08	12.75
238.542	12.63
239.005	12.53
239.468	12.42
239.93	12.33
240.393	12.24
240.855	12.11
241.317	12
241.78	11.88
242.242	11.78
242.704	11.7
243.166	11.6
243.629	11.54
244.091	11.46
244.553	11.4
245.015	11.32
245.477	11.24
245.939	11.18
246.4	11.12
246.862	11.06
247.324	11
247.786	10.93
248.247	10.86
248.709	10.77
249.17	10.68
249.632	10.62
250.093	10.57
250.555	10.51
251.016	10.46
251.477	10.4
251.939	10.35
252.4	10.29
252.861	10.24
253.322	10.2
253.783	10.16
254.244	10.13
254.705	10.08
255.166	10.02
255.627	9.97
256.088	9.92
256.549	9.87
257.009	9.82
257.47	9.75
257.931	9.68
258.391	9.61
258.852	9.56
259.312	9.49
259.773	9.43
260.233	9.38
260.694	9.33
261.154	9.27
261.614	9.23
262.074	9.17
262.534	9.13
262.994	9.09
263.455	9.05
263.915	9.02
264.374	8.99
264.834	8.97
265.294	8.93
265.754	8.9
266.214	8.88
266.673	8.85
267.133	8.83
267.593	8.81
268.052	8.78
268.512	8.76
268.971	8.74
269.431	8.71
269.89	8.68
270.349	8.66
270.809	8.63
271.268	8.6
271.727	8.57
272.186	8.54
272.645	8.51
273.104	8.48
273.563	8.44
274.022	8.4
274.481	8.37
274.94	8.33
275.399	8.29
275.857	8.26
276.316	8.22
276.775	8.19
277.233	8.16
277.692	8.13
278.15	8.1
278.609	8.08
279.067	8.06
279.525	8.03
279.984	8.01
280.442	7.99
280.9	7.97
281.358	7.94
281.816	7.91
282.274	7.88
282.732	7.84
283.19	7.81
283.648	7.77
284.106	7.73
284.564	7.69
285.021	7.67
285.479	7.64
285.937	7.59
286.394	7.57
286.852	7.53
287.309	7.5
287.767	7.45
288.224	7.42
288.682	7.39
289.139	7.36
289.596	7.33
290.053	7.3
290.511	7.27
290.968	7.25
291.425	7.23
291.882	7.21
292.339	7.2
292.796	7.19
293.252	7.18
293.709	7.16
294.166	7.15
294.623	7.13
295.079	7.11
295.536	7.09
295.992	7.08
296.449	7.05
296.905	7.03
297.362	7.02
297.818	7
298.274	6.99
298.731	6.97
299.187	6.95
299.643	6.94
300.099	6.93
300.555	6.92
301.011	6.9
301.467	6.9
301.923	6.89
302.379	6.87
302.835	6.87
303.291	6.86
303.746	6.85
304.202	6.85
304.658	6.85
305.113	6.83
305.569	6.83
306.024	6.81
306.479	6.8
306.935	6.78
307.39	6.78
307.845	6.76
308.301	6.76
308.756	6.76
309.211	6.75
309.666	6.76
310.121	6.76
310.576	6.75
311.031	6.75
311.486	6.76
311.94	6.77
312.395	6.76
312.85	6.76
313.305	6.75
313.759	6.75
314.214	6.75
314.668	6.73
315.123	6.73
315.577	6.72
316.032	6.7
316.486	6.68
316.94	6.66
317.394	6.65
317.849	6.63
318.303	6.61
318.757	6.6
319.211	6.59
319.665	6.59
320.119	6.57
320.572	6.57
321.026	6.58
321.48	6.58
321.934	6.57
322.387	6.56
322.841	6.56
323.295	6.57
323.748	6.55
324.202	6.54
324.655	6.52
325.108	6.51
325.562	6.49
326.015	6.47
326.468	6.46
326.921	6.45
327.374	6.46
327.827	6.45
328.28	6.44
328.733	6.44
329.186	6.44
329.639	6.44
330.092	6.44
330.545	6.44
330.997	6.43
331.45	6.44
331.903	6.43
332.355	6.43
332.808	6.43
333.26	6.41
333.713	6.41
334.165	6.4
334.617	6.4
335.069	6.38
335.522	6.38
335.974	6.38
336.426	6.36
336.878	6.35
337.33	6.33
337.782	6.32
338.234	6.32
338.686	6.31
339.137	6.31
339.589	6.29
340.041	6.28
340.493	6.27
340.944	6.24
341.396	6.23
341.847	6.21
342.299	6.2
342.75	6.19
343.201	6.18
343.653	6.16
344.104	6.15
344.555	6.14
345.006	6.13
345.457	6.13
345.908	6.13
346.359	6.13
346.81	6.13
347.261	6.12
347.712	6.1
348.163	6.09
348.613	6.09
349.064	6.09
349.515	6.08
349.965	6.07
350.416	6.06
350.866	6.04
351.317	6.03
351.767	6.02
352.217	6.02
352.668	6.03
353.118	6.04
353.568	6.04
354.018	6.04
354.468	6.04
354.918	6.04
355.368	6.05
355.818	6.06
356.268	6.06
356.718	6.06
357.168	6.06
357.617	6.06
358.067	6.06
358.517	6.07
358.966	6.08
359.416	6.09
359.865	6.09
360.315	6.09
360.764	6.09
361.213	6.1
361.663	6.11
362.112	6.13
362.561	6.13
363.01	6.14
363.459	6.13
363.908	6.12
364.357	6.12
364.806	6.13
365.255	6.13
365.703	6.15
366.152	6.15
366.601	6.16
367.05	6.16
367.498	6.15
367.947	6.16
368.395	6.17
368.844	6.17
369.292	6.17
369.74	6.18
370.189	6.18
370.637	6.17
371.085	6.17
371.533	6.18
371.981	6.2
372.429	6.21
372.877	6.22
373.325	6.23
373.773	6.24
374.221	6.24
374.669	6.25
375.116	6.25
375.564	6.27
376.012	6.27
376.459	6.29
376.907	6.31
377.354	6.33
377.801	6.35
378.249	6.35
378.696	6.38
379.143	6.4
379.591	6.43
380.038	6.46
380.485	6.49
380.932	6.53
381.379	6.55
381.826	6.57
382.273	6.6
382.72	6.61
383.166	6.64
383.613	6.67
384.06	6.69
384.506	6.72
384.953	6.75
385.4	6.77
385.846	6.81
386.292	6.83
386.739	6.86
387.185	6.88
387.631	6.91
388.078	6.94
388.524	6.97
388.97	7.01
389.416	7.04
389.862	7.08
390.308	7.12
390.754	7.15
391.2	7.2
391.645	7.25
392.091	7.31
392.537	7.36
392.983	7.42
393.428	7.46
393.874	7.51
394.319	7.56
394.765	7.6
395.21	7.63
395.655	7.67
396.101	7.7
396.546	7.74
396.991	7.78
397.436	7.82
397.881	7.87
398.326	7.92
398.771	7.96
399.216	8
399.661	8.05
400.106	8.11
400.551	8.15
400.995	8.19
401.44	8.23
401.885	8.26
402.329	8.31
402.774	8.34
403.218	8.39
403.663	8.42
404.107	8.45
404.551	8.47
404.995	8.49
405.44	8.52
405.884	8.54
406.328	8.57
406.772	8.59
407.216	8.6
407.66	8.62
408.104	8.62
408.547	8.64
408.991	8.66
409.435	8.68
409.879	8.7
410.322	8.73
410.766	8.77
411.209	8.78
411.653	8.8
412.096	8.81
412.54	8.82
412.983	8.84
413.426	8.88
413.869	8.9
414.312	8.93
414.756	8.95
415.199	8.96
415.642	8.96
416.085	8.98
416.527	8.99
416.97	9
417.413	9.02
417.856	9.03
418.298	9
418.741	9
419.184	9
419.626	9.01
420.069	9.02
420.511	9.02
420.953	9.04
421.396	9.05
421.838	9.05
422.28	9.06
422.722	9.08
423.164	9.1
423.606	9.11
424.048	9.11
424.49	9.11
424.932	9.11
425.374	9.11
425.816	9.09
426.258	9.08
426.699	9.08
427.141	9.07
427.582	9.06
428.024	9.06
428.465	9.06
428.907	9.06
429.348	9.06
429.789	9.06
430.231	9.08
430.672	9.1
431.113	9.11
431.554	9.13
431.995	9.15
432.436	9.17
432.877	9.18
433.318	9.21
433.759	9.22
434.2	9.24
434.64	9.25
435.081	9.27
435.522	9.29
435.962	9.3
436.403	9.33
436.843	9.35
437.284	9.36
437.724	9.36
438.164	9.36
438.604	9.39
439.045	9.4
439.485	9.42
439.925	9.42
440.365	9.44
440.805	9.46
441.245	9.48
441.685	9.52
442.125	9.57
442.564	9.61
443.004	9.67
443.444	9.7
443.883	9.75
444.323	9.79
444.762	9.84
445.202	9.89
445.641	9.95
446.081	10
446.52	10.03
446.959	10.08
447.398	10.13
447.837	10.18
448.276	10.22
448.716	10.27
449.154	10.33
449.593	10.38
450.032	10.41
450.471	10.44
450.91	10.47
451.349	10.52
451.787	10.55
452.226	10.56
452.664	10.58
453.103	10.59
453.541	10.62
453.98	10.66
454.418	10.66
454.856	10.69
455.295	10.7
455.733	10.7
456.171	10.7
456.609	10.71
457.047	10.71
457.485	10.72
457.923	10.72
458.361	10.73
458.798	10.74
459.236	10.73
459.674	10.72
460.111	10.72
460.549	10.72
460.987	10.72
461.424	10.72
461.862	10.73
462.299	10.74
462.736	10.75
463.173	10.74
463.611	10.72
464.048	10.74
464.485	10.75
464.922	10.75
465.359	10.76
465.796	10.76
466.233	10.77
466.67	10.76
467.106	10.77
467.543	10.76
467.98	10.76
468.416	10.76
468.853	10.77
469.29	10.77
469.726	10.78
470.162	10.78
470.599	10.78
471.035	10.77
471.471	10.77
471.907	10.77
472.344	10.78
472.78	10.79
473.216	10.79
473.652	10.79
474.088	10.8
474.523	10.82
474.959	10.84
475.395	10.85
475.831	10.86
476.266	10.88
476.702	10.88
477.138	10.9
477.573	10.9
478.008	10.92
478.444	10.92
478.879	10.95
479.314	10.93
479.75	10.94
480.185	10.94
480.62	10.94
481.055	10.94
481.49	10.95
481.925	10.96
482.36	10.98
482.795	10.99
483.229	11
483.664	11.01
484.099	11.02
484.534	11.04
484.968	11.08
485.403	11.1
485.837	11.13
486.271	11.16
486.706	11.18
487.14	11.21
487.574	11.24
488.009	11.27
488.443	11.31
488.877	11.37
489.311	11.43
489.745	11.47
490.179	11.54
490.613	11.6
491.046	11.66
491.48	11.72
491.914	11.78
492.348	11.86
492.781	11.94
493.215	12.02
493.648	12.09
494.082	12.16
494.515	12.23
494.948	12.31
495.382	12.39
495.815	12.47
496.248	12.58
496.681	12.7
497.114	12.79
497.547	12.89
497.98	13
498.413	13.1
498.846	13.22
499.279	13.34
499.711	13.46
500.144	13.6
500.577	13.74
501.009	13.86
501.442	13.99
501.874	14.14
502.306	14.27
502.739	14.43
503.171	14.59
503.603	14.74
504.036	14.92
504.468	15.08
504.9	15.23
505.332	15.4
505.764	15.57
506.196	15.74
506.627	15.92
507.059	16.11
507.491	16.29
507.923	16.47
508.354	16.67
508.786	16.85
509.217	17.07
509.649	17.28
510.08	17.48
510.512	17.7
510.943	17.92
511.374	18.13
511.805	18.36
512.237	18.57
512.668	18.79
513.099	19
513.53	19.22
513.961	19.43
514.391	19.64
514.822	19.87
515.253	20.09
515.684	20.3
516.114	20.52
516.545	20.73
516.975	20.96
517.406	21.17
517.836	21.37
518.267	21.6
518.697	21.79
519.127	21.99
519.558	22.19
519.988	22.38
520.418	22.56
520.848	22.72
521.278	22.89
521.708	23.22
522.138	23.39
522.567	23.55
522.997	23.66
523.427	23.81
523.857	23.97
524.286	24.1
524.716	24.23
525.145	24.37
525.575	24.51
526.004	24.64
526.433	24.6
526.863	24.71
527.292	24.83
527.721	24.96
528.15	25.06
528.579	25.16
529.008	25.28
529.437	25.35
529.866	25.43
530.295	25.51
530.724	25.6
531.152	25.67
531.581	25.75
532.01	25.82
532.438	25.89
532.867	25.96
533.295	26
533.723	26.04
534.152	26.11
534.58	26.16
535.008	26.2
535.436	26.24
535.865	26.28
536.293	26.33
536.721	26.36
537.149	26.4
537.576	26.43
538.004	26.47
538.432	26.5
538.86	26.53
539.287	26.55
539.715	26.59
540.143	26.61
540.57	26.63
540.998	26.63
541.425	26.65
541.852	26.67
542.28	26.69
542.707	26.7
543.134	26.72
543.561	26.74
543.988	26.75
544.415	26.75
544.842	26.75
545.269	26.77
545.696	26.8
546.123	26.81
546.549	26.81
546.976	26.83
547.403	26.85
547.829	26.86
548.256	26.86
548.682	26.88
549.108	26.9
549.535	26.92
549.961	26.92
550.387	26.93
550.813	26.95
551.24	26.96
551.666	26.96
552.092	26.95
552.518	26.95
552.943	26.94
553.369	26.93
553.795	26.93
554.221	26.91
554.646	26.9
555.072	26.89
555.498	26.85
555.923	26.83
556.349	26.8
556.774	26.77
557.199	26.75
557.625	26.74
558.05	26.7
558.475	26.66
558.9	26.64
559.325	26.61
559.75	26.57
560.175	26.56
560.6	26.51
561.025	26.47
561.449	26.43
561.874	26.37
562.299	26.3
562.723	26.26
563.148	26.19
563.572	26.11
563.997	26.04
564.421	25.95
564.846	25.87
565.27	25.8
565.694	25.72
566.118	25.65
566.542	25.58
566.966	25.5
567.39	25.42
567.814	25.35
568.238	25.27
568.662	25.19
569.086	25.12
569.509	25.03
569.933	24.95
570.357	24.86
570.78	24.77
571.204	24.68
571.627	24.6
572.05	24.52
572.474	24.45
572.897	24.38
573.32	24.3
573.743	24.22
574.166	24.16
574.589	24.09
575.012	24.01
575.435	23.94
575.858	23.87
576.281	23.8
576.704	23.74
577.126	23.66
577.549	23.58
577.972	23.5
578.394	23.44
578.817	23.38
579.239	23.33
579.661	23.28
580.084	23.22
580.506	23.19
580.928	23.12
581.35	23.07
581.772	23.02
582.194	22.98
582.616	22.94
583.038	22.89
583.46	22.82
583.882	22.77
584.303	22.7
584.725	22.66
585.147	22.61
585.568	22.58
585.99	22.52
586.411	22.49
586.833	22.45
587.254	22.4
587.675	22.36
588.096	22.34
588.518	22.31
588.939	22.29
589.36	22.25
589.781	22.21
590.202	22.18
590.623	22.14
591.043	22.1
591.464	22.1
591.885	22.08
592.305	22.06
592.726	22.03
593.147	22.02
593.567	22.02
593.987	22.01
594.408	22
594.828	21.98
595.248	21.98
595.669	21.97
596.089	21.93
596.509	21.92
596.929	21.92
597.349	21.9
597.769	21.88
598.189	21.84
598.608	21.83
599.028	21.8
599.448	21.78
599.867	21.75
600.287	21.72
600.706	21.71
601.126	21.67
601.545	21.65
601.965	21.63
602.384	21.59
602.803	21.56
603.222	21.52
603.641	21.5
604.061	21.46
604.48	21.42
604.898	21.37
605.317	21.32
605.736	21.29
606.155	21.23
606.574	21.16
606.992	21.1
607.411	21.05
607.829	20.97
608.248	20.9
608.666	20.82
609.085	20.77
609.503	20.71
609.921	20.64
610.339	20.58
610.758	20.51
611.176	20.45
611.594	20.39
612.012	20.32
612.43	20.27
612.847	20.23
613.265	20.18
613.683	20.12
614.101	20.07
614.518	20
614.936	19.93
615.353	19.86
615.771	19.81
616.188	19.76
616.606	19.71
617.023	19.66
617.44	19.61
617.857	19.56
618.274	19.51
618.691	19.46
619.108	19.43
619.525	19.4
619.942	19.38
620.359	19.35
620.776	19.32
621.192	19.31
621.609	19.29
622.026	19.26
622.442	19.25
622.859	19.23
623.275	19.21
623.691	19.2
624.108	19.19
624.524	19.16
624.94	19.15
625.356	19.15
625.772	19.13
626.188	19.11
626.604	19.1
627.02	19.09
627.436	19.08
627.852	19.07
628.268	19.07
628.683	19.05
629.099	19.06
629.514	19.04
629.93	19.02
630.345	19.01
630.761	18.98
631.176	18.96
631.591	18.94
632.007	18.91
632.422	18.88
632.837	18.84
633.252	18.8
633.667	18.75
634.082	18.7
634.497	18.66
634.911	18.6
635.326	18.54
635.741	18.47
636.155	18.41
636.57	18.35
636.984	18.27
637.399	18.19
637.813	18.11
638.228	18.01
638.642	17.93
639.056	17.81
639.47	17.72
639.884	17.64
640.298	17.53
640.712	17.43
641.126	17.32
641.54	17.21
641.954	17.11
642.368	17
642.781	16.9
643.195	16.8
643.609	16.71
644.022	16.59
644.436	16.49
644.849	16.38
645.262	16.28
645.676	16.19
646.089	16.11
646.502	16.02
646.915	15.95
647.328	15.88
647.741	15.8
648.154	15.74
648.567	15.69
648.98	15.62
649.393	15.58
649.805	15.54
650.218	15.48
650.631	15.45
651.043	15.39
651.456	15.34
651.868	15.28
652.28	15.24
652.693	15.18
653.105	15.12
653.517	15.07
653.929	15.01
654.341	14.92
654.753	14.85
655.165	14.76
655.577	14.67
655.989	14.59
656.401	14.51
656.813	14.41
657.224	14.31
657.636	14.2
658.047	14.11
658.459	13.99
658.87	13.89
659.282	13.78
659.693	13.66
660.104	13.55
660.515	13.43
660.926	13.32
661.338	13.2
661.749	13.08
662.159	12.97
662.57	12.85
662.981	12.74
663.392	12.64
663.803	12.55
664.213	12.44
664.624	12.34
665.035	12.24
665.445	12.15
665.855	12.06
666.266	11.99
666.676	11.93
667.086	11.86
667.497	11.8
667.907	11.75
668.317	11.69
668.727	11.64
669.137	11.6
669.547	11.56
669.956	11.52
670.366	11.5
670.776	11.46
671.186	11.43
671.595	11.42
672.005	11.39
672.414	11.37
672.824	11.35
673.233	11.34
673.642	11.35
674.052	11.34
674.461	11.35
674.87	11.35
675.279	11.37
675.688	11.39
676.097	11.39
676.506	11.43
676.915	11.46
677.323	11.49
677.732	11.52
678.141	11.56
678.549	11.6
678.958	11.66
679.366	11.73
679.775	11.8
680.183	11.89
680.592	11.98
681	12.09
681.408	12.22
681.816	12.37
682.224	12.55
682.632	12.73
683.04	12.93
683.448	13.14
683.856	13.36
684.264	13.6
684.671	13.86
685.079	14.14
685.487	14.44
685.894	14.76
686.302	15.08
686.709	15.4
687.116	15.76
687.524	16.13
687.931	16.5
688.338	16.92
688.745	17.32
689.152	17.73
689.559	18.16
689.966	18.6
690.373	19.02
690.78	19.46
691.187	19.89
691.593	20.32
692	20.75
692.407	21.15
692.813	21.56
693.22	21.98
693.626	22.39
694.032	22.78
694.439	23.16
694.845	23.54
695.251	23.91
695.657	24.26
696.063	24.62
696.469	24.98
696.875	25.34
697.281	25.67
697.687	25.99
698.093	26.3
698.498	26.61
698.904	26.92
699.31	27.22
699.715	27.51
700.12	27.81
700.526	28.08
700.931	28.34
701.337	28.58
701.742	28.84
702.147	29.07
702.552	29.31
702.957	29.53
703.362	29.73
703.767	29.92
704.172	30.12
704.577	30.3
704.981	30.5
705.386	30.69
705.791	30.88
706.195	31.05
706.6	31.23
707.004	31.4
707.408	31.55
707.813	31.73
708.217	31.89
708.621	32.04
709.025	32.19
709.43	32.31
709.834	32.47
710.237	32.61
710.641	32.75
711.045	32.87
711.449	33.01
711.853	33.16
712.256	33.27
712.66	33.4
713.064	33.52
713.467	33.65
713.87	33.77
714.274	33.85
714.677	33.95
715.08	34.04
715.484	34.15
715.887	34.27
716.29	34.35
716.693	34.46
717.096	34.57
717.499	34.69
717.901	34.76
718.304	34.85
718.707	34.94
719.109	35.05
719.512	35.13
719.915	35.23
720.317	35.26
720.719	35.32
721.122	35.38
721.524	35.44
721.926	35.5
722.328	35.6
722.731	35.64
723.133	35.71
723.535	35.76
723.937	35.81
724.338	35.84
724.74	35.91
725.142	36.06
725.544	36.11
725.945	36.18
726.347	36.19
726.748	36.24
727.15	36.27
727.551	36.32
727.952	36.34
728.354	36.39
728.755	36.44
729.156	36.48
729.557	36.42
729.958	36.42
730.359	36.43
730.76	36.48
731.161	36.5
731.562	36.55
731.962	36.57
732.363	36.6
732.763	36.64
733.164	36.65
733.564	36.7
733.965	36.72
734.365	36.75
734.766	36.79
735.166	36.82
735.566	36.85
735.966	36.87
736.366	36.88
736.766	36.88
737.166	36.9
737.566	36.93
737.966	36.94
738.365	36.97
738.765	37.02
739.165	37.03
739.564	37.03
739.964	37.04
740.363	37.04
740.763	37.06
741.162	37.09
741.561	37.09
741.96	37.08
742.36	37.11
742.759	37.11
743.158	37.08
743.557	37.07
743.955	37.08
744.354	37.07
744.753	37.09
745.152	37.1
745.55	37.13
745.949	37.14
746.348	37.16
746.746	37.17
747.144	37.19
747.543	37.2
747.941	37.2
748.339	37.19
748.737	37.21
749.136	37.21
749.534	37.2
749.932	37.17
750.33	37.18
750.727	37.18
751.125	37.17
751.523	37.17
751.921	37.18
752.318	37.19
752.716	37.21
753.113	37.21
753.511	37.21
753.908	37.24
754.305	37.26
754.703	37.25
755.1	37.24
755.497	37.26
755.894	37.24
756.291	37.23
756.688	37.23
757.085	37.23
757.482	37.25
757.878	37.24
758.275	37.23
758.672	37.22
759.068	37.23
759.465	37.22
759.861	37.2
760.258	37.22
760.654	37.22
761.05	37.24
761.447	37.24
761.843	37.22
762.239	37.21
762.635	37.2
763.031	37.2
763.427	37.2
763.822	37.21
764.218	37.21
764.614	37.22
765.01	37.21
765.405	37.21
765.801	37.19
766.196	37.21
766.592	37.21
766.987	37.21
767.382	37.21
767.778	37.23
768.173	37.22
768.568	37.23
768.963	37.22
769.358	37.23
769.753	37.23
770.148	37.24
770.542	37.21
770.937	37.22
771.332	37.21
771.726	37.21
772.121	37.18
772.515	37.19
772.91	37.16
773.304	37.17
773.699	37.15
774.093	37.14
774.487	37.13
