Data from N_2_HIR_IL_4N_Splice17_13-11-14-036.txt Node
Date: Sat Mar 07 13:11:14 EST 2020
User: sa697716
Spectrometer: NQ5500242
Trigger mode: 0
Integration Time (sec): 1.450000E-1
Scans to average: 20
Nonlinearity correction enabled: false
Boxcar width: 5
Storing dark spectrum: false
XAxis mode: Wavelengths
Number of Pixels in Spectrum: 512
>>>>>Begin Spectral Data<<<<<
187.83	135.32
188.298	156.82
188.766	135.61
189.233	127.38
189.701	134.67
190.169	155.28
190.636	172.2
191.104	248.05
191.571	177.69
192.039	-204.41
192.506	-333.04
192.974	61.04
193.441	82.5
193.908	104.56
194.375	70.3
194.842	62.23
195.31	73.48
195.777	70.39
196.244	42.43
196.711	40.29
197.177	41.39
197.644	41.7
198.111	42.27
198.578	42.52
199.045	42.16
199.511	42.62
199.978	42.72
200.445	43.18
200.911	43.44
201.378	43.37
201.844	43.47
202.31	43.31
202.777	43.2
203.243	43.34
203.709	43.29
204.176	43.04
204.642	42.82
205.108	42.66
205.574	42.32
206.04	41.85
206.506	41.74
206.972	41.92
207.438	41.73
207.903	41.34
208.369	40.45
208.835	39.91
209.301	39.55
209.766	38.91
210.232	38.24
210.697	37.42
211.163	36.97
211.628	36.29
212.094	35.44
212.559	35.07
213.024	34.49
213.49	34.22
213.955	33.59
214.42	33.09
214.885	32.4
215.35	31.58
215.815	30.73
216.28	29.29
216.745	27.85
217.21	26.38
217.675	24.97
218.14	23.96
218.604	22.94
219.069	22.14
219.534	21.45
219.998	20.89
220.463	20.51
220.927	20.04
221.392	19.72
221.856	19.42
222.32	19.19
222.785	18.97
223.249	18.7
223.713	18.49
224.177	18.29
224.642	18.07
225.106	17.83
225.57	17.56
226.034	17.36
226.497	17.16
226.961	16.96
227.425	16.76
227.889	16.57
228.353	16.39
228.816	16.2
229.28	16.03
229.744	15.86
230.207	15.71
230.671	15.56
231.134	15.41
231.597	15.27
232.061	15.12
232.524	14.97
232.987	14.83
233.45	14.7
233.914	14.53
234.377	14.39
234.84	14.25
235.303	14.13
235.766	13.99
236.229	13.86
236.691	13.73
237.154	13.61
237.617	13.49
238.08	13.35
238.542	13.21
239.005	13.12
239.468	13
239.93	12.9
240.393	12.79
240.855	12.67
241.317	12.56
241.78	12.44
242.242	12.32
242.704	12.22
243.166	12.12
243.629	12.03
244.091	11.92
244.553	11.82
245.015	11.72
245.477	11.62
245.939	11.53
246.4	11.45
246.862	11.37
247.324	11.29
247.786	11.19
248.247	11.11
248.709	11.03
249.17	10.94
249.632	10.88
250.093	10.81
250.555	10.73
251.016	10.68
251.477	10.6
251.939	10.54
252.4	10.48
252.861	10.42
253.322	10.36
253.783	10.3
254.244	10.26
254.705	10.2
255.166	10.15
255.627	10.09
256.088	10.03
256.549	9.98
257.009	9.91
257.47	9.85
257.931	9.78
258.391	9.72
258.852	9.66
259.312	9.61
259.773	9.56
260.233	9.51
260.694	9.47
261.154	9.41
261.614	9.36
262.074	9.33
262.534	9.29
262.994	9.26
263.455	9.23
263.915	9.19
264.374	9.16
264.834	9.13
265.294	9.09
265.754	9.07
266.214	9.05
266.673	9.03
267.133	9.01
267.593	8.99
268.052	8.96
268.512	8.95
268.971	8.93
269.431	8.91
269.89	8.9
270.349	8.89
270.809	8.86
271.268	8.85
271.727	8.82
272.186	8.8
272.645	8.78
273.104	8.76
273.563	8.75
274.022	8.73
274.481	8.71
274.94	8.69
275.399	8.66
275.857	8.64
276.316	8.61
276.775	8.58
277.233	8.56
277.692	8.54
278.15	8.52
278.609	8.49
279.067	8.46
279.525	8.43
279.984	8.39
280.442	8.37
280.9	8.35
281.358	8.32
281.816	8.31
282.274	8.28
282.732	8.25
283.19	8.21
283.648	8.18
284.106	8.15
284.564	8.12
285.021	8.1
285.479	8.07
285.937	8.03
286.394	8
286.852	7.97
287.309	7.94
287.767	7.9
288.224	7.87
288.682	7.83
289.139	7.8
289.596	7.77
290.053	7.73
290.511	7.7
290.968	7.68
291.425	7.64
291.882	7.62
292.339	7.59
292.796	7.57
293.252	7.55
293.709	7.53
294.166	7.51
294.623	7.49
295.079	7.47
295.536	7.46
295.992	7.43
296.449	7.42
296.905	7.4
297.362	7.38
297.818	7.35
298.274	7.34
298.731	7.32
299.187	7.29
299.643	7.28
300.099	7.26
300.555	7.24
301.011	7.21
301.467	7.2
301.923	7.17
302.379	7.15
302.835	7.13
303.291	7.1
303.746	7.08
304.202	7.06
304.658	7.04
305.113	7.02
305.569	7.01
306.024	6.99
306.479	6.97
306.935	6.94
307.39	6.93
307.845	6.9
308.301	6.9
308.756	6.88
309.211	6.87
309.666	6.86
310.121	6.84
310.576	6.82
311.031	6.8
311.486	6.79
311.94	6.79
312.395	6.78
312.85	6.77
313.305	6.75
313.759	6.74
314.214	6.72
314.668	6.7
315.123	6.68
315.577	6.66
316.032	6.64
316.486	6.62
316.94	6.6
317.394	6.57
317.849	6.55
318.303	6.53
318.757	6.5
319.211	6.48
319.665	6.46
320.119	6.45
320.572	6.43
321.026	6.41
321.48	6.4
321.934	6.37
322.387	6.36
322.841	6.35
323.295	6.34
323.748	6.33
324.202	6.32
324.655	6.31
325.108	6.3
325.562	6.3
326.015	6.29
326.468	6.26
326.921	6.26
327.374	6.24
327.827	6.24
328.28	6.23
328.733	6.22
329.186	6.2
329.639	6.19
330.092	6.18
330.545	6.17
330.997	6.15
331.45	6.15
331.903	6.14
332.355	6.14
332.808	6.13
333.26	6.11
333.713	6.1
334.165	6.09
334.617	6.09
335.069	6.07
335.522	6.07
335.974	6.07
336.426	6.06
336.878	6.05
337.33	6.04
337.782	6.02
338.234	6.01
338.686	6.01
339.137	6
339.589	5.98
340.041	5.97
340.493	5.95
340.944	5.92
341.396	5.9
341.847	5.89
342.299	5.87
342.75	5.85
343.201	5.82
343.653	5.8
344.104	5.77
344.555	5.76
345.006	5.73
345.457	5.72
345.908	5.71
346.359	5.7
346.81	5.69
347.261	5.68
347.712	5.67
348.163	5.66
348.613	5.66
349.064	5.66
349.515	5.65
349.965	5.65
350.416	5.64
350.866	5.63
351.317	5.62
351.767	5.61
352.217	5.61
352.668	5.61
353.118	5.61
353.568	5.59
354.018	5.6
354.468	5.59
354.918	5.59
355.368	5.59
355.818	5.59
356.268	5.58
356.718	5.58
357.168	5.57
357.617	5.56
358.067	5.55
358.517	5.55
358.966	5.54
359.416	5.53
359.865	5.52
360.315	5.52
360.764	5.52
361.213	5.52
361.663	5.51
362.112	5.5
362.561	5.49
363.01	5.49
363.459	5.48
363.908	5.47
364.357	5.47
364.806	5.46
365.255	5.44
365.703	5.44
366.152	5.41
366.601	5.41
367.05	5.41
367.498	5.4
367.947	5.39
368.395	5.39
368.844	5.38
369.292	5.37
369.74	5.37
370.189	5.36
370.637	5.35
371.085	5.35
371.533	5.33
371.981	5.33
372.429	5.32
372.877	5.32
373.325	5.3
373.773	5.29
374.221	5.27
374.669	5.27
375.116	5.26
375.564	5.25
376.012	5.24
376.459	5.23
376.907	5.23
377.354	5.22
377.801	5.21
378.249	5.21
378.696	5.2
379.143	5.2
379.591	5.19
380.038	5.19
380.485	5.18
380.932	5.17
381.379	5.17
381.826	5.17
382.273	5.15
382.72	5.14
383.166	5.14
383.613	5.12
384.06	5.11
384.506	5.1
384.953	5.09
385.4	5.08
385.846	5.09
386.292	5.07
386.739	5.06
387.185	5.06
387.631	5.06
388.078	5.04
388.524	5.03
388.97	5.03
389.416	5.03
389.862	5.03
390.308	5.03
390.754	5.03
391.2	5.04
391.645	5.05
392.091	5.06
392.537	5.07
392.983	5.08
393.428	5.09
393.874	5.08
394.319	5.09
394.765	5.09
395.21	5.09
395.655	5.09
396.101	5.09
396.546	5.09
396.991	5.09
397.436	5.09
397.881	5.11
398.326	5.12
398.771	5.15
399.216	5.15
399.661	5.17
400.106	5.18
400.551	5.19
400.995	5.2
401.44	5.2
401.885	5.21
402.329	5.23
402.774	5.24
403.218	5.27
403.663	5.28
404.107	5.3
404.551	5.31
404.995	5.32
405.44	5.33
405.884	5.36
406.328	5.38
406.772	5.39
407.216	5.41
407.66	5.41
408.104	5.41
408.547	5.42
408.991	5.44
409.435	5.45
409.879	5.47
410.322	5.48
410.766	5.5
411.209	5.52
411.653	5.54
412.096	5.56
412.54	5.58
412.983	5.6
413.426	5.63
413.869	5.65
414.312	5.68
414.756	5.7
415.199	5.7
415.642	5.72
416.085	5.73
416.527	5.74
416.97	5.74
417.413	5.75
417.856	5.75
418.298	5.75
418.741	5.76
419.184	5.77
419.626	5.78
420.069	5.82
420.511	5.84
420.953	5.84
421.396	5.85
421.838	5.86
422.28	5.87
422.722	5.89
423.164	5.9
423.606	5.91
424.048	5.92
424.49	5.93
424.932	5.91
425.374	5.88
425.816	5.86
426.258	5.86
426.699	5.85
427.141	5.85
427.582	5.84
428.024	5.85
428.465	5.85
428.907	5.84
429.348	5.82
429.789	5.82
430.231	5.85
430.672	5.88
431.113	5.89
431.554	5.91
431.995	5.92
432.436	5.92
432.877	5.93
433.318	5.94
433.759	5.96
434.2	5.97
434.64	5.99
435.081	6
435.522	6.01
435.962	6.03
436.403	6.06
436.843	6.06
437.284	6.05
437.724	6.05
438.164	6.04
438.604	6.06
439.045	6.07
439.485	6.06
439.925	6.05
440.365	6.05
440.805	6.04
441.245	6.04
441.685	6.07
442.125	6.1
442.564	6.1
443.004	6.11
443.444	6.1
443.883	6.11
444.323	6.11
444.762	6.13
445.202	6.13
445.641	6.15
446.081	6.16
446.52	6.16
446.959	6.17
447.398	6.19
447.837	6.21
448.276	6.22
448.716	6.25
449.154	6.27
449.593	6.29
450.032	6.3
450.471	6.29
450.91	6.29
451.349	6.29
451.787	6.27
452.226	6.26
452.664	6.25
453.103	6.24
453.541	6.23
453.98	6.23
454.418	6.21
454.856	6.2
455.295	6.18
455.733	6.17
456.171	6.16
456.609	6.16
457.047	6.15
457.485	6.15
457.923	6.13
458.361	6.12
458.798	6.11
459.236	6.11
459.674	6.1
460.111	6.1
460.549	6.11
460.987	6.1
461.424	6.11
461.862	6.12
462.299	6.12
462.736	6.13
463.173	6.12
463.611	6.11
464.048	6.13
464.485	6.14
464.922	6.14
465.359	6.14
465.796	6.15
466.233	6.15
466.67	6.15
467.106	6.15
467.543	6.15
467.98	6.15
468.416	6.14
468.853	6.12
469.29	6.12
469.726	6.12
470.162	6.12
470.599	6.11
471.035	6.1
471.471	6.1
471.907	6.08
472.344	6.08
472.78	6.07
473.216	6.07
473.652	6.07
474.088	6.05
474.523	6.05
474.959	6.04
475.395	6.03
475.831	6.02
476.266	6.02
476.702	6
477.138	6
477.573	5.98
478.008	5.98
478.444	5.97
478.879	5.97
479.314	5.95
479.75	5.94
480.185	5.93
480.62	5.91
481.055	5.9
481.49	5.89
481.925	5.89
482.36	5.89
482.795	5.87
483.229	5.87
483.664	5.87
484.099	5.86
484.534	5.86
484.968	5.87
485.403	5.87
485.837	5.89
486.271	5.91
486.706	5.91
487.14	5.92
487.574	5.95
488.009	5.97
488.443	5.99
488.877	6.01
489.311	6.05
489.745	6.07
490.179	6.11
490.613	6.14
491.046	6.17
491.48	6.21
491.914	6.26
492.348	6.3
492.781	6.35
493.215	6.4
493.648	6.45
494.082	6.5
494.515	6.55
494.948	6.62
495.382	6.67
495.815	6.74
496.248	6.82
496.681	6.91
497.114	6.99
497.547	7.07
497.98	7.16
498.413	7.26
498.846	7.37
499.279	7.48
499.711	7.58
500.144	7.7
500.577	7.82
501.009	7.94
501.442	8.06
501.874	8.2
502.306	8.35
502.739	8.5
503.171	8.65
503.603	8.81
504.036	8.99
504.468	9.16
504.9	9.34
505.332	9.53
505.764	9.74
506.196	9.94
506.627	10.15
507.059	10.38
507.491	10.6
507.923	10.82
508.354	11.08
508.786	11.34
509.217	11.61
509.649	11.88
510.08	12.15
510.512	12.43
510.943	12.71
511.374	13
511.805	13.28
512.237	13.58
512.668	13.88
513.099	14.17
513.53	14.48
513.961	14.78
514.391	15.11
514.822	15.45
515.253	15.77
515.684	16.1
516.114	16.44
516.545	16.79
516.975	17.14
517.406	17.49
517.836	17.84
518.267	18.19
518.697	18.52
519.127	18.84
519.558	19.17
519.988	19.51
520.418	19.85
520.848	20.17
521.278	20.49
521.708	20.96
522.138	21.27
522.567	21.57
522.997	21.85
523.427	22.15
523.857	22.43
524.286	22.7
524.716	22.95
525.145	23.21
525.575	23.45
526.004	23.68
526.433	23.73
526.863	23.95
527.292	24.16
527.721	24.37
528.15	24.57
528.579	24.75
529.008	24.94
529.437	25.1
529.866	25.25
530.295	25.41
530.724	25.57
531.152	25.72
531.581	25.86
532.01	25.99
532.438	26.13
532.867	26.24
533.295	26.36
533.723	26.46
534.152	26.57
534.58	26.68
535.008	26.75
535.436	26.83
535.865	26.9
536.293	26.96
536.721	27.03
537.149	27.08
537.576	27.13
538.004	27.18
538.432	27.23
538.86	27.27
539.287	27.3
539.715	27.36
540.143	27.4
540.57	27.45
540.998	27.47
541.425	27.5
541.852	27.53
542.28	27.57
542.707	27.6
543.134	27.63
543.561	27.68
543.988	27.71
544.415	27.72
544.842	27.74
545.269	27.76
545.696	27.8
546.123	27.83
546.549	27.85
546.976	27.88
547.403	27.89
547.829	27.9
548.256	27.9
548.682	27.92
549.108	27.94
549.535	27.97
549.961	27.98
550.387	27.97
550.813	27.97
551.24	27.97
551.666	27.94
552.092	27.94
552.518	27.92
552.943	27.9
553.369	27.88
553.795	27.84
554.221	27.79
554.646	27.73
555.072	27.69
555.498	27.62
555.923	27.56
556.349	27.5
556.774	27.42
557.199	27.34
557.625	27.25
558.05	27.15
558.475	27.07
558.9	26.98
559.325	26.89
559.75	26.79
560.175	26.68
560.6	26.55
561.025	26.44
561.449	26.31
561.874	26.17
562.299	26.03
562.723	25.89
563.148	25.72
563.572	25.56
563.997	25.41
564.421	25.22
564.846	25.07
565.27	24.92
565.694	24.74
566.118	24.58
566.542	24.42
566.966	24.24
567.39	24.08
567.814	23.9
568.238	23.73
568.662	23.55
569.086	23.39
569.509	23.22
569.933	23.06
570.357	22.89
570.78	22.71
571.204	22.55
571.627	22.41
572.05	22.26
572.474	22.1
572.897	21.96
573.32	21.81
573.743	21.64
574.166	21.5
574.589	21.34
575.012	21.2
575.435	21.06
575.858	20.91
576.281	20.76
576.704	20.61
577.126	20.49
577.549	20.36
577.972	20.24
578.394	20.13
578.817	20.01
579.239	19.91
579.661	19.81
580.084	19.7
580.506	19.6
580.928	19.51
581.35	19.41
581.772	19.31
582.194	19.22
582.616	19.12
583.038	19.03
583.46	18.92
583.882	18.82
584.303	18.73
584.725	18.65
585.147	18.57
585.568	18.47
585.99	18.4
586.411	18.32
586.833	18.22
587.254	18.14
587.675	18.06
588.096	18
588.518	17.94
588.939	17.88
589.36	17.8
589.781	17.75
590.202	17.7
590.623	17.65
591.043	17.6
591.464	17.56
591.885	17.51
592.305	17.47
592.726	17.44
593.147	17.39
593.567	17.35
593.987	17.31
594.408	17.26
594.828	17.21
595.248	17.16
595.669	17.13
596.089	17.09
596.509	17.06
596.929	17.01
597.349	16.95
597.769	16.92
598.189	16.87
598.608	16.84
599.028	16.81
599.448	16.76
599.867	16.72
600.287	16.67
600.706	16.61
601.126	16.56
601.545	16.52
601.965	16.49
602.384	16.44
602.803	16.38
603.222	16.32
603.641	16.25
604.061	16.2
604.48	16.13
604.898	16.05
605.317	15.99
605.736	15.91
606.155	15.84
606.574	15.75
606.992	15.65
607.411	15.58
607.829	15.47
608.248	15.37
608.666	15.27
609.085	15.19
609.503	15.11
609.921	15.02
610.339	14.93
610.758	14.83
611.176	14.73
611.594	14.67
612.012	14.56
612.43	14.5
612.847	14.41
613.265	14.33
613.683	14.24
614.101	14.16
614.518	14.06
614.936	13.99
615.353	13.9
615.771	13.83
616.188	13.74
616.606	13.68
617.023	13.6
617.44	13.55
617.857	13.47
618.274	13.4
618.691	13.33
619.108	13.28
619.525	13.23
619.942	13.18
620.359	13.14
620.776	13.08
621.192	13.05
621.609	13.03
622.026	12.99
622.442	12.97
622.859	12.95
623.275	12.93
623.691	12.91
624.108	12.88
624.524	12.85
624.94	12.83
625.356	12.83
625.772	12.81
626.188	12.79
626.604	12.79
627.02	12.77
627.436	12.76
627.852	12.74
628.268	12.71
628.683	12.7
629.099	12.68
629.514	12.67
629.93	12.64
630.345	12.61
630.761	12.56
631.176	12.51
631.591	12.47
632.007	12.41
632.422	12.35
632.837	12.3
633.252	12.22
633.667	12.15
634.082	12.06
634.497	11.98
634.911	11.89
635.326	11.81
635.741	11.71
636.155	11.6
636.57	11.5
636.984	11.4
637.399	11.28
637.813	11.17
638.228	11.03
638.642	10.9
639.056	10.75
639.47	10.62
639.884	10.48
640.298	10.34
640.712	10.2
641.126	10.06
641.54	9.91
641.954	9.77
642.368	9.64
642.781	9.53
643.195	9.41
643.609	9.29
644.022	9.17
644.436	9.05
644.849	8.93
645.262	8.83
645.676	8.73
646.089	8.65
646.502	8.55
646.915	8.47
647.328	8.39
647.741	8.31
648.154	8.25
648.567	8.19
648.98	8.14
649.393	8.1
649.805	8.05
650.218	8
650.631	7.95
651.043	7.91
651.456	7.86
651.868	7.83
652.28	7.79
652.693	7.76
653.105	7.72
653.517	7.67
653.929	7.62
654.341	7.56
654.753	7.51
655.165	7.45
655.577	7.39
655.989	7.32
656.401	7.25
656.813	7.18
657.224	7.1
657.636	7.01
658.047	6.94
658.459	6.85
658.87	6.78
659.282	6.7
659.693	6.61
660.104	6.51
660.515	6.44
660.926	6.36
661.338	6.28
661.749	6.2
662.159	6.13
662.57	6.06
662.981	6
663.392	5.94
663.803	5.88
664.213	5.83
664.624	5.78
665.035	5.73
665.445	5.69
665.855	5.65
666.266	5.62
666.676	5.6
667.086	5.56
667.497	5.54
667.907	5.51
668.317	5.5
668.727	5.48
669.137	5.48
669.547	5.47
669.956	5.46
670.366	5.47
670.776	5.46
671.186	5.45
671.595	5.45
672.005	5.45
672.414	5.47
672.824	5.47
673.233	5.49
673.642	5.51
674.052	5.52
674.461	5.54
674.87	5.57
675.279	5.6
675.688	5.64
676.097	5.67
676.506	5.71
676.915	5.74
677.323	5.78
677.732	5.81
678.141	5.85
678.549	5.9
678.958	5.94
679.366	6
679.775	6.04
680.183	6.11
680.592	6.19
681	6.26
681.408	6.35
681.816	6.45
682.224	6.57
682.632	6.67
683.04	6.8
683.448	6.94
683.856	7.09
684.264	7.27
684.671	7.45
685.079	7.65
685.487	7.88
685.894	8.15
686.302	8.43
686.709	8.73
687.116	9.09
687.524	9.46
687.931	9.86
688.338	10.29
688.745	10.75
689.152	11.24
689.559	11.77
689.966	12.31
690.373	12.86
690.78	13.44
691.187	14.02
691.593	14.63
692	15.25
692.407	15.87
692.813	16.52
693.22	17.16
693.626	17.8
694.032	18.47
694.439	19.13
694.845	19.82
695.251	20.48
695.657	21.15
696.063	21.83
696.469	22.52
696.875	23.22
697.281	23.88
697.687	24.55
698.093	25.22
698.498	25.87
698.904	26.52
699.31	27.14
699.715	27.76
700.12	28.39
700.526	29
700.931	29.57
701.337	30.14
701.742	30.7
702.147	31.26
702.552	31.82
702.957	32.34
703.362	32.84
703.767	33.35
704.172	33.84
704.577	34.32
704.981	34.81
705.386	35.29
705.791	35.76
706.195	36.23
706.6	36.69
707.004	37.1
707.408	37.56
707.813	38
708.217	38.42
708.621	38.84
709.025	39.24
709.43	39.61
709.834	40
710.237	40.37
710.641	40.74
711.045	41.11
711.449	41.5
711.853	41.87
712.256	42.19
712.66	42.54
713.064	42.89
713.467	43.24
713.87	43.56
714.274	43.88
714.677	44.2
715.08	44.5
715.484	44.79
715.887	45.09
716.29	45.36
716.693	45.66
717.096	45.95
717.499	46.24
717.901	46.51
718.304	46.81
718.707	47.09
719.109	47.34
719.512	47.59
719.915	47.85
720.317	48.07
720.719	48.29
721.122	48.53
721.524	48.73
721.926	48.93
722.328	49.15
722.731	49.31
723.133	49.51
723.535	49.69
723.937	49.88
724.338	50.04
724.74	50.23
725.142	50.51
725.544	50.64
725.945	50.83
726.347	50.95
726.748	51.07
727.15	51.21
727.551	51.36
727.952	51.48
728.354	51.63
728.755	51.75
729.156	51.85
729.557	51.86
729.958	51.97
730.359	52.06
730.76	52.2
731.161	52.31
731.562	52.43
731.962	52.49
732.363	52.59
732.763	52.68
733.164	52.76
733.564	52.85
733.965	52.93
734.365	53.03
734.766	53.11
735.166	53.16
735.566	53.22
735.966	53.31
736.366	53.38
736.766	53.42
737.166	53.47
737.566	53.53
737.966	53.6
738.365	53.66
738.765	53.7
739.165	53.74
739.564	53.82
739.964	53.83
740.363	53.86
740.763	53.89
741.162	53.95
741.561	53.96
741.96	53.96
742.36	53.98
742.759	54.02
743.158	54.03
743.557	54.04
743.955	54.05
744.354	54.12
744.753	54.13
745.152	54.18
745.55	54.2
745.949	54.27
746.348	54.32
746.746	54.34
747.144	54.36
747.543	54.4
747.941	54.41
748.339	54.39
748.737	54.38
749.136	54.4
749.534	54.37
749.932	54.37
750.33	54.36
750.727	54.39
751.125	54.4
751.523	54.37
751.921	54.37
752.318	54.4
752.716	54.44
753.113	54.46
753.511	54.47
753.908	54.49
754.305	54.49
754.703	54.47
755.1	54.47
755.497	54.46
755.894	54.48
756.291	54.47
756.688	54.44
757.085	54.43
757.482	54.43
757.878	54.41
758.275	54.4
758.672	54.39
759.068	54.41
759.465	54.4
759.861	54.41
760.258	54.4
760.654	54.41
761.05	54.42
761.447	54.44
761.843	54.43
762.239	54.45
762.635	54.45
763.031	54.46
763.427	54.48
763.822	54.48
764.218	54.48
764.614	54.49
765.01	54.5
765.405	54.51
765.801	54.48
766.196	54.49
766.592	54.47
766.987	54.48
767.382	54.47
767.778	54.44
768.173	54.46
768.568	54.46
768.963	54.45
769.358	54.46
769.753	54.45
770.148	54.48
770.542	54.49
770.937	54.48
771.332	54.48
771.726	54.49
772.121	54.5
772.515	54.47
772.91	54.46
773.304	54.47
773.699	54.45
774.093	54.44
774.487	54.42
774.881	54.43
775.275	54.41
775.669	54.41
776.063	54.39
776.457	54.38
776.851	54.38
777.245	54.37
777.638	54.35
778.032	54.36
778.425	54.39
778.819	54.38
779.212	54.37
779.606	54.4
779.999	54.39
780.392	54.42
780.786	54.41
