Data from N_2_DEC_CT_2N_Splice17_13-31-20-964.txt Node
Date: Sat Mar 07 13:31:20 EST 2020
User: sa697716
Spectrometer: NQ5500242
Trigger mode: 0
Integration Time (sec): 1.450000E-1
Scans to average: 20
Nonlinearity correction enabled: false
Boxcar width: 5
Storing dark spectrum: false
XAxis mode: Wavelengths
Number of Pixels in Spectrum: 512
>>>>>Begin Spectral Data<<<<<
187.83	191.55
188.298	215.41
188.766	176.46
189.233	153.1
189.701	161.11
190.169	176.35
190.636	200.51
191.104	273.78
191.571	240.85
192.039	115.53
192.506	430.1
192.974	44.97
193.441	257.42
193.908	90.4
194.375	121.46
194.842	71.87
195.31	89.34
195.777	129.35
196.244	58.77
196.711	53.72
197.177	54.5
197.644	53.44
198.111	52.89
198.578	52.02
199.045	52.44
199.511	51.76
199.978	51.89
200.445	51.94
200.911	51.89
201.378	51.69
201.844	51.42
202.31	50.7
202.777	50.37
203.243	50.4
203.709	50.13
204.176	49.24
204.642	48.93
205.108	48.61
205.574	48.05
206.04	47.74
206.506	47.32
206.972	47.03
207.438	46.79
207.903	46.43
208.369	45.27
208.835	44.28
209.301	43.56
209.766	42.2
210.232	41.02
210.697	39.81
211.163	38.79
211.628	37.82
212.094	36.63
212.559	35.89
213.024	34.99
213.49	34.33
213.955	33.69
214.42	32.84
214.885	32.21
215.35	31.11
215.815	30.03
216.28	28.22
216.745	26.27
217.21	24.4
217.675	22.58
218.14	21.12
218.604	19.79
219.069	18.73
219.534	17.83
219.998	17.04
220.463	16.43
220.927	15.79
221.392	15.3
221.856	14.94
222.32	14.65
222.785	14.37
223.249	14.1
223.713	13.89
224.177	13.71
224.642	13.52
225.106	13.33
225.57	13.13
226.034	12.99
226.497	12.86
226.961	12.71
227.425	12.58
227.889	12.46
228.353	12.31
228.816	12.18
229.28	12
229.744	11.88
230.207	11.76
230.671	11.64
231.134	11.52
231.597	11.41
232.061	11.28
232.524	11.16
232.987	11.05
233.45	10.96
233.914	10.86
234.377	10.76
234.84	10.67
235.303	10.6
235.766	10.53
236.229	10.45
236.691	10.38
237.154	10.31
237.617	10.25
238.08	10.16
238.542	10.07
239.005	10.01
239.468	9.93
239.93	9.86
240.393	9.78
240.855	9.69
241.317	9.61
241.78	9.55
242.242	9.47
242.704	9.41
243.166	9.35
243.629	9.3
244.091	9.23
244.553	9.17
245.015	9.1
245.477	9.04
245.939	8.98
246.4	8.93
246.862	8.87
247.324	8.82
247.786	8.75
248.247	8.69
248.709	8.62
249.17	8.57
249.632	8.52
250.093	8.48
250.555	8.44
251.016	8.4
251.477	8.35
251.939	8.32
252.4	8.28
252.861	8.24
253.322	8.22
253.783	8.19
254.244	8.16
254.705	8.13
255.166	8.09
255.627	8.06
256.088	8.02
256.549	7.99
257.009	7.96
257.47	7.92
257.931	7.88
258.391	7.83
258.852	7.8
259.312	7.76
259.773	7.73
260.233	7.71
260.694	7.68
261.154	7.66
261.614	7.63
262.074	7.6
262.534	7.58
262.994	7.57
263.455	7.55
263.915	7.54
264.374	7.53
264.834	7.52
265.294	7.5
265.754	7.49
266.214	7.49
266.673	7.48
267.133	7.48
267.593	7.48
268.052	7.48
268.512	7.48
268.971	7.48
269.431	7.48
269.89	7.47
270.349	7.47
270.809	7.47
271.268	7.46
271.727	7.45
272.186	7.45
272.645	7.44
273.104	7.43
273.563	7.42
274.022	7.41
274.481	7.41
274.94	7.41
275.399	7.39
275.857	7.38
276.316	7.38
276.775	7.38
277.233	7.36
277.692	7.35
278.15	7.34
278.609	7.33
279.067	7.32
279.525	7.31
279.984	7.29
280.442	7.29
280.9	7.27
281.358	7.26
281.816	7.25
282.274	7.24
282.732	7.22
283.19	7.21
283.648	7.19
284.106	7.17
284.564	7.15
285.021	7.14
285.479	7.11
285.937	7.1
286.394	7.08
286.852	7.05
287.309	7.04
287.767	7.03
288.224	7.01
288.682	7
289.139	6.99
289.596	6.97
290.053	6.95
290.511	6.93
290.968	6.92
291.425	6.91
291.882	6.9
292.339	6.89
292.796	6.88
293.252	6.87
293.709	6.86
294.166	6.85
294.623	6.84
295.079	6.83
295.536	6.83
295.992	6.82
296.449	6.8
296.905	6.8
297.362	6.79
297.818	6.77
298.274	6.77
298.731	6.75
299.187	6.73
299.643	6.71
300.099	6.71
300.555	6.7
301.011	6.67
301.467	6.67
301.923	6.65
302.379	6.64
302.835	6.63
303.291	6.61
303.746	6.6
304.202	6.59
304.658	6.58
305.113	6.57
305.569	6.55
306.024	6.54
306.479	6.53
306.935	6.51
307.39	6.5
307.845	6.49
308.301	6.49
308.756	6.48
309.211	6.47
309.666	6.46
310.121	6.45
310.576	6.44
311.031	6.43
311.486	6.42
311.94	6.41
312.395	6.4
312.85	6.38
313.305	6.38
313.759	6.37
314.214	6.36
314.668	6.34
315.123	6.33
315.577	6.32
316.032	6.3
316.486	6.3
316.94	6.28
317.394	6.27
317.849	6.26
318.303	6.24
318.757	6.21
319.211	6.19
319.665	6.18
320.119	6.15
320.572	6.13
321.026	6.12
321.48	6.1
321.934	6.08
322.387	6.07
322.841	6.06
323.295	6.05
323.748	6.04
324.202	6.03
324.655	6.02
325.108	6.01
325.562	6.01
326.015	6
326.468	6
326.921	6
327.374	5.98
327.827	5.98
328.28	5.97
328.733	5.96
329.186	5.96
329.639	5.95
330.092	5.95
330.545	5.94
330.997	5.92
331.45	5.91
331.903	5.9
332.355	5.91
332.808	5.89
333.26	5.88
333.713	5.87
334.165	5.85
334.617	5.86
335.069	5.83
335.522	5.84
335.974	5.85
336.426	5.83
336.878	5.81
337.33	5.8
337.782	5.8
338.234	5.8
338.686	5.8
339.137	5.8
339.589	5.79
340.041	5.78
340.493	5.77
340.944	5.76
341.396	5.75
341.847	5.74
342.299	5.72
342.75	5.71
343.201	5.68
343.653	5.66
344.104	5.64
344.555	5.62
345.006	5.61
345.457	5.6
345.908	5.59
346.359	5.58
346.81	5.57
347.261	5.56
347.712	5.56
348.163	5.56
348.613	5.55
349.064	5.56
349.515	5.56
349.965	5.54
350.416	5.53
350.866	5.53
351.317	5.51
351.767	5.52
352.217	5.51
352.668	5.5
353.118	5.49
353.568	5.48
354.018	5.47
354.468	5.48
354.918	5.48
355.368	5.48
355.818	5.48
356.268	5.48
356.718	5.47
357.168	5.46
357.617	5.46
358.067	5.45
358.517	5.46
358.966	5.46
359.416	5.46
359.865	5.45
360.315	5.45
360.764	5.45
361.213	5.44
361.663	5.44
362.112	5.44
362.561	5.45
363.01	5.45
363.459	5.44
363.908	5.43
364.357	5.42
364.806	5.41
365.255	5.41
365.703	5.41
366.152	5.41
366.601	5.42
367.05	5.41
367.498	5.39
367.947	5.38
368.395	5.38
368.844	5.38
369.292	5.37
369.74	5.37
370.189	5.35
370.637	5.34
371.085	5.33
371.533	5.32
371.981	5.32
372.429	5.32
372.877	5.31
373.325	5.31
373.773	5.31
374.221	5.29
374.669	5.29
375.116	5.28
375.564	5.28
376.012	5.29
376.459	5.27
376.907	5.26
377.354	5.25
377.801	5.25
378.249	5.24
378.696	5.24
379.143	5.23
379.591	5.23
380.038	5.23
380.485	5.23
380.932	5.22
381.379	5.23
381.826	5.24
382.273	5.24
382.72	5.24
383.166	5.24
383.613	5.25
384.06	5.25
384.506	5.26
384.953	5.27
385.4	5.28
385.846	5.3
386.292	5.32
386.739	5.35
387.185	5.37
387.631	5.4
388.078	5.43
388.524	5.45
388.97	5.47
389.416	5.51
389.862	5.56
390.308	5.62
390.754	5.68
391.2	5.74
391.645	5.78
392.091	5.83
392.537	5.89
392.983	5.96
393.428	6.06
393.874	6.17
394.319	6.29
394.765	6.4
395.21	6.53
395.655	6.65
396.101	6.81
396.546	6.98
396.991	7.17
397.436	7.36
397.881	7.57
398.326	7.77
398.771	7.95
399.216	8.12
399.661	8.3
400.106	8.44
400.551	8.56
400.995	8.66
401.44	8.76
401.885	8.86
402.329	8.97
402.774	9.08
403.218	9.21
403.663	9.35
404.107	9.49
404.551	9.64
404.995	9.78
405.44	9.92
405.884	10.06
406.328	10.23
406.772	10.41
407.216	10.59
407.66	10.75
408.104	10.91
408.547	11.04
408.991	11.17
409.435	11.3
409.879	11.47
410.322	11.66
410.766	11.85
411.209	12.04
411.653	12.2
412.096	12.35
412.54	12.49
412.983	12.62
413.426	12.8
413.869	12.96
414.312	13.12
414.756	13.27
415.199	13.37
415.642	13.5
416.085	13.58
416.527	13.64
416.97	13.66
417.413	13.69
417.856	13.69
418.298	13.7
418.741	13.71
419.184	13.74
419.626	13.78
420.069	13.85
420.511	13.92
420.953	13.98
421.396	14.1
421.838	14.21
422.28	14.34
422.722	14.49
423.164	14.61
423.606	14.72
424.048	14.8
424.49	14.84
424.932	14.78
425.374	14.63
425.816	14.43
426.258	14.22
426.699	14.09
427.141	14.1
427.582	14.18
428.024	14.32
428.465	14.49
428.907	14.59
429.348	14.69
429.789	14.89
430.231	15.23
430.672	15.67
431.113	16.14
431.554	16.58
431.995	16.91
432.436	17.15
432.877	17.34
433.318	17.5
433.759	17.7
434.2	17.94
434.64	18.2
435.081	18.42
435.522	18.63
435.962	18.81
436.403	18.96
436.843	19.09
437.284	19.22
437.724	19.39
438.164	19.58
438.604	19.83
439.045	20.08
439.485	20.32
439.925	20.53
440.365	20.7
440.805	20.83
441.245	20.95
441.685	21.1
442.125	21.25
442.564	21.41
443.004	21.59
443.444	21.79
443.883	21.99
444.323	22.18
444.762	22.37
445.202	22.59
445.641	22.9
446.081	23.24
446.52	23.55
446.959	23.86
447.398	24.09
447.837	24.26
448.276	24.34
448.716	24.39
449.154	24.47
449.593	24.55
450.032	24.58
450.471	24.54
450.91	24.47
451.349	24.41
451.787	24.38
452.226	24.35
452.664	24.37
453.103	24.38
453.541	24.4
453.98	24.37
454.418	24.31
454.856	24.26
455.295	24.21
455.733	24.17
456.171	24.15
456.609	24.14
457.047	24.13
457.485	24.15
457.923	24.2
458.361	24.26
458.798	24.37
459.236	24.45
459.674	24.54
460.111	24.64
460.549	24.75
460.987	24.86
461.424	24.96
461.862	25.06
462.299	25.15
462.736	25.23
463.173	25.35
463.611	25.49
464.048	25.67
464.485	25.88
464.922	26.09
465.359	26.31
465.796	26.5
466.233	26.69
466.67	26.91
467.106	27.18
467.543	27.48
467.98	27.75
468.416	27.99
468.853	28.23
469.29	28.42
469.726	28.63
470.162	28.84
470.599	29.07
471.035	29.28
471.471	29.41
471.907	29.48
472.344	29.52
472.78	29.57
473.216	29.63
473.652	29.69
474.088	29.74
474.523	29.79
474.959	29.83
475.395	29.82
475.831	29.81
476.266	29.83
476.702	29.86
477.138	29.87
477.573	29.86
478.008	29.82
478.444	29.72
478.879	29.62
479.314	29.47
479.75	29.29
480.185	29.08
480.62	28.84
481.055	28.47
481.49	28.01
481.925	27.51
482.36	27.03
482.795	26.64
483.229	26.34
483.664	26.11
484.099	25.9
484.534	25.73
484.968	25.61
485.403	25.58
485.837	25.69
486.271	25.88
486.706	26.09
487.14	26.24
487.574	26.32
488.009	26.36
488.443	26.38
488.877	26.43
489.311	26.48
489.745	26.55
490.179	26.62
490.613	26.67
491.046	26.72
491.48	26.8
491.914	26.94
492.348	27.12
492.781	27.3
493.215	27.45
493.648	27.57
494.082	27.68
494.515	27.76
494.948	27.82
495.382	27.88
495.815	27.94
496.248	27.98
496.681	28
497.114	28
497.547	28
497.98	28.06
498.413	28.17
498.846	28.29
499.279	28.42
499.711	28.53
500.144	28.7
500.577	28.89
501.009	29.13
501.442	29.44
501.874	29.76
502.306	30.08
502.739	30.37
503.171	30.61
503.603	30.83
504.036	31.09
504.468	31.38
504.9	31.64
505.332	31.91
505.764	32.14
506.196	32.36
506.627	32.6
507.059	32.86
507.491	33.12
507.923	33.41
508.354	33.71
508.786	33.95
509.217	34.17
509.649	34.37
510.08	34.58
510.512	34.81
510.943	35.04
511.374	35.24
511.805	35.36
512.237	35.38
512.668	35.39
513.099	35.38
513.53	35.44
513.961	35.53
514.391	35.68
514.822	35.87
515.253	36.08
515.684	36.32
516.114	36.6
516.545	36.97
516.975	37.46
517.406	37.99
517.836	38.53
518.267	39
518.697	39.46
519.127	39.91
519.558	40.36
519.988	40.78
520.418	41.17
520.848	41.52
521.278	41.8
521.708	42.03
522.138	42.14
522.567	42.19
522.997	42.3
523.427	42.45
523.857	42.61
524.286	42.78
524.716	42.93
525.145	43.09
525.575	43.24
526.004	43.45
526.433	43.71
526.863	44.09
527.292	44.46
527.721	44.74
528.15	44.91
528.579	44.99
529.008	45.01
529.437	45.03
529.866	45.03
530.295	45.07
530.724	45.12
531.152	45.16
531.581	45.18
532.01	45.19
532.438	45.23
532.867	45.32
533.295	45.42
533.723	45.53
534.152	45.6
534.58	45.67
535.008	45.64
535.436	45.54
535.865	45.39
536.293	45.25
536.721	45.19
537.149	45.17
537.576	45.18
538.004	45.22
538.432	45.23
538.86	45.28
539.287	45.32
539.715	45.47
540.143	45.65
540.57	45.86
540.998	46.1
541.425	46.31
541.852	46.49
542.28	46.66
542.707	46.78
543.134	46.93
543.561	47.04
543.988	47.17
544.415	47.28
544.842	47.4
545.269	47.55
545.696	47.67
546.123	47.78
546.549	47.91
546.976	48.03
547.403	48.17
547.829	48.32
548.256	48.47
548.682	48.59
549.108	48.71
549.535	48.81
549.961	48.9
550.387	49.01
550.813	49.1
551.24	49.19
551.666	49.25
552.092	49.26
552.518	49.25
552.943	49.23
553.369	49.2
553.795	49.13
554.221	49.03
554.646	48.87
555.072	48.7
555.498	48.51
555.923	48.34
556.349	48.21
556.774	48.1
557.199	47.99
557.625	47.87
558.05	47.78
558.475	47.7
558.9	47.62
559.325	47.56
559.75	47.5
560.175	47.43
560.6	47.29
561.025	47.11
561.449	46.89
561.874	46.67
562.299	46.48
562.723	46.27
563.148	46.05
563.572	45.8
563.997	45.56
564.421	45.29
564.846	45.02
565.27	44.78
565.694	44.55
566.118	44.3
566.542	44.05
566.966	43.78
567.39	43.52
567.814	43.32
568.238	43.13
568.662	42.99
569.086	42.85
569.509	42.72
569.933	42.62
570.357	42.49
570.78	42.39
571.204	42.3
571.627	42.23
572.05	42.13
572.474	42.03
572.897	41.92
573.32	41.78
573.743	41.63
574.166	41.48
574.589	41.32
575.012	41.22
575.435	41.16
575.858	41.1
576.281	41.06
576.704	41.02
577.126	40.98
577.549	40.97
577.972	40.98
578.394	41.03
578.817	41.11
579.239	41.2
579.661	41.27
580.084	41.31
580.506	41.36
580.928	41.34
581.35	41.34
581.772	41.3
582.194	41.26
582.616	41.24
583.038	41.21
583.46	41.13
583.882	41.01
584.303	40.82
584.725	40.61
585.147	40.36
585.568	40.18
585.99	40.05
586.411	39.96
586.833	39.88
587.254	39.79
587.675	39.71
588.096	39.67
588.518	39.67
588.939	39.75
589.36	39.86
589.781	40.01
590.202	40.13
590.623	40.19
591.043	40.2
591.464	40.23
591.885	40.26
592.305	40.26
592.726	40.28
593.147	40.26
593.567	40.23
593.987	40.2
594.408	40.15
594.828	40.14
595.248	40.12
595.669	40.11
596.089	40.04
596.509	39.97
596.929	39.89
597.349	39.79
597.769	39.69
598.189	39.61
598.608	39.57
599.028	39.55
599.448	39.5
599.867	39.46
600.287	39.44
600.706	39.43
601.126	39.43
601.545	39.42
601.965	39.42
602.384	39.42
602.803	39.41
603.222	39.35
603.641	39.29
604.061	39.22
604.48	39.12
604.898	39
605.317	38.89
605.736	38.77
606.155	38.66
606.574	38.55
606.992	38.42
607.411	38.3
607.829	38.18
608.248	38.05
608.666	37.93
609.085	37.82
609.503	37.69
609.921	37.56
610.339	37.44
610.758	37.32
611.176	37.18
611.594	37.03
612.012	36.88
612.43	36.7
612.847	36.56
613.265	36.43
613.683	36.33
614.101	36.26
614.518	36.17
614.936	36.1
615.353	36
615.771	35.96
616.188	35.92
616.606	35.92
617.023	35.92
617.44	35.91
617.857	35.85
618.274	35.77
618.691	35.67
619.108	35.56
619.525	35.44
619.942	35.33
620.359	35.18
620.776	35.03
621.192	34.87
621.609	34.72
622.026	34.58
622.442	34.49
622.859	34.38
623.275	34.27
623.691	34.18
624.108	34.08
624.524	33.98
624.94	33.92
625.356	33.84
625.772	33.77
626.188	33.73
626.604	33.66
627.02	33.57
627.436	33.51
627.852	33.47
628.268	33.45
628.683	33.42
629.099	33.41
629.514	33.4
629.93	33.39
630.345	33.39
630.761	33.36
631.176	33.34
631.591	33.32
632.007	33.3
632.422	33.28
632.837	33.25
633.252	33.22
633.667	33.19
634.082	33.15
634.497	33.12
634.911	33.07
635.326	33
635.741	32.91
636.155	32.83
636.57	32.73
636.984	32.6
637.399	32.46
637.813	32.34
638.228	32.21
638.642	32.05
639.056	31.87
639.47	31.72
639.884	31.57
640.298	31.44
640.712	31.3
641.126	31.15
641.54	30.99
641.954	30.85
642.368	30.67
642.781	30.5
643.195	30.33
643.609	30.19
644.022	30.03
644.436	29.86
644.849	29.69
645.262	29.49
645.676	29.3
646.089	29.18
646.502	29.06
646.915	28.99
647.328	28.89
647.741	28.8
648.154	28.72
648.567	28.64
648.98	28.58
649.393	28.53
649.805	28.51
650.218	28.49
650.631	28.39
651.043	28.24
651.456	28
651.868	27.7
652.28	27.38
652.693	27.1
653.105	26.87
653.517	26.67
653.929	26.52
654.341	26.38
654.753	26.27
655.165	26.21
655.577	26.18
655.989	26.24
656.401	26.36
656.813	26.52
657.224	26.61
657.636	26.66
658.047	26.67
658.459	26.62
658.87	26.55
659.282	26.43
659.693	26.3
660.104	26.17
660.515	26.02
660.926	25.87
661.338	25.72
661.749	25.57
662.159	25.4
662.57	25.24
662.981	25.08
663.392	24.93
663.803	24.8
664.213	24.65
664.624	24.51
665.035	24.4
665.445	24.27
665.855	24.12
666.266	24.01
666.676	23.89
667.086	23.74
667.497	23.61
667.907	23.49
668.317	23.36
668.727	23.25
669.137	23.14
669.547	23.03
669.956	22.92
670.366	22.83
670.776	22.74
671.186	22.64
671.595	22.58
672.005	22.51
672.414	22.46
672.824	22.42
673.233	22.37
673.642	22.34
674.052	22.3
674.461	22.26
674.87	22.23
675.279	22.22
675.688	22.21
676.097	22.2
676.506	22.21
676.915	22.21
677.323	22.22
677.732	22.25
678.141	22.28
678.549	22.3
678.958	22.36
679.366	22.42
679.775	22.46
680.183	22.54
680.592	22.64
681	22.74
681.408	22.85
681.816	22.93
682.224	22.95
682.632	22.9
683.04	22.8
683.448	22.72
683.856	22.66
684.264	22.66
684.671	22.67
685.079	22.69
685.487	22.76
685.894	22.87
686.302	23.06
686.709	23.35
687.116	23.78
687.524	24.32
687.931	24.87
688.338	25.46
688.745	26.02
689.152	26.59
689.559	27.2
689.966	27.78
690.373	28.33
690.78	28.86
691.187	29.4
691.593	29.92
692	30.43
692.407	30.93
692.813	31.43
693.22	31.9
693.626	32.37
694.032	32.8
694.439	33.23
694.845	33.66
695.251	34.07
695.657	34.44
696.063	34.81
696.469	35.11
696.875	35.43
697.281	35.74
697.687	36.02
698.093	36.29
698.498	36.55
698.904	36.84
699.31	37.12
699.715	37.42
700.12	37.74
700.526	38.04
700.931	38.36
701.337	38.66
701.742	38.92
702.147	39.22
702.552	39.54
702.957	39.8
703.362	40.08
703.767	40.32
704.172	40.54
704.577	40.76
704.981	40.95
705.386	41.16
705.791	41.36
706.195	41.58
706.6	41.77
707.004	41.94
707.408	42.13
707.813	42.28
708.217	42.44
708.621	42.59
709.025	42.73
709.43	42.87
709.834	43.02
710.237	43.12
710.641	43.21
711.045	43.3
711.449	43.37
711.853	43.48
712.256	43.5
712.66	43.49
713.064	43.42
713.467	43.31
713.87	43.16
714.274	42.94
714.677	42.72
715.08	42.49
715.484	42.26
715.887	42.07
716.29	41.87
716.693	41.79
717.096	41.8
717.499	41.93
717.901	42.1
718.304	42.31
718.707	42.55
719.109	42.82
719.512	43.04
719.915	43.22
720.317	43.35
720.719	43.48
721.122	43.57
721.524	43.61
721.926	43.63
722.328	43.6
722.731	43.56
723.133	43.57
723.535	43.54
723.937	43.56
724.338	43.62
724.74	43.67
725.142	43.83
725.544	43.87
725.945	43.96
726.347	43.96
726.748	44
727.15	44.05
727.551	44.1
727.952	44.18
728.354	44.31
728.755	44.42
729.156	44.57
729.557	44.6
729.958	44.76
730.359	44.86
730.76	45.02
731.161	45.12
731.562	45.23
731.962	45.3
732.363	45.37
732.763	45.41
733.164	45.43
733.564	45.43
733.965	45.43
734.365	45.41
734.766	45.36
735.166	45.32
735.566	45.32
735.966	45.3
736.366	45.29
736.766	45.25
737.166	45.22
737.566	45.18
737.966	45.16
738.365	45.13
738.765	45.15
739.165	45.18
739.564	45.18
739.964	45.17
740.363	45.14
740.763	45.13
741.162	45.15
741.561	45.17
741.96	45.17
742.36	45.18
742.759	45.19
743.158	45.17
743.557	45.14
743.955	45.13
744.354	45.13
744.753	45.14
745.152	45.13
745.55	45.1
745.949	45.04
746.348	45.01
746.746	44.95
747.144	44.93
747.543	44.87
747.941	44.85
748.339	44.79
748.737	44.73
749.136	44.69
749.534	44.66
749.932	44.64
750.33	44.63
750.727	44.63
751.125	44.61
751.523	44.57
751.921	44.54
752.318	44.5
752.716	44.46
753.113	44.45
753.511	44.41
753.908	44.39
754.305	44.32
754.703	44.1
755.1	43.67
755.497	42.94
755.894	41.87
756.291	40.62
756.688	39.28
757.085	38.05
757.482	36.89
757.878	35.83
758.275	34.75
758.672	33.67
759.068	32.73
759.465	32.02
759.861	31.7
760.258	31.78
760.654	32.15
761.05	32.67
761.447	33.21
761.843	33.71
762.239	34.24
762.635	34.86
763.031	35.6
763.427	36.43
763.822	37.3
764.218	38.17
764.614	38.99
765.01	39.75
765.405	40.47
765.801	41.08
766.196	41.67
766.592	42.15
766.987	42.56
767.382	42.87
767.778	43.11
768.173	43.3
768.568	43.42
768.963	43.51
769.358	43.62
769.753	43.66
770.148	43.71
770.542	43.71
770.937	43.72
771.332	43.73
771.726	43.73
772.121	43.75
772.515	43.76
