Data from N_2_DEC_CT_2N_Splice17_13-31-44-709.txt Node
Date: Sat Mar 07 13:31:44 EST 2020
User: sa697716
Spectrometer: NQ5500242
Trigger mode: 0
Integration Time (sec): 1.450000E-1
Scans to average: 20
Nonlinearity correction enabled: false
Boxcar width: 5
Storing dark spectrum: false
XAxis mode: Wavelengths
Number of Pixels in Spectrum: 512
>>>>>Begin Spectral Data<<<<<
187.83	193.7
188.298	214.75
188.766	183.92
189.233	159.55
189.701	158.87
190.169	168.17
190.636	186.35
191.104	301.43
191.571	411.66
192.039	232.44
192.506	-22.19
192.974	140.91
193.441	211.26
193.908	72.54
194.375	100.47
194.842	53.28
195.31	53.65
195.777	107.93
196.244	69.29
196.711	67.57
197.177	67.63
197.644	65.64
198.111	65.67
198.578	66.69
199.045	66.73
199.511	66.03
199.978	65.95
200.445	66.09
200.911	66.37
201.378	66.51
201.844	66.5
202.31	66.27
202.777	66.48
203.243	66.41
203.709	65.76
204.176	65.5
204.642	65.54
205.108	65.76
205.574	65.52
206.04	64.72
206.506	64.07
206.972	63.97
207.438	63.61
207.903	63.06
208.369	62.3
208.835	61.64
209.301	60.8
209.766	59.56
210.232	58.39
210.697	57.34
211.163	56.6
211.628	56.09
212.094	55.05
212.559	54.38
213.024	53.59
213.49	52.82
213.955	52.17
214.42	51.51
214.885	50.79
215.35	49.58
215.815	48.05
216.28	46.46
216.745	44.64
217.21	42.8
217.675	41.12
218.14	39.8
218.604	38.61
219.069	37.68
219.534	36.86
219.998	36.24
220.463	35.75
220.927	35.26
221.392	34.78
221.856	34.4
222.32	34.1
222.785	33.8
223.249	33.51
223.713	33.26
224.177	32.98
224.642	32.73
225.106	32.41
225.57	32.13
226.034	31.89
226.497	31.67
226.961	31.44
227.425	31.2
227.889	30.95
228.353	30.7
228.816	30.44
229.28	30.19
229.744	29.94
230.207	29.7
230.671	29.47
231.134	29.22
231.597	28.99
232.061	28.75
232.524	28.55
232.987	28.34
233.45	28.14
233.914	27.93
234.377	27.71
234.84	27.49
235.303	27.31
235.766	27.1
236.229	26.92
236.691	26.74
237.154	26.56
237.617	26.37
238.08	26.18
238.542	25.99
239.005	25.82
239.468	25.63
239.93	25.47
240.393	25.32
240.855	25.14
241.317	24.96
241.78	24.79
242.242	24.62
242.704	24.45
243.166	24.29
243.629	24.13
244.091	23.97
244.553	23.84
245.015	23.69
245.477	23.52
245.939	23.37
246.4	23.23
246.862	23.08
247.324	22.95
247.786	22.81
248.247	22.66
248.709	22.52
249.17	22.37
249.632	22.24
250.093	22.12
250.555	22
251.016	21.88
251.477	21.76
251.939	21.65
252.4	21.54
252.861	21.44
253.322	21.35
253.783	21.26
254.244	21.19
254.705	21.09
255.166	20.99
255.627	20.9
256.088	20.82
256.549	20.75
257.009	20.65
257.47	20.56
257.931	20.47
258.391	20.38
258.852	20.29
259.312	20.2
259.773	20.13
260.233	20.07
260.694	20
261.154	19.93
261.614	19.86
262.074	19.8
262.534	19.74
262.994	19.7
263.455	19.67
263.915	19.63
264.374	19.62
264.834	19.61
265.294	19.58
265.754	19.56
266.214	19.57
266.673	19.57
267.133	19.57
267.593	19.59
268.052	19.59
268.512	19.59
268.971	19.59
269.431	19.58
269.89	19.56
270.349	19.57
270.809	19.57
271.268	19.54
271.727	19.52
272.186	19.51
272.645	19.49
273.104	19.46
273.563	19.43
274.022	19.41
274.481	19.38
274.94	19.37
275.399	19.32
275.857	19.29
276.316	19.28
276.775	19.25
277.233	19.22
277.692	19.18
278.15	19.15
278.609	19.14
279.067	19.11
279.525	19.08
279.984	19.05
280.442	19.02
280.9	19
281.358	18.97
281.816	18.95
282.274	18.91
282.732	18.88
283.19	18.84
283.648	18.79
284.106	18.74
284.564	18.71
285.021	18.69
285.479	18.65
285.937	18.61
286.394	18.57
286.852	18.52
287.309	18.49
287.767	18.45
288.224	18.41
288.682	18.37
289.139	18.33
289.596	18.29
290.053	18.23
290.511	18.18
290.968	18.14
291.425	18.1
291.882	18.07
292.339	18.03
292.796	18
293.252	17.96
293.709	17.94
294.166	17.91
294.623	17.87
295.079	17.84
295.536	17.82
295.992	17.79
296.449	17.75
296.905	17.72
297.362	17.69
297.818	17.66
298.274	17.64
298.731	17.6
299.187	17.57
299.643	17.53
300.099	17.5
300.555	17.47
301.011	17.43
301.467	17.4
301.923	17.34
302.379	17.31
302.835	17.27
303.291	17.22
303.746	17.18
304.202	17.14
304.658	17.1
305.113	17.07
305.569	17.03
306.024	16.99
306.479	16.96
306.935	16.94
307.39	16.91
307.845	16.87
308.301	16.84
308.756	16.83
309.211	16.8
309.666	16.77
310.121	16.73
310.576	16.7
311.031	16.66
311.486	16.63
311.94	16.6
312.395	16.56
312.85	16.54
313.305	16.51
313.759	16.48
314.214	16.45
314.668	16.42
315.123	16.39
315.577	16.35
316.032	16.32
316.486	16.29
316.94	16.25
317.394	16.2
317.849	16.16
318.303	16.12
318.757	16.08
319.211	16.04
319.665	16
320.119	15.97
320.572	15.94
321.026	15.92
321.48	15.88
321.934	15.85
322.387	15.82
322.841	15.79
323.295	15.76
323.748	15.73
324.202	15.69
324.655	15.66
325.108	15.61
325.562	15.58
326.015	15.54
326.468	15.5
326.921	15.48
327.374	15.45
327.827	15.43
328.28	15.4
328.733	15.38
329.186	15.36
329.639	15.33
330.092	15.32
330.545	15.29
330.997	15.26
331.45	15.25
331.903	15.24
332.355	15.24
332.808	15.21
333.26	15.17
333.713	15.14
334.165	15.12
334.617	15.12
335.069	15.1
335.522	15.09
335.974	15.08
336.426	15.06
336.878	15.02
337.33	14.99
337.782	14.97
338.234	14.96
338.686	14.94
339.137	14.92
339.589	14.89
340.041	14.86
340.493	14.83
340.944	14.79
341.396	14.75
341.847	14.73
342.299	14.68
342.75	14.65
343.201	14.61
343.653	14.58
344.104	14.54
344.555	14.5
345.006	14.48
345.457	14.45
345.908	14.43
346.359	14.4
346.81	14.37
347.261	14.35
347.712	14.33
348.163	14.3
348.613	14.29
349.064	14.27
349.515	14.25
349.965	14.22
350.416	14.19
350.866	14.18
351.317	14.15
351.767	14.14
352.217	14.12
352.668	14.11
353.118	14.1
353.568	14.08
354.018	14.08
354.468	14.08
354.918	14.07
355.368	14.07
355.818	14.07
356.268	14.08
356.718	14.07
357.168	14.06
357.617	14.06
358.067	14.04
358.517	14.06
358.966	14.05
359.416	14.04
359.865	14.03
360.315	14.02
360.764	14.01
361.213	13.99
361.663	13.97
362.112	13.97
362.561	13.95
363.01	13.95
363.459	13.92
363.908	13.89
364.357	13.88
364.806	13.86
365.255	13.85
365.703	13.84
366.152	13.84
366.601	13.83
367.05	13.8
367.498	13.79
367.947	13.77
368.395	13.75
368.844	13.74
369.292	13.71
369.74	13.69
370.189	13.67
370.637	13.64
371.085	13.61
371.533	13.58
371.981	13.56
372.429	13.55
372.877	13.55
373.325	13.53
373.773	13.51
374.221	13.49
374.669	13.48
375.116	13.46
375.564	13.45
376.012	13.43
376.459	13.41
376.907	13.41
377.354	13.4
377.801	13.38
378.249	13.37
378.696	13.36
379.143	13.35
379.591	13.32
380.038	13.31
380.485	13.31
380.932	13.31
381.379	13.3
381.826	13.29
382.273	13.27
382.72	13.23
383.166	13.2
383.613	13.19
384.06	13.17
384.506	13.16
384.953	13.15
385.4	13.14
385.846	13.13
386.292	13.13
386.739	13.11
387.185	13.1
387.631	13.11
388.078	13.12
388.524	13.12
388.97	13.12
389.416	13.12
389.862	13.13
390.308	13.14
390.754	13.16
391.2	13.16
391.645	13.18
392.091	13.21
392.537	13.22
392.983	13.22
393.428	13.24
393.874	13.25
394.319	13.26
394.765	13.26
395.21	13.27
395.655	13.28
396.101	13.31
396.546	13.32
396.991	13.34
397.436	13.37
397.881	13.41
398.326	13.45
398.771	13.5
399.216	13.54
399.661	13.58
400.106	13.62
400.551	13.65
400.995	13.66
401.44	13.7
401.885	13.72
402.329	13.75
402.774	13.79
403.218	13.83
403.663	13.85
404.107	13.87
404.551	13.91
404.995	13.94
405.44	13.97
405.884	14.02
406.328	14.07
406.772	14.1
407.216	14.13
407.66	14.15
408.104	14.16
408.547	14.18
408.991	14.22
409.435	14.25
409.879	14.3
410.322	14.34
410.766	14.37
411.209	14.42
411.653	14.47
412.096	14.52
412.54	14.58
412.983	14.62
413.426	14.7
413.869	14.75
414.312	14.81
414.756	14.85
415.199	14.88
415.642	14.92
416.085	14.95
416.527	14.96
416.97	14.98
417.413	14.99
417.856	15.02
418.298	15.02
418.741	15.04
419.184	15.07
419.626	15.09
420.069	15.11
420.511	15.14
420.953	15.16
421.396	15.19
421.838	15.23
422.28	15.26
422.722	15.3
423.164	15.32
423.606	15.34
424.048	15.34
424.49	15.35
424.932	15.35
425.374	15.34
425.816	15.33
426.258	15.32
426.699	15.32
427.141	15.32
427.582	15.33
428.024	15.35
428.465	15.38
428.907	15.38
429.348	15.37
429.789	15.38
430.231	15.42
430.672	15.46
431.113	15.5
431.554	15.52
431.995	15.54
432.436	15.55
432.877	15.55
433.318	15.56
433.759	15.6
434.2	15.63
434.64	15.66
435.081	15.67
435.522	15.7
435.962	15.71
436.403	15.75
436.843	15.77
437.284	15.78
437.724	15.79
438.164	15.79
438.604	15.8
439.045	15.81
439.485	15.83
439.925	15.85
440.365	15.87
440.805	15.89
441.245	15.92
441.685	15.95
442.125	15.99
442.564	16.03
443.004	16.05
443.444	16.11
443.883	16.17
444.323	16.2
444.762	16.24
445.202	16.27
445.641	16.3
446.081	16.34
446.52	16.36
446.959	16.4
447.398	16.45
447.837	16.5
448.276	16.51
448.716	16.54
449.154	16.59
449.593	16.63
450.032	16.66
450.471	16.67
450.91	16.68
451.349	16.71
451.787	16.71
452.226	16.71
452.664	16.72
453.103	16.7
453.541	16.69
453.98	16.7
454.418	16.66
454.856	16.65
455.295	16.62
455.733	16.59
456.171	16.58
456.609	16.57
457.047	16.54
457.485	16.54
457.923	16.54
458.361	16.53
458.798	16.51
459.236	16.51
459.674	16.52
460.111	16.54
460.549	16.56
460.987	16.56
461.424	16.55
461.862	16.56
462.299	16.56
462.736	16.55
463.173	16.54
463.611	16.55
464.048	16.54
464.485	16.53
464.922	16.5
465.359	16.49
465.796	16.5
466.233	16.51
466.67	16.5
467.106	16.49
467.543	16.47
467.98	16.47
468.416	16.44
468.853	16.43
469.29	16.41
469.726	16.4
470.162	16.4
470.599	16.38
471.035	16.36
471.471	16.34
471.907	16.33
472.344	16.33
472.78	16.33
473.216	16.33
473.652	16.35
474.088	16.35
474.523	16.34
474.959	16.34
475.395	16.33
475.831	16.32
476.266	16.32
476.702	16.3
477.138	16.28
477.573	16.26
478.008	16.25
478.444	16.23
478.879	16.23
479.314	16.21
479.75	16.2
480.185	16.17
480.62	16.15
481.055	16.15
481.49	16.15
481.925	16.14
482.36	16.13
482.795	16.13
483.229	16.13
483.664	16.13
484.099	16.13
484.534	16.13
484.968	16.16
485.403	16.17
485.837	16.19
486.271	16.22
486.706	16.25
487.14	16.27
487.574	16.31
488.009	16.34
488.443	16.38
488.877	16.44
489.311	16.49
489.745	16.55
490.179	16.61
490.613	16.67
491.046	16.73
491.48	16.79
491.914	16.86
492.348	16.94
492.781	17.02
493.215	17.1
493.648	17.17
494.082	17.26
494.515	17.35
494.948	17.44
495.382	17.53
495.815	17.63
496.248	17.75
496.681	17.86
497.114	17.96
497.547	18.07
497.98	18.2
498.413	18.34
498.846	18.48
499.279	18.61
499.711	18.74
500.144	18.89
500.577	19.05
501.009	19.19
501.442	19.35
501.874	19.51
502.306	19.67
502.739	19.86
503.171	20.04
503.603	20.19
504.036	20.39
504.468	20.58
504.9	20.77
505.332	20.98
505.764	21.19
506.196	21.4
506.627	21.63
507.059	21.85
507.491	22.05
507.923	22.27
508.354	22.54
508.786	22.78
509.217	23.03
509.649	23.3
510.08	23.54
510.512	23.82
510.943	24.1
511.374	24.37
511.805	24.65
512.237	24.93
512.668	25.21
513.099	25.48
513.53	25.76
513.961	26.05
514.391	26.34
514.822	26.63
515.253	26.9
515.684	27.16
516.114	27.45
516.545	27.72
516.975	27.99
517.406	28.26
517.836	28.52
518.267	28.8
518.697	29.05
519.127	29.28
519.558	29.54
519.988	29.8
520.418	30.04
520.848	30.26
521.278	30.49
521.708	30.8
522.138	31.04
522.567	31.26
522.997	31.46
523.427	31.67
523.857	31.87
524.286	32.03
524.716	32.22
525.145	32.41
525.575	32.61
526.004	32.8
526.433	32.89
526.863	33.06
527.292	33.23
527.721	33.38
528.15	33.53
528.579	33.69
529.008	33.86
529.437	33.98
529.866	34.12
530.295	34.25
530.724	34.35
531.152	34.48
531.581	34.59
532.01	34.7
532.438	34.81
532.867	34.91
533.295	35.01
533.723	35.1
534.152	35.18
534.58	35.27
535.008	35.32
535.436	35.43
535.865	35.49
536.293	35.54
536.721	35.59
537.149	35.64
537.576	35.69
538.004	35.73
538.432	35.77
538.86	35.82
539.287	35.85
539.715	35.91
540.143	35.94
540.57	35.97
540.998	36.01
541.425	36.05
541.852	36.08
542.28	36.13
542.707	36.16
543.134	36.21
543.561	36.26
543.988	36.3
544.415	36.31
544.842	36.33
545.269	36.39
545.696	36.42
546.123	36.46
546.549	36.5
546.976	36.52
547.403	36.56
547.829	36.58
548.256	36.61
548.682	36.64
549.108	36.66
549.535	36.71
549.961	36.72
550.387	36.72
550.813	36.76
551.24	36.78
551.666	36.77
552.092	36.79
552.518	36.79
552.943	36.77
553.369	36.77
553.795	36.77
554.221	36.77
554.646	36.76
555.072	36.75
555.498	36.72
555.923	36.7
556.349	36.69
556.774	36.65
557.199	36.61
557.625	36.58
558.05	36.52
558.475	36.48
558.9	36.41
559.325	36.37
559.75	36.31
560.175	36.26
560.6	36.16
561.025	36.09
561.449	36.01
561.874	35.92
562.299	35.83
562.723	35.75
563.148	35.63
563.572	35.52
563.997	35.4
564.421	35.28
564.846	35.17
565.27	35.08
565.694	34.96
566.118	34.85
566.542	34.75
566.966	34.63
567.39	34.53
567.814	34.41
568.238	34.29
568.662	34.19
569.086	34.08
569.509	33.96
569.933	33.83
570.357	33.72
570.78	33.6
571.204	33.48
571.627	33.36
572.05	33.22
572.474	33.14
572.897	33.02
573.32	32.91
573.743	32.8
574.166	32.7
574.589	32.61
575.012	32.5
575.435	32.42
575.858	32.32
576.281	32.22
576.704	32.14
577.126	32.05
577.549	31.97
577.972	31.9
578.394	31.82
578.817	31.75
579.239	31.67
579.661	31.59
580.084	31.52
580.506	31.46
580.928	31.39
581.35	31.33
581.772	31.26
582.194	31.18
582.616	31.12
583.038	31.05
583.46	30.97
583.882	30.89
584.303	30.83
584.725	30.76
585.147	30.71
585.568	30.67
585.99	30.6
586.411	30.53
586.833	30.48
587.254	30.4
587.675	30.36
588.096	30.3
588.518	30.25
588.939	30.2
589.36	30.15
589.781	30.09
590.202	30.03
590.623	29.98
591.043	29.92
591.464	29.88
591.885	29.83
592.305	29.78
592.726	29.76
593.147	29.71
593.567	29.65
593.987	29.61
594.408	29.55
594.828	29.5
595.248	29.47
595.669	29.45
596.089	29.4
596.509	29.36
596.929	29.32
597.349	29.28
597.769	29.23
598.189	29.2
598.608	29.16
599.028	29.11
599.448	29.08
599.867	29.03
600.287	28.97
600.706	28.93
601.126	28.89
601.545	28.84
601.965	28.8
602.384	28.77
602.803	28.71
603.222	28.66
603.641	28.61
604.061	28.55
604.48	28.49
604.898	28.43
605.317	28.38
605.736	28.31
606.155	28.25
606.574	28.18
606.992	28.11
607.411	28.07
607.829	27.98
608.248	27.9
608.666	27.84
609.085	27.79
609.503	27.74
609.921	27.67
610.339	27.62
610.758	27.56
611.176	27.5
611.594	27.44
612.012	27.36
612.43	27.32
612.847	27.26
613.265	27.2
613.683	27.13
614.101	27.05
614.518	26.97
614.936	26.89
615.353	26.8
615.771	26.73
616.188	26.67
616.606	26.62
617.023	26.56
617.44	26.51
617.857	26.45
618.274	26.41
618.691	26.35
619.108	26.31
619.525	26.28
619.942	26.25
620.359	26.21
620.776	26.18
621.192	26.14
621.609	26.12
622.026	26.09
622.442	26.07
622.859	26.03
623.275	26.02
623.691	26
624.108	25.97
624.524	25.95
624.94	25.94
625.356	25.92
625.772	25.91
626.188	25.89
626.604	25.88
627.02	25.88
627.436	25.87
627.852	25.86
628.268	25.84
628.683	25.83
629.099	25.82
629.514	25.8
629.93	25.78
630.345	25.74
630.761	25.69
631.176	25.64
631.591	25.57
632.007	25.51
632.422	25.45
632.837	25.38
633.252	25.31
633.667	25.21
634.082	25.1
634.497	24.99
634.911	24.88
635.326	24.75
635.741	24.62
636.155	24.48
636.57	24.34
636.984	24.18
637.399	24.01
637.813	23.85
638.228	23.68
638.642	23.5
639.056	23.31
639.47	23.14
639.884	22.95
640.298	22.75
640.712	22.55
641.126	22.35
641.54	22.14
641.954	21.93
642.368	21.74
642.781	21.54
643.195	21.37
643.609	21.18
644.022	20.98
644.436	20.81
644.849	20.65
645.262	20.49
645.676	20.33
646.089	20.22
646.502	20.12
646.915	20
647.328	19.9
647.741	19.8
648.154	19.71
648.567	19.63
648.98	19.55
649.393	19.49
649.805	19.43
650.218	19.39
650.631	19.33
651.043	19.27
651.456	19.22
651.868	19.17
652.28	19.12
652.693	19.09
653.105	19.05
653.517	19.01
653.929	18.95
654.341	18.91
654.753	18.85
655.165	18.78
655.577	18.72
655.989	18.64
656.401	18.55
656.813	18.46
657.224	18.35
657.636	18.25
658.047	18.15
658.459	18.03
658.87	17.91
659.282	17.78
659.693	17.66
660.104	17.52
660.515	17.39
660.926	17.27
661.338	17.14
661.749	17.01
662.159	16.9
662.57	16.77
662.981	16.66
663.392	16.54
663.803	16.44
664.213	16.32
664.624	16.21
665.035	16.11
665.445	16.01
665.855	15.91
666.266	15.83
666.676	15.74
667.086	15.65
667.497	15.57
667.907	15.5
668.317	15.43
668.727	15.37
669.137	15.32
669.547	15.28
669.956	15.23
670.366	15.2
670.776	15.16
671.186	15.13
671.595	15.12
672.005	15.08
672.414	15.06
672.824	15.05
673.233	15.04
673.642	15.04
674.052	15.04
674.461	15.05
674.87	15.05
675.279	15.07
675.688	15.09
676.097	15.12
676.506	15.17
676.915	15.21
677.323	15.26
677.732	15.32
678.141	15.38
678.549	15.44
678.958	15.53
679.366	15.64
679.775	15.75
680.183	15.89
680.592	16.05
681	16.23
681.408	16.44
681.816	16.66
682.224	16.92
682.632	17.2
683.04	17.51
683.448	17.84
683.856	18.18
684.264	18.56
684.671	18.96
685.079	19.39
685.487	19.84
685.894	20.32
686.302	20.83
686.709	21.36
687.116	21.92
687.524	22.5
687.931	23.1
688.338	23.73
688.745	24.37
689.152	25.02
689.559	25.68
689.966	26.35
690.373	27.01
690.78	27.69
691.187	28.35
691.593	29.02
692	29.67
692.407	30.32
692.813	30.97
693.22	31.59
693.626	32.23
694.032	32.85
694.439	33.44
694.845	34.05
695.251	34.64
695.657	35.2
696.063	35.75
696.469	36.3
696.875	36.85
697.281	37.37
697.687	37.88
698.093	38.37
698.498	38.84
698.904	39.31
699.31	39.73
699.715	40.16
700.12	40.58
700.526	41
700.931	41.38
701.337	41.75
701.742	42.12
702.147	42.5
702.552	42.83
702.957	43.15
703.362	43.48
703.767	43.78
704.172	44.08
704.577	44.38
704.981	44.68
705.386	44.99
705.791	45.26
706.195	45.54
706.6	45.8
707.004	46.03
707.408	46.3
707.813	46.55
708.217	46.8
708.621	47.04
709.025	47.24
709.43	47.42
709.834	47.64
710.237	47.82
710.641	48
711.045	48.18
711.449	48.38
711.853	48.57
712.256	48.74
712.66	48.91
713.064	49.1
713.467	49.29
713.87	49.46
714.274	49.59
714.677	49.77
715.08	49.9
715.484	50.04
715.887	50.2
716.29	50.34
716.693	50.48
717.096	50.62
717.499	50.74
717.901	50.85
718.304	50.99
718.707	51.11
719.109	51.24
719.512	51.36
719.915	51.48
720.317	51.57
720.719	51.64
721.122	51.73
721.524	51.81
721.926	51.9
722.328	52.01
722.731	52.07
723.133	52.16
723.535	52.24
723.937	52.31
724.338	52.36
724.74	52.45
725.142	52.62
725.544	52.69
725.945	52.79
726.347	52.86
726.748	52.93
727.15	52.99
727.551	53.07
727.952	53.12
728.354	53.2
728.755	53.26
729.156	53.31
729.557	53.26
729.958	53.29
730.359	53.31
730.76	53.36
731.161	53.38
731.562	53.43
731.962	53.43
732.363	53.47
732.763	53.5
733.164	53.55
733.564	53.6
733.965	53.64
734.365	53.7
734.766	53.74
735.166	53.78
735.566	53.81
735.966	53.85
736.366	53.88
736.766	53.92
737.166	53.94
737.566	53.95
737.966	53.94
738.365	53.97
738.765	53.99
739.165	54
739.564	54.01
739.964	54.01
740.363	54.03
740.763	54.05
741.162	54.06
741.561	54.04
741.96	54.04
742.36	54.08
742.759	54.07
743.158	54.06
743.557	54.07
743.955	54.08
744.354	54.1
744.753	54.11
745.152	54.15
745.55	54.17
745.949	54.2
746.348	54.26
746.746	54.26
747.144	54.29
747.543	54.31
747.941	54.32
748.339	54.3
748.737	54.28
749.136	54.28
749.534	54.24
749.932	54.25
750.33	54.26
750.727	54.26
751.125	54.26
751.523	54.23
751.921	54.25
752.318	54.27
752.716	54.29
753.113	54.32
753.511	54.34
753.908	54.38
754.305	54.39
754.703	54.36
755.1	54.34
755.497	54.35
755.894	54.38
756.291	54.37
756.688	54.34
757.085	54.36
757.482	54.34
757.878	54.33
758.275	54.3
758.672	54.27
759.068	54.32
759.465	54.3
759.861	54.31
760.258	54.31
760.654	54.32
761.05	54.34
761.447	54.35
761.843	54.34
762.239	54.33
762.635	54.33
