Data from N_2_DIV_OH_2N_Splice17_13-23-57-300.txt Node
Date: Sat Mar 07 13:23:57 EST 2020
User: sa697716
Spectrometer: NQ5500242
Trigger mode: 0
Integration Time (sec): 1.450000E-1
Scans to average: 20
Nonlinearity correction enabled: false
Boxcar width: 5
Storing dark spectrum: false
XAxis mode: Wavelengths
Number of Pixels in Spectrum: 512
>>>>>Begin Spectral Data<<<<<
187.83	160.67
188.298	161.13
188.766	145.45
189.233	121.76
189.701	129.92
190.169	147.39
190.636	192.18
191.104	401.29
191.571	641.47
192.039	237.54
192.506	169.15
192.974	68.28
193.441	61.35
193.908	-19.5
194.375	16.82
194.842	16.82
195.31	17.94
195.777	174.17
196.244	60.06
196.711	46.89
197.177	45.09
197.644	43.84
198.111	43.44
198.578	43.66
199.045	44.13
199.511	43.69
199.978	43.8
200.445	43.95
200.911	43.43
201.378	43.33
201.844	43.24
202.31	42.87
202.777	42.9
203.243	42.73
203.709	42.08
204.176	41.61
204.642	41.38
205.108	41.23
205.574	40.81
206.04	40.39
206.506	40.07
206.972	39.94
207.438	39.5
207.903	38.88
208.369	38.03
208.835	37.73
209.301	36.97
209.766	35.76
210.232	34.55
210.697	33.54
211.163	32.98
211.628	31.99
212.094	30.9
212.559	30.21
213.024	29.46
213.49	28.85
213.955	28.13
214.42	27.46
214.885	26.92
215.35	25.92
215.815	24.64
216.28	22.83
216.745	21.02
217.21	19.29
217.675	17.53
218.14	15.98
218.604	14.62
219.069	13.46
219.534	12.58
219.998	11.81
220.463	11.2
220.927	10.61
221.392	10.16
221.856	9.83
222.32	9.5
222.785	9.26
223.249	9.05
223.713	8.88
224.177	8.71
224.642	8.53
225.106	8.34
225.57	8.14
226.034	8.03
226.497	7.92
226.961	7.77
227.425	7.65
227.889	7.53
228.353	7.4
228.816	7.27
229.28	7.16
229.744	7.05
230.207	6.94
230.671	6.85
231.134	6.75
231.597	6.65
232.061	6.57
232.524	6.48
232.987	6.39
233.45	6.33
233.914	6.25
234.377	6.18
234.84	6.09
235.303	6.05
235.766	5.99
236.229	5.92
236.691	5.86
237.154	5.81
237.617	5.75
238.08	5.7
238.542	5.64
239.005	5.59
239.468	5.53
239.93	5.5
240.393	5.45
240.855	5.39
241.317	5.35
241.78	5.3
242.242	5.24
242.704	5.2
243.166	5.17
243.629	5.14
244.091	5.09
244.553	5.04
245.015	4.99
245.477	4.95
245.939	4.91
246.4	4.88
246.862	4.84
247.324	4.81
247.786	4.76
248.247	4.71
248.709	4.66
249.17	4.62
249.632	4.59
250.093	4.55
250.555	4.52
251.016	4.49
251.477	4.45
251.939	4.41
252.4	4.37
252.861	4.35
253.322	4.32
253.783	4.28
254.244	4.26
254.705	4.22
255.166	4.19
255.627	4.16
256.088	4.13
256.549	4.11
257.009	4.08
257.47	4.06
257.931	4.02
258.391	3.99
258.852	3.96
259.312	3.93
259.773	3.9
260.233	3.87
260.694	3.85
261.154	3.81
261.614	3.78
262.074	3.75
262.534	3.72
262.994	3.7
263.455	3.67
263.915	3.65
264.374	3.63
264.834	3.61
265.294	3.59
265.754	3.57
266.214	3.55
266.673	3.53
267.133	3.52
267.593	3.5
268.052	3.49
268.512	3.48
268.971	3.46
269.431	3.45
269.89	3.43
270.349	3.42
270.809	3.4
271.268	3.39
271.727	3.38
272.186	3.37
272.645	3.36
273.104	3.35
273.563	3.34
274.022	3.33
274.481	3.32
274.94	3.32
275.399	3.31
275.857	3.3
276.316	3.29
276.775	3.27
277.233	3.27
277.692	3.26
278.15	3.25
278.609	3.24
279.067	3.24
279.525	3.23
279.984	3.22
280.442	3.21
280.9	3.21
281.358	3.21
281.816	3.21
282.274	3.2
282.732	3.19
283.19	3.19
283.648	3.18
284.106	3.17
284.564	3.16
285.021	3.16
285.479	3.15
285.937	3.14
286.394	3.14
286.852	3.13
287.309	3.12
287.767	3.11
288.224	3.09
288.682	3.08
289.139	3.07
289.596	3.06
290.053	3.05
290.511	3.03
290.968	3.02
291.425	3
291.882	3
292.339	2.98
292.796	2.97
293.252	2.96
293.709	2.95
294.166	2.95
294.623	2.94
295.079	2.93
295.536	2.92
295.992	2.92
296.449	2.91
296.905	2.9
297.362	2.89
297.818	2.89
298.274	2.89
298.731	2.88
299.187	2.87
299.643	2.86
300.099	2.86
300.555	2.86
301.011	2.85
301.467	2.85
301.923	2.84
302.379	2.83
302.835	2.83
303.291	2.83
303.746	2.82
304.202	2.83
304.658	2.83
305.113	2.82
305.569	2.82
306.024	2.81
306.479	2.8
306.935	2.8
307.39	2.8
307.845	2.8
308.301	2.8
308.756	2.81
309.211	2.8
309.666	2.81
310.121	2.81
310.576	2.81
311.031	2.81
311.486	2.81
311.94	2.82
312.395	2.82
312.85	2.81
313.305	2.81
313.759	2.81
314.214	2.81
314.668	2.8
315.123	2.8
315.577	2.8
316.032	2.8
316.486	2.8
316.94	2.79
317.394	2.79
317.849	2.79
318.303	2.77
318.757	2.76
319.211	2.76
319.665	2.75
320.119	2.74
320.572	2.73
321.026	2.72
321.48	2.7
321.934	2.69
322.387	2.68
322.841	2.68
323.295	2.68
323.748	2.68
324.202	2.67
324.655	2.66
325.108	2.68
325.562	2.68
326.015	2.68
326.468	2.69
326.921	2.7
327.374	2.7
327.827	2.7
328.28	2.7
328.733	2.7
329.186	2.7
329.639	2.71
330.092	2.71
330.545	2.71
330.997	2.71
331.45	2.71
331.903	2.71
332.355	2.71
332.808	2.71
333.26	2.7
333.713	2.7
334.165	2.69
334.617	2.69
335.069	2.69
335.522	2.69
335.974	2.7
336.426	2.69
336.878	2.69
337.33	2.69
337.782	2.7
338.234	2.7
338.686	2.7
339.137	2.71
339.589	2.7
340.041	2.7
340.493	2.69
340.944	2.68
341.396	2.68
341.847	2.68
342.299	2.67
342.75	2.66
343.201	2.66
343.653	2.65
344.104	2.64
344.555	2.63
345.006	2.62
345.457	2.61
345.908	2.61
346.359	2.61
346.81	2.61
347.261	2.61
347.712	2.6
348.163	2.6
348.613	2.6
349.064	2.61
349.515	2.61
349.965	2.61
350.416	2.61
350.866	2.62
351.317	2.62
351.767	2.62
352.217	2.62
352.668	2.63
353.118	2.63
353.568	2.63
354.018	2.64
354.468	2.65
354.918	2.65
355.368	2.66
355.818	2.66
356.268	2.66
356.718	2.66
357.168	2.66
357.617	2.67
358.067	2.67
358.517	2.69
358.966	2.69
359.416	2.69
359.865	2.69
360.315	2.69
360.764	2.71
361.213	2.71
361.663	2.71
362.112	2.73
362.561	2.74
363.01	2.74
363.459	2.73
363.908	2.73
364.357	2.73
364.806	2.73
365.255	2.74
365.703	2.75
366.152	2.76
366.601	2.77
367.05	2.78
367.498	2.78
367.947	2.8
368.395	2.82
368.844	2.84
369.292	2.84
369.74	2.85
370.189	2.86
370.637	2.86
371.085	2.87
371.533	2.88
371.981	2.88
372.429	2.9
372.877	2.91
373.325	2.91
373.773	2.92
374.221	2.94
374.669	2.95
375.116	2.96
375.564	2.97
376.012	2.99
376.459	3.01
376.907	3.03
377.354	3.04
377.801	3.06
378.249	3.08
378.696	3.11
379.143	3.13
379.591	3.15
380.038	3.18
380.485	3.2
380.932	3.22
381.379	3.25
381.826	3.27
382.273	3.29
382.72	3.31
383.166	3.33
383.613	3.36
384.06	3.39
384.506	3.41
384.953	3.44
385.4	3.47
385.846	3.5
386.292	3.52
386.739	3.53
387.185	3.56
387.631	3.6
388.078	3.62
388.524	3.64
388.97	3.66
389.416	3.68
389.862	3.71
390.308	3.74
390.754	3.77
391.2	3.8
391.645	3.82
392.091	3.87
392.537	3.89
392.983	3.92
393.428	3.96
393.874	3.98
394.319	4
394.765	4.02
395.21	4.03
395.655	4.05
396.101	4.07
396.546	4.1
396.991	4.11
397.436	4.14
397.881	4.16
398.326	4.18
398.771	4.21
399.216	4.23
399.661	4.25
400.106	4.27
400.551	4.28
400.995	4.3
401.44	4.3
401.885	4.31
402.329	4.33
402.774	4.33
403.218	4.36
403.663	4.37
404.107	4.39
404.551	4.39
404.995	4.4
405.44	4.41
405.884	4.41
406.328	4.43
406.772	4.44
407.216	4.44
407.66	4.45
408.104	4.44
408.547	4.44
408.991	4.45
409.435	4.46
409.879	4.47
410.322	4.49
410.766	4.51
411.209	4.52
411.653	4.54
412.096	4.55
412.54	4.56
412.983	4.58
413.426	4.6
413.869	4.61
414.312	4.64
414.756	4.65
415.199	4.65
415.642	4.66
416.085	4.67
416.527	4.67
416.97	4.67
417.413	4.68
417.856	4.67
418.298	4.67
418.741	4.67
419.184	4.66
419.626	4.66
420.069	4.68
420.511	4.68
420.953	4.68
421.396	4.7
421.838	4.71
422.28	4.71
422.722	4.73
423.164	4.72
423.606	4.73
424.048	4.74
424.49	4.74
424.932	4.71
425.374	4.7
425.816	4.68
426.258	4.66
426.699	4.65
427.141	4.64
427.582	4.65
428.024	4.66
428.465	4.67
428.907	4.66
429.348	4.65
429.789	4.67
430.231	4.69
430.672	4.72
431.113	4.74
431.554	4.76
431.995	4.78
432.436	4.78
432.877	4.79
433.318	4.8
433.759	4.83
434.2	4.86
434.64	4.87
435.081	4.87
435.522	4.88
435.962	4.9
436.403	4.93
436.843	4.94
437.284	4.95
437.724	4.94
438.164	4.94
438.604	4.94
439.045	4.93
439.485	4.94
439.925	4.95
440.365	4.98
440.805	4.98
441.245	4.99
441.685	5
442.125	5.02
442.564	5.03
443.004	5.04
443.444	5.05
443.883	5.09
444.323	5.1
444.762	5.1
445.202	5.11
445.641	5.14
446.081	5.14
446.52	5.15
446.959	5.17
447.398	5.18
447.837	5.19
448.276	5.21
448.716	5.21
449.154	5.24
449.593	5.27
450.032	5.27
450.471	5.26
450.91	5.27
451.349	5.28
451.787	5.27
452.226	5.28
452.664	5.29
453.103	5.28
453.541	5.3
453.98	5.29
454.418	5.26
454.856	5.26
455.295	5.25
455.733	5.24
456.171	5.22
456.609	5.22
457.047	5.2
457.485	5.19
457.923	5.19
458.361	5.17
458.798	5.17
459.236	5.17
459.674	5.17
460.111	5.17
460.549	5.17
460.987	5.19
461.424	5.19
461.862	5.2
462.299	5.21
462.736	5.22
463.173	5.21
463.611	5.22
464.048	5.23
464.485	5.23
464.922	5.24
465.359	5.25
465.796	5.25
466.233	5.26
466.67	5.27
467.106	5.27
467.543	5.27
467.98	5.27
468.416	5.25
468.853	5.26
469.29	5.25
469.726	5.25
470.162	5.24
470.599	5.23
471.035	5.21
471.471	5.2
471.907	5.18
472.344	5.17
472.78	5.18
473.216	5.18
473.652	5.18
474.088	5.16
474.523	5.16
474.959	5.16
475.395	5.15
475.831	5.15
476.266	5.14
476.702	5.13
477.138	5.13
477.573	5.12
478.008	5.13
478.444	5.12
478.879	5.13
479.314	5.13
479.75	5.12
480.185	5.12
480.62	5.12
481.055	5.11
481.49	5.11
481.925	5.11
482.36	5.11
482.795	5.1
483.229	5.1
483.664	5.1
484.099	5.1
484.534	5.1
484.968	5.11
485.403	5.12
485.837	5.13
486.271	5.15
486.706	5.17
487.14	5.18
487.574	5.2
488.009	5.22
488.443	5.23
488.877	5.26
489.311	5.3
489.745	5.33
490.179	5.36
490.613	5.39
491.046	5.42
491.48	5.45
491.914	5.49
492.348	5.53
492.781	5.58
493.215	5.62
493.648	5.67
494.082	5.71
494.515	5.75
494.948	5.8
495.382	5.84
495.815	5.9
496.248	5.96
496.681	6.02
497.114	6.07
497.547	6.13
497.98	6.2
498.413	6.26
498.846	6.33
499.279	6.41
499.711	6.49
500.144	6.58
500.577	6.67
501.009	6.75
501.442	6.85
501.874	6.96
502.306	7.06
502.739	7.18
503.171	7.29
503.603	7.4
504.036	7.53
504.468	7.65
504.9	7.77
505.332	7.9
505.764	8.04
506.196	8.17
506.627	8.31
507.059	8.48
507.491	8.62
507.923	8.78
508.354	8.95
508.786	9.11
509.217	9.29
509.649	9.48
510.08	9.65
510.512	9.85
510.943	10.04
511.374	10.23
511.805	10.42
512.237	10.61
512.668	10.81
513.099	11.01
513.53	11.22
513.961	11.42
514.391	11.63
514.822	11.85
515.253	12.06
515.684	12.27
516.114	12.48
516.545	12.7
516.975	12.92
517.406	13.13
517.836	13.34
518.267	13.55
518.697	13.76
519.127	13.97
519.558	14.19
519.988	14.39
520.418	14.61
520.848	14.81
521.278	15
521.708	15.37
522.138	15.58
522.567	15.76
522.997	15.95
523.427	16.14
523.857	16.32
524.286	16.48
524.716	16.65
525.145	16.8
525.575	16.96
526.004	17.11
526.433	17.09
526.863	17.21
527.292	17.35
527.721	17.48
528.15	17.6
528.579	17.72
529.008	17.84
529.437	17.95
529.866	18.05
530.295	18.15
530.724	18.27
531.152	18.37
531.581	18.47
532.01	18.56
532.438	18.65
532.867	18.73
533.295	18.81
533.723	18.87
534.152	18.94
534.58	19.02
535.008	19.07
535.436	19.13
535.865	19.17
536.293	19.22
536.721	19.25
537.149	19.29
537.576	19.33
538.004	19.37
538.432	19.41
538.86	19.44
539.287	19.47
539.715	19.51
540.143	19.53
540.57	19.55
540.998	19.56
541.425	19.6
541.852	19.62
542.28	19.64
542.707	19.66
543.134	19.68
543.561	19.71
543.988	19.73
544.415	19.74
544.842	19.76
545.269	19.78
545.696	19.8
546.123	19.83
546.549	19.84
546.976	19.87
547.403	19.88
547.829	19.89
548.256	19.89
548.682	19.9
549.108	19.93
549.535	19.94
549.961	19.95
550.387	19.95
550.813	19.95
551.24	19.95
551.666	19.93
552.092	19.93
552.518	19.93
552.943	19.93
553.369	19.92
553.795	19.9
554.221	19.88
554.646	19.85
555.072	19.83
555.498	19.8
555.923	19.77
556.349	19.75
556.774	19.69
557.199	19.65
557.625	19.59
558.05	19.55
558.475	19.48
558.9	19.43
559.325	19.39
559.75	19.34
560.175	19.27
560.6	19.2
561.025	19.13
561.449	19.06
561.874	18.98
562.299	18.92
562.723	18.84
563.148	18.77
563.572	18.68
563.997	18.58
564.421	18.47
564.846	18.38
565.27	18.3
565.694	18.21
566.118	18.1
566.542	18.01
566.966	17.9
567.39	17.8
567.814	17.7
568.238	17.61
568.662	17.51
569.086	17.42
569.509	17.32
569.933	17.21
570.357	17.11
570.78	17.01
571.204	16.91
571.627	16.83
572.05	16.73
572.474	16.65
572.897	16.56
573.32	16.46
573.743	16.37
574.166	16.29
574.589	16.2
575.012	16.11
575.435	16.04
575.858	15.95
576.281	15.87
576.704	15.79
577.126	15.71
577.549	15.63
577.972	15.56
578.394	15.48
578.817	15.43
579.239	15.36
579.661	15.31
580.084	15.26
580.506	15.19
580.928	15.12
581.35	15.08
581.772	15.02
582.194	14.96
582.616	14.92
583.038	14.86
583.46	14.79
583.882	14.75
584.303	14.68
584.725	14.62
585.147	14.57
585.568	14.54
585.99	14.48
586.411	14.44
586.833	14.39
587.254	14.34
587.675	14.3
588.096	14.26
588.518	14.23
588.939	14.19
589.36	14.15
589.781	14.11
590.202	14.08
590.623	14.06
591.043	14.01
591.464	13.99
591.885	13.95
592.305	13.91
592.726	13.88
593.147	13.84
593.567	13.81
593.987	13.78
594.408	13.75
594.828	13.72
595.248	13.68
595.669	13.67
596.089	13.63
596.509	13.61
596.929	13.58
597.349	13.55
597.769	13.53
598.189	13.5
598.608	13.48
599.028	13.45
599.448	13.42
599.867	13.39
600.287	13.36
600.706	13.33
601.126	13.3
601.545	13.28
601.965	13.26
602.384	13.22
602.803	13.19
603.222	13.15
603.641	13.11
604.061	13.08
604.48	13.04
604.898	12.99
605.317	12.96
605.736	12.92
606.155	12.88
606.574	12.82
606.992	12.77
607.411	12.72
607.829	12.64
608.248	12.59
608.666	12.53
609.085	12.47
609.503	12.42
609.921	12.37
610.339	12.31
610.758	12.25
611.176	12.2
611.594	12.14
612.012	12.09
612.43	12.07
612.847	12.02
613.265	11.96
613.683	11.92
614.101	11.87
614.518	11.81
614.936	11.75
615.353	11.7
615.771	11.65
616.188	11.6
616.606	11.57
617.023	11.51
617.44	11.48
617.857	11.43
618.274	11.4
618.691	11.36
619.108	11.32
619.525	11.28
619.942	11.26
620.359	11.24
620.776	11.22
621.192	11.18
621.609	11.17
622.026	11.14
622.442	11.12
622.859	11.09
623.275	11.08
623.691	11.07
624.108	11.06
624.524	11.05
624.94	11.04
625.356	11.03
625.772	11.02
626.188	11.01
626.604	11.01
627.02	11
627.436	10.99
627.852	10.98
628.268	10.96
628.683	10.96
629.099	10.93
629.514	10.92
629.93	10.9
630.345	10.88
630.761	10.86
631.176	10.84
631.591	10.81
632.007	10.78
632.422	10.74
632.837	10.7
633.252	10.65
633.667	10.61
634.082	10.55
634.497	10.49
634.911	10.42
635.326	10.35
635.741	10.27
636.155	10.18
636.57	10.1
636.984	10.02
637.399	9.93
637.813	9.83
638.228	9.72
638.642	9.63
639.056	9.52
639.47	9.42
639.884	9.32
640.298	9.21
640.712	9.11
641.126	9.01
641.54	8.9
641.954	8.79
642.368	8.69
642.781	8.6
643.195	8.5
643.609	8.41
644.022	8.33
644.436	8.26
644.849	8.17
645.262	8.1
645.676	8.02
646.089	7.96
646.502	7.91
646.915	7.85
647.328	7.8
647.741	7.75
648.154	7.7
648.567	7.65
648.98	7.6
649.393	7.57
649.805	7.55
650.218	7.51
650.631	7.49
651.043	7.46
651.456	7.43
651.868	7.4
652.28	7.38
652.693	7.36
653.105	7.34
653.517	7.3
653.929	7.27
654.341	7.23
654.753	7.19
655.165	7.14
655.577	7.11
655.989	7.05
656.401	7
656.813	6.97
657.224	6.91
657.636	6.84
658.047	6.78
658.459	6.73
658.87	6.66
659.282	6.59
659.693	6.53
660.104	6.45
660.515	6.39
660.926	6.33
661.338	6.24
661.749	6.17
662.159	6.11
662.57	6.05
662.981	5.98
663.392	5.93
663.803	5.88
664.213	5.82
664.624	5.77
665.035	5.72
665.445	5.69
665.855	5.66
666.266	5.63
666.676	5.6
667.086	5.57
667.497	5.54
667.907	5.52
668.317	5.5
668.727	5.48
669.137	5.47
669.547	5.46
669.956	5.44
670.366	5.42
670.776	5.41
671.186	5.41
671.595	5.4
672.005	5.4
672.414	5.41
672.824	5.41
673.233	5.42
673.642	5.43
674.052	5.44
674.461	5.46
674.87	5.47
675.279	5.49
675.688	5.52
676.097	5.55
676.506	5.58
676.915	5.6
677.323	5.64
677.732	5.67
678.141	5.71
678.549	5.74
678.958	5.79
679.366	5.86
679.775	5.91
680.183	5.99
680.592	6.06
681	6.14
681.408	6.24
681.816	6.35
682.224	6.47
682.632	6.59
683.04	6.73
683.448	6.86
683.856	7
684.264	7.17
684.671	7.33
685.079	7.52
685.487	7.73
685.894	7.97
686.302	8.21
686.709	8.46
687.116	8.74
687.524	9.04
687.931	9.38
688.338	9.72
688.745	10.06
689.152	10.43
689.559	10.82
689.966	11.21
690.373	11.6
690.78	12.01
691.187	12.42
691.593	12.85
692	13.27
692.407	13.68
692.813	14.12
693.22	14.55
693.626	15
694.032	15.44
694.439	15.87
694.845	16.31
695.251	16.75
695.657	17.17
696.063	17.59
696.469	18.01
696.875	18.44
697.281	18.85
697.687	19.26
698.093	19.66
698.498	20.03
698.904	20.43
699.31	20.8
699.715	21.18
700.12	21.54
700.526	21.9
700.931	22.26
701.337	22.61
701.742	22.92
702.147	23.25
702.552	23.57
702.957	23.87
703.362	24.15
703.767	24.45
704.172	24.72
704.577	25.01
704.981	25.3
705.386	25.57
705.791	25.82
706.195	26.1
706.6	26.37
707.004	26.62
707.408	26.9
707.813	27.18
708.217	27.42
708.621	27.68
709.025	27.91
709.43	28.13
709.834	28.36
710.237	28.58
710.641	28.81
711.045	29
711.449	29.22
711.853	29.43
712.256	29.6
712.66	29.79
713.064	29.98
713.467	30.18
713.87	30.36
714.274	30.53
714.677	30.72
715.08	30.88
715.484	31.05
715.887	31.22
716.29	31.37
716.693	31.55
717.096	31.71
717.499	31.87
717.901	32.04
718.304	32.19
718.707	32.35
719.109	32.47
719.512	32.63
719.915	32.77
720.317	32.88
720.719	33.02
721.122	33.14
721.524	33.27
721.926	33.38
722.328	33.48
722.731	33.6
723.133	33.73
723.535	33.86
723.937	33.95
724.338	34.05
724.74	34.18
725.142	34.37
725.544	34.47
725.945	34.59
726.347	34.66
726.748	34.74
727.15	34.82
727.551	34.9
727.952	34.95
728.354	35.04
728.755	35.1
729.156	35.15
729.557	35.1
729.958	35.14
730.359	35.19
730.76	35.25
731.161	35.31
731.562	35.35
731.962	35.37
732.363	35.44
732.763	35.5
733.164	35.56
733.564	35.61
733.965	35.66
734.365	35.7
734.766	35.73
735.166	35.77
735.566	35.82
735.966	35.87
736.366	35.9
736.766	35.92
737.166	35.95
737.566	35.96
737.966	35.99
738.365	36.02
738.765	36.05
739.165	36.08
739.564	36.1
739.964	36.09
740.363	36.1
740.763	36.13
741.162	36.14
741.561	36.14
741.96	36.14
742.36	36.14
742.759	36.17
743.158	36.2
743.557	36.19
743.955	36.21
744.354	36.24
744.753	36.26
745.152	36.29
745.55	36.32
745.949	36.35
746.348	36.4
746.746	36.42
747.144	36.42
747.543	36.4
747.941	36.42
748.339	36.42
748.737	36.43
749.136	36.42
749.534	36.41
749.932	36.39
750.33	36.4
750.727	36.4
751.125	36.4
751.523	36.39
751.921	36.41
752.318	36.42
752.716	36.43
753.113	36.44
753.511	36.45
753.908	36.44
754.305	36.47
754.703	36.46
755.1	36.45
755.497	36.44
755.894	36.44
756.291	36.43
756.688	36.41
757.085	36.42
757.482	36.41
757.878	36.41
758.275	36.41
758.672	36.39
759.068	36.39
759.465	36.41
759.861	36.42
760.258	36.44
760.654	36.46
761.05	36.46
761.447	36.46
761.843	36.47
762.239	36.47
762.635	36.47
763.031	36.47
763.427	36.47
763.822	36.45
764.218	36.44
764.614	36.42
765.01	36.41
765.405	36.41
765.801	36.39
766.196	36.38
766.592	36.36
766.987	36.36
767.382	36.36
767.778	36.37
768.173	36.35
768.568	36.35
768.963	36.36
769.358	36.37
769.753	36.38
770.148	36.39
770.542	36.38
770.937	36.37
771.332	36.36
771.726	36.36
772.121	36.36
772.515	36.36
772.91	36.34
773.304	36.33
773.699	36.31
774.093	36.29
774.487	36.28
774.881	36.27
775.275	36.28
775.669	36.25
776.063	36.23
776.457	36.23
776.851	36.22
777.245	36.2
777.638	36.18
778.032	36.17
778.425	36.18
778.819	36.18
779.212	36.19
779.606	36.19
779.999	36.2
780.392	36.22
780.786	36.21
781.179	36.22
781.572	36.27
781.965	36.3
782.358	36.31
782.751	36.31
783.143	36.31
783.536	36.29
