Data from N_2_DIV_OH_2N_Splice17_13-23-25-501.txt Node
Date: Sat Mar 07 13:23:25 EST 2020
User: sa697716
Spectrometer: NQ5500242
Trigger mode: 0
Integration Time (sec): 1.450000E-1
Scans to average: 20
Nonlinearity correction enabled: false
Boxcar width: 5
Storing dark spectrum: false
XAxis mode: Wavelengths
Number of Pixels in Spectrum: 512
>>>>>Begin Spectral Data<<<<<
187.83	233.16
188.298	273.22
188.766	259.56
189.233	222.03
189.701	242.63
190.169	293.34
190.636	344.59
191.104	514.19
191.571	537.68
192.039	468.1
192.506	609.23
192.974	-25.13
193.441	165.26
193.908	147.45
194.375	154.41
194.842	146.17
195.31	219.74
195.777	493.08
196.244	77.94
196.711	56.53
197.177	54.86
197.644	53.64
198.111	51.49
198.578	51.55
199.045	51.99
199.511	51.53
199.978	51.83
200.445	52.22
200.911	51.95
201.378	51.81
201.844	51.7
202.31	51.3
202.777	51.12
203.243	51.57
203.709	51.19
204.176	50.52
204.642	50.25
205.108	49.99
205.574	49.47
206.04	49.12
206.506	48.67
206.972	48.6
207.438	48.19
207.903	47.84
208.369	46.85
208.835	45.96
209.301	44.91
209.766	43.81
210.232	42.54
210.697	41.29
211.163	40.26
211.628	39.33
212.094	38.14
212.559	37.33
213.024	36.15
213.49	35.55
213.955	34.74
214.42	34.26
214.885	33.29
215.35	31.99
215.815	30.42
216.28	28.3
216.745	25.92
217.21	23.64
217.675	21.38
218.14	19.59
218.604	17.84
219.069	16.48
219.534	15.3
219.998	14.37
220.463	13.67
220.927	13
221.392	12.47
221.856	12.02
222.32	11.67
222.785	11.38
223.249	11.08
223.713	10.85
224.177	10.61
224.642	10.4
225.106	10.17
225.57	9.92
226.034	9.74
226.497	9.58
226.961	9.41
227.425	9.25
227.889	9.09
228.353	8.93
228.816	8.78
229.28	8.65
229.744	8.5
230.207	8.38
230.671	8.25
231.134	8.13
231.597	8.03
232.061	7.91
232.524	7.8
232.987	7.69
233.45	7.61
233.914	7.52
234.377	7.41
234.84	7.32
235.303	7.25
235.766	7.19
236.229	7.11
236.691	7.02
237.154	6.95
237.617	6.89
238.08	6.83
238.542	6.74
239.005	6.67
239.468	6.6
239.93	6.55
240.393	6.48
240.855	6.4
241.317	6.33
241.78	6.28
242.242	6.21
242.704	6.16
243.166	6.09
243.629	6.05
244.091	5.99
244.553	5.94
245.015	5.88
245.477	5.82
245.939	5.76
246.4	5.71
246.862	5.66
247.324	5.61
247.786	5.55
248.247	5.49
248.709	5.43
249.17	5.37
249.632	5.32
250.093	5.28
250.555	5.24
251.016	5.2
251.477	5.15
251.939	5.11
252.4	5.06
252.861	5.02
253.322	4.98
253.783	4.94
254.244	4.91
254.705	4.87
255.166	4.83
255.627	4.79
256.088	4.75
256.549	4.72
257.009	4.69
257.47	4.65
257.931	4.61
258.391	4.57
258.852	4.54
259.312	4.5
259.773	4.47
260.233	4.44
260.694	4.41
261.154	4.37
261.614	4.33
262.074	4.3
262.534	4.27
262.994	4.24
263.455	4.21
263.915	4.18
264.374	4.16
264.834	4.13
265.294	4.11
265.754	4.08
266.214	4.06
266.673	4.04
267.133	4.02
267.593	4.01
268.052	3.99
268.512	3.98
268.971	3.97
269.431	3.95
269.89	3.93
270.349	3.92
270.809	3.91
271.268	3.9
271.727	3.88
272.186	3.87
272.645	3.85
273.104	3.84
273.563	3.82
274.022	3.81
274.481	3.79
274.94	3.79
275.399	3.77
275.857	3.76
276.316	3.75
276.775	3.74
277.233	3.74
277.692	3.73
278.15	3.72
278.609	3.72
279.067	3.71
279.525	3.71
279.984	3.7
280.442	3.69
280.9	3.68
281.358	3.68
281.816	3.67
282.274	3.67
282.732	3.66
283.19	3.65
283.648	3.63
284.106	3.63
284.564	3.62
285.021	3.62
285.479	3.61
285.937	3.6
286.394	3.6
286.852	3.59
287.309	3.57
287.767	3.55
288.224	3.54
288.682	3.53
289.139	3.51
289.596	3.49
290.053	3.47
290.511	3.46
290.968	3.44
291.425	3.42
291.882	3.4
292.339	3.39
292.796	3.37
293.252	3.36
293.709	3.35
294.166	3.34
294.623	3.33
295.079	3.32
295.536	3.31
295.992	3.3
296.449	3.29
296.905	3.28
297.362	3.27
297.818	3.26
298.274	3.26
298.731	3.24
299.187	3.23
299.643	3.22
300.099	3.22
300.555	3.21
301.011	3.2
301.467	3.2
301.923	3.19
302.379	3.18
302.835	3.18
303.291	3.18
303.746	3.18
304.202	3.18
304.658	3.18
305.113	3.17
305.569	3.17
306.024	3.17
306.479	3.16
306.935	3.16
307.39	3.16
307.845	3.16
308.301	3.16
308.756	3.17
309.211	3.16
309.666	3.16
310.121	3.16
310.576	3.16
311.031	3.16
311.486	3.17
311.94	3.17
312.395	3.16
312.85	3.16
313.305	3.16
313.759	3.16
314.214	3.15
314.668	3.15
315.123	3.14
315.577	3.14
316.032	3.14
316.486	3.13
316.94	3.13
317.394	3.13
317.849	3.11
318.303	3.1
318.757	3.09
319.211	3.07
319.665	3.06
320.119	3.05
320.572	3.03
321.026	3.02
321.48	3.01
321.934	2.99
322.387	2.98
322.841	2.97
323.295	2.97
323.748	2.97
324.202	2.97
324.655	2.97
325.108	2.97
325.562	2.97
326.015	2.96
326.468	2.97
326.921	2.97
327.374	2.97
327.827	2.97
328.28	2.97
328.733	2.97
329.186	2.97
329.639	2.97
330.092	2.96
330.545	2.96
330.997	2.96
331.45	2.96
331.903	2.97
332.355	2.98
332.808	2.98
333.26	2.97
333.713	2.97
334.165	2.97
334.617	2.97
335.069	2.97
335.522	2.98
335.974	2.98
336.426	2.98
336.878	2.97
337.33	2.97
337.782	2.97
338.234	2.98
338.686	2.98
339.137	2.99
339.589	2.98
340.041	2.98
340.493	2.97
340.944	2.95
341.396	2.94
341.847	2.93
342.299	2.92
342.75	2.91
343.201	2.88
343.653	2.88
344.104	2.86
344.555	2.84
345.006	2.82
345.457	2.82
345.908	2.81
346.359	2.81
346.81	2.8
347.261	2.79
347.712	2.79
348.163	2.78
348.613	2.77
349.064	2.77
349.515	2.77
349.965	2.78
350.416	2.77
350.866	2.77
351.317	2.76
351.767	2.76
352.217	2.76
352.668	2.76
353.118	2.77
353.568	2.77
354.018	2.77
354.468	2.78
354.918	2.78
355.368	2.79
355.818	2.79
356.268	2.79
356.718	2.8
357.168	2.8
357.617	2.79
358.067	2.79
358.517	2.8
358.966	2.8
359.416	2.8
359.865	2.8
360.315	2.8
360.764	2.8
361.213	2.79
361.663	2.78
362.112	2.79
362.561	2.79
363.01	2.78
363.459	2.77
363.908	2.76
364.357	2.75
364.806	2.75
365.255	2.75
365.703	2.77
366.152	2.78
366.601	2.79
367.05	2.79
367.498	2.78
367.947	2.8
368.395	2.81
368.844	2.82
369.292	2.83
369.74	2.84
370.189	2.84
370.637	2.84
371.085	2.84
371.533	2.84
371.981	2.84
372.429	2.86
372.877	2.86
373.325	2.86
373.773	2.86
374.221	2.86
374.669	2.87
375.116	2.86
375.564	2.86
376.012	2.86
376.459	2.87
376.907	2.89
377.354	2.9
377.801	2.92
378.249	2.93
378.696	2.95
379.143	2.95
379.591	2.96
380.038	2.99
380.485	3
380.932	3.02
381.379	3.05
381.826	3.06
382.273	3.07
382.72	3.07
383.166	3.09
383.613	3.1
384.06	3.12
384.506	3.14
384.953	3.15
385.4	3.17
385.846	3.18
386.292	3.18
386.739	3.18
387.185	3.2
387.631	3.22
388.078	3.23
388.524	3.25
388.97	3.26
389.416	3.28
389.862	3.3
390.308	3.33
390.754	3.35
391.2	3.37
391.645	3.39
392.091	3.42
392.537	3.44
392.983	3.45
393.428	3.47
393.874	3.49
394.319	3.5
394.765	3.51
395.21	3.51
395.655	3.53
396.101	3.55
396.546	3.56
396.991	3.58
397.436	3.59
397.881	3.63
398.326	3.65
398.771	3.66
399.216	3.68
399.661	3.71
400.106	3.72
400.551	3.73
400.995	3.73
401.44	3.74
401.885	3.75
402.329	3.75
402.774	3.75
403.218	3.77
403.663	3.77
404.107	3.79
404.551	3.79
404.995	3.79
405.44	3.79
405.884	3.8
406.328	3.81
406.772	3.81
407.216	3.82
407.66	3.82
408.104	3.81
408.547	3.83
408.991	3.83
409.435	3.84
409.879	3.86
410.322	3.87
410.766	3.89
411.209	3.91
411.653	3.93
412.096	3.95
412.54	3.97
412.983	3.97
413.426	4.01
413.869	4.02
414.312	4.05
414.756	4.07
415.199	4.07
415.642	4.09
416.085	4.09
416.527	4.09
416.97	4.08
417.413	4.09
417.856	4.09
418.298	4.08
418.741	4.08
419.184	4.08
419.626	4.08
420.069	4.08
420.511	4.08
420.953	4.1
421.396	4.11
421.838	4.12
422.28	4.12
422.722	4.14
423.164	4.14
423.606	4.16
424.048	4.16
424.49	4.18
424.932	4.19
425.374	4.18
425.816	4.18
426.258	4.17
426.699	4.17
427.141	4.16
427.582	4.17
428.024	4.18
428.465	4.19
428.907	4.19
429.348	4.19
429.789	4.19
430.231	4.22
430.672	4.24
431.113	4.27
431.554	4.29
431.995	4.31
432.436	4.33
432.877	4.35
433.318	4.36
433.759	4.39
434.2	4.41
434.64	4.44
435.081	4.45
435.522	4.48
435.962	4.5
436.403	4.52
436.843	4.54
437.284	4.55
437.724	4.56
438.164	4.56
438.604	4.57
439.045	4.59
439.485	4.59
439.925	4.59
440.365	4.6
440.805	4.6
441.245	4.62
441.685	4.63
442.125	4.64
442.564	4.65
443.004	4.64
443.444	4.67
443.883	4.68
444.323	4.69
444.762	4.7
445.202	4.7
445.641	4.72
446.081	4.72
446.52	4.73
446.959	4.76
447.398	4.78
447.837	4.8
448.276	4.78
448.716	4.78
449.154	4.79
449.593	4.8
450.032	4.82
450.471	4.81
450.91	4.8
451.349	4.81
451.787	4.79
452.226	4.79
452.664	4.79
453.103	4.78
453.541	4.78
453.98	4.77
454.418	4.76
454.856	4.75
455.295	4.73
455.733	4.72
456.171	4.7
456.609	4.69
457.047	4.67
457.485	4.67
457.923	4.67
458.361	4.66
458.798	4.66
459.236	4.66
459.674	4.65
460.111	4.64
460.549	4.65
460.987	4.66
461.424	4.66
461.862	4.66
462.299	4.67
462.736	4.67
463.173	4.67
463.611	4.68
464.048	4.68
464.485	4.68
464.922	4.69
465.359	4.69
465.796	4.71
466.233	4.71
466.67	4.72
467.106	4.71
467.543	4.71
467.98	4.69
468.416	4.67
468.853	4.66
469.29	4.65
469.726	4.65
470.162	4.65
470.599	4.63
471.035	4.61
471.471	4.6
471.907	4.59
472.344	4.59
472.78	4.61
473.216	4.6
473.652	4.61
474.088	4.6
474.523	4.6
474.959	4.59
475.395	4.58
475.831	4.57
476.266	4.57
476.702	4.55
477.138	4.54
477.573	4.53
478.008	4.53
478.444	4.51
478.879	4.53
479.314	4.5
479.75	4.49
480.185	4.48
480.62	4.48
481.055	4.46
481.49	4.45
481.925	4.45
482.36	4.43
482.795	4.42
483.229	4.41
483.664	4.4
484.099	4.4
484.534	4.39
484.968	4.4
485.403	4.4
485.837	4.41
486.271	4.42
486.706	4.41
487.14	4.42
487.574	4.43
488.009	4.44
488.443	4.44
488.877	4.46
489.311	4.48
489.745	4.48
490.179	4.5
490.613	4.53
491.046	4.55
491.48	4.57
491.914	4.6
492.348	4.62
492.781	4.65
493.215	4.69
493.648	4.72
494.082	4.75
494.515	4.79
494.948	4.82
495.382	4.85
495.815	4.89
496.248	4.95
496.681	4.99
497.114	5.05
497.547	5.1
497.98	5.15
498.413	5.22
498.846	5.28
499.279	5.33
499.711	5.4
500.144	5.47
500.577	5.55
501.009	5.62
501.442	5.7
501.874	5.8
502.306	5.88
502.739	5.98
503.171	6.08
503.603	6.19
504.036	6.3
504.468	6.42
504.9	6.55
505.332	6.67
505.764	6.8
506.196	6.94
506.627	7.07
507.059	7.22
507.491	7.37
507.923	7.53
508.354	7.7
508.786	7.88
509.217	8.06
509.649	8.24
510.08	8.45
510.512	8.65
510.943	8.85
511.374	9.07
511.805	9.29
512.237	9.51
512.668	9.73
513.099	9.96
513.53	10.19
513.961	10.44
514.391	10.69
514.822	10.94
515.253	11.19
515.684	11.45
516.114	11.71
516.545	11.98
516.975	12.25
517.406	12.52
517.836	12.8
518.267	13.09
518.697	13.36
519.127	13.63
519.558	13.9
519.988	14.16
520.418	14.44
520.848	14.71
521.278	14.97
521.708	15.4
522.138	15.68
522.567	15.93
522.997	16.17
523.427	16.42
523.857	16.66
524.286	16.88
524.716	17.13
525.145	17.34
525.575	17.56
526.004	17.77
526.433	17.82
526.863	18
527.292	18.2
527.721	18.38
528.15	18.55
528.579	18.74
529.008	18.91
529.437	19.06
529.866	19.22
530.295	19.37
530.724	19.5
531.152	19.64
531.581	19.78
532.01	19.89
532.438	20.02
532.867	20.14
533.295	20.25
533.723	20.35
534.152	20.44
534.58	20.53
535.008	20.6
535.436	20.68
535.865	20.74
536.293	20.8
536.721	20.87
537.149	20.93
537.576	20.97
538.004	21.02
538.432	21.07
538.86	21.11
539.287	21.14
539.715	21.2
540.143	21.24
540.57	21.27
540.998	21.3
541.425	21.34
541.852	21.37
542.28	21.42
542.707	21.45
543.134	21.48
543.561	21.52
543.988	21.56
544.415	21.57
544.842	21.59
545.269	21.64
545.696	21.67
546.123	21.7
546.549	21.72
546.976	21.74
547.403	21.76
547.829	21.78
548.256	21.81
548.682	21.82
549.108	21.85
549.535	21.87
549.961	21.87
550.387	21.86
550.813	21.85
551.24	21.86
551.666	21.86
552.092	21.85
552.518	21.85
552.943	21.81
553.369	21.79
553.795	21.75
554.221	21.71
554.646	21.66
555.072	21.63
555.498	21.58
555.923	21.53
556.349	21.46
556.774	21.41
557.199	21.33
557.625	21.27
558.05	21.2
558.475	21.13
558.9	21.06
559.325	21
559.75	20.91
560.175	20.81
560.6	20.7
561.025	20.6
561.449	20.47
561.874	20.35
562.299	20.23
562.723	20.11
563.148	19.97
563.572	19.82
563.997	19.68
564.421	19.53
564.846	19.39
565.27	19.24
565.694	19.1
566.118	18.96
566.542	18.82
566.966	18.67
567.39	18.52
567.814	18.37
568.238	18.22
568.662	18.06
569.086	17.91
569.509	17.77
569.933	17.62
570.357	17.49
570.78	17.33
571.204	17.19
571.627	17.06
572.05	16.92
572.474	16.79
572.897	16.67
573.32	16.55
573.743	16.43
574.166	16.3
574.589	16.17
575.012	16.04
575.435	15.94
575.858	15.82
576.281	15.71
576.704	15.6
577.126	15.5
577.549	15.39
577.972	15.29
578.394	15.2
578.817	15.12
579.239	15.03
579.661	14.94
580.084	14.86
580.506	14.79
580.928	14.71
581.35	14.63
581.772	14.54
582.194	14.47
582.616	14.4
583.038	14.32
583.46	14.23
583.882	14.16
584.303	14.09
584.725	14.02
585.147	13.95
585.568	13.88
585.99	13.81
586.411	13.76
586.833	13.69
587.254	13.62
587.675	13.57
588.096	13.51
588.518	13.46
588.939	13.43
589.36	13.37
589.781	13.32
590.202	13.28
590.623	13.24
591.043	13.19
591.464	13.14
591.885	13.1
592.305	13.07
592.726	13.04
593.147	13.01
593.567	12.96
593.987	12.93
594.408	12.89
594.828	12.84
595.248	12.82
595.669	12.78
596.089	12.76
596.509	12.73
596.929	12.68
597.349	12.64
597.769	12.6
598.189	12.57
598.608	12.53
599.028	12.49
599.448	12.45
599.867	12.4
600.287	12.37
600.706	12.34
601.126	12.3
601.545	12.27
601.965	12.24
602.384	12.19
602.803	12.14
603.222	12.09
603.641	12.05
604.061	12.01
604.48	11.95
604.898	11.89
605.317	11.83
605.736	11.77
606.155	11.7
606.574	11.64
606.992	11.59
607.411	11.52
607.829	11.43
608.248	11.37
608.666	11.3
609.085	11.23
609.503	11.17
609.921	11.1
610.339	11.04
610.758	10.96
611.176	10.89
611.594	10.81
612.012	10.75
612.43	10.7
612.847	10.64
613.265	10.57
613.683	10.52
614.101	10.45
614.518	10.39
614.936	10.32
615.353	10.26
615.771	10.2
616.188	10.14
616.606	10.09
617.023	10.03
617.44	9.99
617.857	9.95
618.274	9.89
618.691	9.85
619.108	9.81
619.525	9.78
619.942	9.74
620.359	9.71
620.776	9.67
621.192	9.64
621.609	9.61
622.026	9.58
622.442	9.56
622.859	9.54
623.275	9.52
623.691	9.49
624.108	9.47
624.524	9.47
624.94	9.47
625.356	9.47
625.772	9.46
626.188	9.46
626.604	9.45
627.02	9.44
627.436	9.43
627.852	9.43
628.268	9.42
628.683	9.41
629.099	9.39
629.514	9.36
629.93	9.34
630.345	9.31
630.761	9.27
631.176	9.25
631.591	9.22
632.007	9.18
632.422	9.13
632.837	9.09
633.252	9.04
633.667	8.97
634.082	8.9
634.497	8.85
634.911	8.79
635.326	8.71
635.741	8.63
636.155	8.54
636.57	8.46
636.984	8.37
637.399	8.28
637.813	8.19
638.228	8.08
638.642	7.98
639.056	7.87
639.47	7.78
639.884	7.68
640.298	7.57
640.712	7.46
641.126	7.36
641.54	7.25
641.954	7.15
642.368	7.05
642.781	6.97
643.195	6.89
643.609	6.8
644.022	6.71
644.436	6.64
644.849	6.55
645.262	6.49
645.676	6.43
646.089	6.37
646.502	6.3
646.915	6.24
647.328	6.19
647.741	6.14
648.154	6.1
648.567	6.07
648.98	6.03
649.393	6.01
649.805	5.99
650.218	5.95
650.631	5.93
651.043	5.91
651.456	5.89
651.868	5.87
652.28	5.85
652.693	5.82
653.105	5.8
653.517	5.77
653.929	5.75
654.341	5.7
654.753	5.66
655.165	5.62
655.577	5.59
655.989	5.54
656.401	5.5
656.813	5.45
657.224	5.4
657.636	5.34
658.047	5.29
658.459	5.23
658.87	5.19
659.282	5.14
659.693	5.09
660.104	5.03
660.515	4.98
660.926	4.93
661.338	4.88
661.749	4.84
662.159	4.79
662.57	4.75
662.981	4.71
663.392	4.67
663.803	4.64
664.213	4.6
664.624	4.57
665.035	4.53
665.445	4.51
665.855	4.5
666.266	4.48
666.676	4.47
667.086	4.45
667.497	4.45
667.907	4.44
668.317	4.44
668.727	4.44
669.137	4.43
669.547	4.44
669.956	4.44
670.366	4.43
670.776	4.44
671.186	4.45
671.595	4.45
672.005	4.45
672.414	4.47
672.824	4.48
673.233	4.51
673.642	4.53
674.052	4.55
674.461	4.57
674.87	4.6
675.279	4.62
675.688	4.64
676.097	4.68
676.506	4.72
676.915	4.75
677.323	4.78
677.732	4.8
678.141	4.85
678.549	4.88
678.958	4.92
679.366	4.98
679.775	5.02
680.183	5.07
680.592	5.12
681	5.19
681.408	5.25
681.816	5.34
682.224	5.42
682.632	5.51
683.04	5.61
683.448	5.72
683.856	5.81
684.264	5.94
684.671	6.08
685.079	6.22
685.487	6.39
685.894	6.59
686.302	6.79
686.709	7.02
687.116	7.28
687.524	7.55
687.931	7.85
688.338	8.18
688.745	8.52
689.152	8.9
689.559	9.32
689.966	9.74
690.373	10.19
690.78	10.65
691.187	11.14
691.593	11.64
692	12.16
692.407	12.69
692.813	13.26
693.22	13.82
693.626	14.4
694.032	14.96
694.439	15.55
694.845	16.13
695.251	16.72
695.657	17.3
696.063	17.91
696.469	18.51
696.875	19.12
697.281	19.71
697.687	20.33
698.093	20.93
698.498	21.52
698.904	22.12
699.31	22.7
699.715	23.29
700.12	23.88
700.526	24.45
700.931	25.01
701.337	25.57
701.742	26.12
702.147	26.66
702.552	27.21
702.957	27.72
703.362	28.23
703.767	28.73
704.172	29.25
704.577	29.74
704.981	30.24
705.386	30.72
705.791	31.18
706.195	31.65
706.6	32.11
707.004	32.57
707.408	33.03
707.813	33.5
708.217	33.95
708.621	34.36
709.025	34.76
709.43	35.16
709.834	35.58
710.237	35.98
710.641	36.38
711.045	36.75
711.449	37.13
711.853	37.51
712.256	37.87
712.66	38.23
713.064	38.59
713.467	38.97
713.87	39.31
714.274	39.63
714.677	39.97
715.08	40.3
715.484	40.64
715.887	40.96
716.29	41.25
716.693	41.58
717.096	41.88
717.499	42.18
717.901	42.48
718.304	42.78
718.707	43.11
719.109	43.4
719.512	43.67
719.915	43.95
720.317	44.2
720.719	44.47
721.122	44.72
721.524	44.97
721.926	45.23
722.328	45.45
722.731	45.67
723.133	45.87
723.535	46.09
723.937	46.32
724.338	46.52
724.74	46.75
725.142	47.04
725.544	47.22
725.945	47.4
726.347	47.55
726.748	47.73
727.15	47.9
727.551	48.08
727.952	48.2
728.354	48.33
728.755	48.46
729.156	48.6
729.557	48.63
729.958	48.74
730.359	48.86
730.76	48.98
731.161	49.09
731.562	49.2
731.962	49.29
732.363	49.4
732.763	49.52
733.164	49.62
733.564	49.71
733.965	49.81
734.365	49.91
734.766	49.98
735.166	50.06
735.566	50.15
735.966	50.24
736.366	50.3
736.766	50.38
737.166	50.44
737.566	50.5
737.966	50.54
738.365	50.61
738.765	50.66
739.165	50.75
739.564	50.84
739.964	50.88
740.363	50.91
740.763	50.97
741.162	51.02
741.561	51.03
741.96	51.07
742.36	51.13
742.759	51.15
743.158	51.17
743.557	51.17
743.955	51.18
744.354	51.23
744.753	51.28
745.152	51.32
745.55	51.33
745.949	51.38
746.348	51.42
746.746	51.4
747.144	51.44
747.543	51.47
747.941	51.52
748.339	51.52
748.737	51.52
749.136	51.51
749.534	51.49
749.932	51.47
750.33	51.49
750.727	51.5
751.125	51.54
751.523	51.55
751.921	51.57
752.318	51.6
752.716	51.63
753.113	51.65
753.511	51.69
753.908	51.75
754.305	51.82
754.703	51.79
755.1	51.8
755.497	51.82
755.894	51.81
756.291	51.82
756.688	51.79
757.085	51.78
757.482	51.78
757.878	51.79
758.275	51.77
758.672	51.74
759.068	51.81
759.465	51.82
759.861	51.8
760.258	51.83
760.654	51.81
761.05	51.83
761.447	51.85
761.843	51.84
762.239	51.83
762.635	51.81
763.031	51.84
763.427	51.79
763.822	51.81
764.218	51.82
764.614	51.82
765.01	51.83
765.405	51.82
765.801	51.79
766.196	51.79
766.592	51.78
766.987	51.79
767.382	51.75
767.778	51.76
768.173	51.75
768.568	51.76
768.963	51.73
769.358	51.72
769.753	51.72
770.148	51.73
770.542	51.74
770.937	51.73
771.332	51.74
771.726	51.76
772.121	51.75
772.515	51.73
772.91	51.71
773.304	51.72
773.699	51.73
774.093	51.76
774.487	51.76
774.881	51.76
775.275	51.77
775.669	51.77
776.063	51.76
776.457	51.77
776.851	51.75
777.245	51.74
777.638	51.72
778.032	51.74
778.425	51.74
778.819	51.73
779.212	51.76
779.606	51.79
779.999	51.79
780.392	51.82
780.786	51.86
781.179	51.87
781.572	51.92
781.965	51.94
782.358	51.93
782.751	51.91
783.143	51.93
783.536	51.88
783.929	51.88
