Data from N_2_DIV_WI_4N_Splice17_13-19-40-506.txt Node
Date: Sat Mar 07 13:19:40 EST 2020
User: sa697716
Spectrometer: NQ5500242
Trigger mode: 0
Integration Time (sec): 1.450000E-1
Scans to average: 20
Nonlinearity correction enabled: false
Boxcar width: 5
Storing dark spectrum: false
XAxis mode: Wavelengths
Number of Pixels in Spectrum: 512
>>>>>Begin Spectral Data<<<<<
187.83	83.47
188.298	112.6
188.766	113.73
189.233	94.52
189.701	96.44
190.169	119
190.636	158.28
191.104	251.97
191.571	241.58
192.039	235.48
192.506	154.89
192.974	73.33
193.441	311.41
193.908	196.07
194.375	111.65
194.842	82.93
195.31	126.89
195.777	320.92
196.244	53.58
196.711	39.78
197.177	42.06
197.644	41.14
198.111	39.71
198.578	39.04
199.045	39.28
199.511	39.54
199.978	39.85
200.445	40.13
200.911	39.92
201.378	39.99
201.844	39.91
202.31	39.66
202.777	39.72
203.243	39.89
203.709	39.9
204.176	39.59
204.642	39.16
205.108	38.88
205.574	38.65
206.04	38.38
206.506	37.87
206.972	37.87
207.438	37.12
207.903	36.47
208.369	35.85
208.835	35.07
209.301	34.49
209.766	33.69
210.232	32.88
210.697	31.94
211.163	31.39
211.628	30.81
212.094	29.98
212.559	29.6
213.024	29.17
213.49	28.61
213.955	28.08
214.42	27.4
214.885	26.81
215.35	25.9
215.815	24.83
216.28	23.37
216.745	21.7
217.21	20.11
217.675	18.6
218.14	17.29
218.604	16.22
219.069	15.34
219.534	14.67
219.998	14.06
220.463	13.57
220.927	13.1
221.392	12.75
221.856	12.47
222.32	12.21
222.785	12.03
223.249	11.84
223.713	11.64
224.177	11.48
224.642	11.31
225.106	11.14
225.57	10.98
226.034	10.86
226.497	10.72
226.961	10.58
227.425	10.46
227.889	10.33
228.353	10.21
228.816	10.09
229.28	9.99
229.744	9.88
230.207	9.76
230.671	9.66
231.134	9.55
231.597	9.46
232.061	9.38
232.524	9.29
232.987	9.21
233.45	9.14
233.914	9.05
234.377	8.97
234.84	8.88
235.303	8.81
235.766	8.75
236.229	8.68
236.691	8.62
237.154	8.54
237.617	8.48
238.08	8.41
238.542	8.34
239.005	8.3
239.468	8.23
239.93	8.19
240.393	8.13
240.855	8.06
241.317	8
241.78	7.93
242.242	7.87
242.704	7.82
243.166	7.76
243.629	7.72
244.091	7.65
244.553	7.6
245.015	7.55
245.477	7.5
245.939	7.45
246.4	7.41
246.862	7.37
247.324	7.33
247.786	7.28
248.247	7.24
248.709	7.19
249.17	7.13
249.632	7.11
250.093	7.07
250.555	7.04
251.016	7
251.477	6.96
251.939	6.93
252.4	6.9
252.861	6.87
253.322	6.83
253.783	6.8
254.244	6.79
254.705	6.75
255.166	6.71
255.627	6.67
256.088	6.64
256.549	6.62
257.009	6.57
257.47	6.53
257.931	6.49
258.391	6.44
258.852	6.4
259.312	6.36
259.773	6.33
260.233	6.29
260.694	6.26
261.154	6.22
261.614	6.18
262.074	6.16
262.534	6.12
262.994	6.1
263.455	6.07
263.915	6.04
264.374	6.01
264.834	5.98
265.294	5.96
265.754	5.94
266.214	5.93
266.673	5.91
267.133	5.89
267.593	5.87
268.052	5.86
268.512	5.85
268.971	5.83
269.431	5.82
269.89	5.8
270.349	5.78
270.809	5.76
271.268	5.74
271.727	5.72
272.186	5.7
272.645	5.68
273.104	5.65
273.563	5.64
274.022	5.62
274.481	5.61
274.94	5.59
275.399	5.58
275.857	5.56
276.316	5.54
276.775	5.53
277.233	5.51
277.692	5.5
278.15	5.48
278.609	5.47
279.067	5.45
279.525	5.44
279.984	5.42
280.442	5.39
280.9	5.38
281.358	5.36
281.816	5.35
282.274	5.33
282.732	5.3
283.19	5.28
283.648	5.26
284.106	5.23
284.564	5.21
285.021	5.2
285.479	5.19
285.937	5.16
286.394	5.15
286.852	5.13
287.309	5.11
287.767	5.09
288.224	5.07
288.682	5.05
289.139	5.03
289.596	5.01
290.053	4.98
290.511	4.96
290.968	4.94
291.425	4.92
291.882	4.91
292.339	4.9
292.796	4.89
293.252	4.87
293.709	4.86
294.166	4.86
294.623	4.85
295.079	4.84
295.536	4.83
295.992	4.82
296.449	4.81
296.905	4.8
297.362	4.78
297.818	4.77
298.274	4.77
298.731	4.75
299.187	4.74
299.643	4.72
300.099	4.71
300.555	4.7
301.011	4.69
301.467	4.68
301.923	4.66
302.379	4.65
302.835	4.64
303.291	4.63
303.746	4.62
304.202	4.61
304.658	4.61
305.113	4.6
305.569	4.61
306.024	4.6
306.479	4.59
306.935	4.58
307.39	4.58
307.845	4.57
308.301	4.57
308.756	4.57
309.211	4.56
309.666	4.57
310.121	4.56
310.576	4.55
311.031	4.54
311.486	4.54
311.94	4.54
312.395	4.53
312.85	4.53
313.305	4.52
313.759	4.51
314.214	4.5
314.668	4.48
315.123	4.48
315.577	4.49
316.032	4.48
316.486	4.48
316.94	4.47
317.394	4.47
317.849	4.45
318.303	4.44
318.757	4.43
319.211	4.42
319.665	4.41
320.119	4.39
320.572	4.37
321.026	4.36
321.48	4.34
321.934	4.33
322.387	4.32
322.841	4.31
323.295	4.31
323.748	4.3
324.202	4.3
324.655	4.3
325.108	4.3
325.562	4.3
326.015	4.3
326.468	4.31
326.921	4.3
327.374	4.3
327.827	4.3
328.28	4.29
328.733	4.3
329.186	4.29
329.639	4.29
330.092	4.28
330.545	4.28
330.997	4.28
331.45	4.27
331.903	4.28
332.355	4.28
332.808	4.28
333.26	4.27
333.713	4.26
334.165	4.25
334.617	4.24
335.069	4.24
335.522	4.24
335.974	4.24
336.426	4.23
336.878	4.22
337.33	4.21
337.782	4.21
338.234	4.21
338.686	4.2
339.137	4.21
339.589	4.2
340.041	4.19
340.493	4.17
340.944	4.16
341.396	4.16
341.847	4.15
342.299	4.13
342.75	4.12
343.201	4.1
343.653	4.09
344.104	4.06
344.555	4.05
345.006	4.05
345.457	4.04
345.908	4.03
346.359	4.02
346.81	4.02
347.261	4.01
347.712	4.01
348.163	4
348.613	4
349.064	4.01
349.515	4.01
349.965	4
350.416	3.99
350.866	3.99
351.317	3.98
351.767	3.98
352.217	3.98
352.668	3.98
353.118	3.98
353.568	3.97
354.018	3.97
354.468	3.97
354.918	3.96
355.368	3.96
355.818	3.96
356.268	3.96
356.718	3.96
357.168	3.95
357.617	3.94
358.067	3.94
358.517	3.94
358.966	3.94
359.416	3.95
359.865	3.94
360.315	3.94
360.764	3.94
361.213	3.93
361.663	3.91
362.112	3.92
362.561	3.93
363.01	3.93
363.459	3.91
363.908	3.89
364.357	3.88
364.806	3.88
365.255	3.88
365.703	3.88
366.152	3.88
366.601	3.88
367.05	3.88
367.498	3.86
367.947	3.86
368.395	3.87
368.844	3.87
369.292	3.88
369.74	3.88
370.189	3.88
370.637	3.87
371.085	3.86
371.533	3.85
371.981	3.85
372.429	3.85
372.877	3.84
373.325	3.83
373.773	3.82
374.221	3.81
374.669	3.8
375.116	3.79
375.564	3.79
376.012	3.78
376.459	3.78
376.907	3.78
377.354	3.76
377.801	3.76
378.249	3.76
378.696	3.76
379.143	3.76
379.591	3.76
380.038	3.76
380.485	3.76
380.932	3.75
381.379	3.74
381.826	3.74
382.273	3.74
382.72	3.72
383.166	3.71
383.613	3.69
384.06	3.67
384.506	3.66
384.953	3.66
385.4	3.66
385.846	3.67
386.292	3.66
386.739	3.65
387.185	3.64
387.631	3.65
388.078	3.65
388.524	3.64
388.97	3.64
389.416	3.65
389.862	3.65
390.308	3.65
390.754	3.65
391.2	3.65
391.645	3.65
392.091	3.68
392.537	3.67
392.983	3.68
393.428	3.68
393.874	3.68
394.319	3.68
394.765	3.67
395.21	3.67
395.655	3.66
396.101	3.68
396.546	3.68
396.991	3.68
397.436	3.68
397.881	3.7
398.326	3.71
398.771	3.72
399.216	3.72
399.661	3.74
400.106	3.75
400.551	3.75
400.995	3.75
401.44	3.75
401.885	3.75
402.329	3.76
402.774	3.76
403.218	3.78
403.663	3.78
404.107	3.8
404.551	3.8
404.995	3.81
405.44	3.81
405.884	3.82
406.328	3.82
406.772	3.82
407.216	3.83
407.66	3.83
408.104	3.82
408.547	3.82
408.991	3.83
409.435	3.83
409.879	3.83
410.322	3.85
410.766	3.86
411.209	3.88
411.653	3.91
412.096	3.92
412.54	3.93
412.983	3.94
413.426	3.98
413.869	3.99
414.312	4.01
414.756	4.02
415.199	4.03
415.642	4.03
416.085	4.04
416.527	4.03
416.97	4.01
417.413	4.01
417.856	4
418.298	3.98
418.741	3.98
419.184	3.98
419.626	3.98
420.069	3.97
420.511	3.98
420.953	3.98
421.396	4
421.838	4.01
422.28	4.01
422.722	4.03
423.164	4.03
423.606	4.04
424.048	4.05
424.49	4.06
424.932	4.06
425.374	4.05
425.816	4.02
426.258	4.01
426.699	4
427.141	4.01
427.582	4.02
428.024	4.02
428.465	4.02
428.907	4.01
429.348	3.99
429.789	3.98
430.231	4.01
430.672	4.02
431.113	4.04
431.554	4.05
431.995	4.05
432.436	4.04
432.877	4.05
433.318	4.07
433.759	4.08
434.2	4.09
434.64	4.11
435.081	4.13
435.522	4.14
435.962	4.15
436.403	4.17
436.843	4.18
437.284	4.18
437.724	4.17
438.164	4.15
438.604	4.17
439.045	4.17
439.485	4.17
439.925	4.16
440.365	4.16
440.805	4.15
441.245	4.16
441.685	4.17
442.125	4.18
442.564	4.19
443.004	4.2
443.444	4.2
443.883	4.21
444.323	4.2
444.762	4.21
445.202	4.22
445.641	4.22
446.081	4.21
446.52	4.2
446.959	4.22
447.398	4.23
447.837	4.22
448.276	4.23
448.716	4.23
449.154	4.24
449.593	4.25
450.032	4.24
450.471	4.23
450.91	4.23
451.349	4.24
451.787	4.22
452.226	4.2
452.664	4.21
453.103	4.19
453.541	4.18
453.98	4.17
454.418	4.15
454.856	4.15
455.295	4.14
455.733	4.13
456.171	4.12
456.609	4.11
457.047	4.09
457.485	4.08
457.923	4.08
458.361	4.08
458.798	4.08
459.236	4.08
459.674	4.07
460.111	4.07
460.549	4.07
460.987	4.06
461.424	4.07
461.862	4.08
462.299	4.08
462.736	4.08
463.173	4.09
463.611	4.09
464.048	4.1
464.485	4.11
464.922	4.11
465.359	4.13
465.796	4.14
466.233	4.14
466.67	4.15
467.106	4.16
467.543	4.16
467.98	4.13
468.416	4.11
468.853	4.1
469.29	4.1
469.726	4.09
470.162	4.08
470.599	4.08
471.035	4.07
471.471	4.05
471.907	4.04
472.344	4.03
472.78	4.05
473.216	4.05
473.652	4.05
474.088	4.03
474.523	4.03
474.959	4.01
475.395	3.99
475.831	3.98
476.266	3.98
476.702	3.97
477.138	3.97
477.573	3.94
478.008	3.94
478.444	3.91
478.879	3.92
479.314	3.9
479.75	3.9
480.185	3.88
480.62	3.87
481.055	3.86
481.49	3.85
481.925	3.84
482.36	3.84
482.795	3.82
483.229	3.82
483.664	3.82
484.099	3.81
484.534	3.8
484.968	3.81
485.403	3.82
485.837	3.82
486.271	3.82
486.706	3.83
487.14	3.82
487.574	3.84
488.009	3.85
488.443	3.85
488.877	3.86
489.311	3.88
489.745	3.9
490.179	3.92
490.613	3.95
491.046	3.96
491.48	3.97
491.914	4
492.348	4.02
492.781	4.04
493.215	4.08
493.648	4.1
494.082	4.12
494.515	4.15
494.948	4.18
495.382	4.2
495.815	4.23
496.248	4.27
496.681	4.31
497.114	4.35
497.547	4.39
497.98	4.44
498.413	4.48
498.846	4.54
499.279	4.59
499.711	4.64
500.144	4.71
500.577	4.77
501.009	4.83
501.442	4.9
501.874	4.99
502.306	5.06
502.739	5.15
503.171	5.24
503.603	5.31
504.036	5.42
504.468	5.51
504.9	5.61
505.332	5.71
505.764	5.83
506.196	5.94
506.627	6.06
507.059	6.19
507.491	6.31
507.923	6.45
508.354	6.61
508.786	6.76
509.217	6.91
509.649	7.08
510.08	7.25
510.512	7.42
510.943	7.6
511.374	7.78
511.805	7.97
512.237	8.16
512.668	8.35
513.099	8.54
513.53	8.74
513.961	8.95
514.391	9.16
514.822	9.37
515.253	9.58
515.684	9.8
516.114	10.02
516.545	10.24
516.975	10.47
517.406	10.68
517.836	10.91
518.267	11.15
518.697	11.37
519.127	11.59
519.558	11.83
519.988	12.05
520.418	12.26
520.848	12.49
521.278	12.7
521.708	12.98
522.138	13.2
522.567	13.4
522.997	13.61
523.427	13.82
523.857	14.02
524.286	14.19
524.716	14.38
525.145	14.56
525.575	14.73
526.004	14.91
526.433	15.02
526.863	15.18
527.292	15.33
527.721	15.47
528.15	15.59
528.579	15.74
529.008	15.88
529.437	16
529.866	16.11
530.295	16.22
530.724	16.32
531.152	16.41
531.581	16.52
532.01	16.61
532.438	16.71
532.867	16.79
533.295	16.87
533.723	16.94
534.152	17.01
534.58	17.09
535.008	17.15
535.436	17.22
535.865	17.27
536.293	17.31
536.721	17.35
537.149	17.39
537.576	17.43
538.004	17.48
538.432	17.52
538.86	17.55
539.287	17.57
539.715	17.61
540.143	17.64
540.57	17.67
540.998	17.69
541.425	17.72
541.852	17.74
542.28	17.77
542.707	17.78
543.134	17.78
543.561	17.82
543.988	17.84
544.415	17.85
544.842	17.86
545.269	17.89
545.696	17.91
546.123	17.93
546.549	17.96
546.976	17.98
547.403	18
547.829	18.02
548.256	18.04
548.682	18.06
549.108	18.07
549.535	18.09
549.961	18.09
550.387	18.08
550.813	18.08
551.24	18.06
551.666	18.07
552.092	18.05
552.518	18.04
552.943	18.02
553.369	18
553.795	17.99
554.221	17.96
554.646	17.93
555.072	17.9
555.498	17.86
555.923	17.82
556.349	17.76
556.774	17.71
557.199	17.65
557.625	17.58
558.05	17.51
558.475	17.44
558.9	17.37
559.325	17.3
559.75	17.23
560.175	17.16
560.6	17.06
561.025	16.98
561.449	16.88
561.874	16.79
562.299	16.7
562.723	16.59
563.148	16.47
563.572	16.35
563.997	16.24
564.421	16.11
564.846	15.99
565.27	15.87
565.694	15.74
566.118	15.62
566.542	15.5
566.966	15.37
567.39	15.26
567.814	15.15
568.238	15.02
568.662	14.89
569.086	14.77
569.509	14.66
569.933	14.54
570.357	14.42
570.78	14.29
571.204	14.17
571.627	14.06
572.05	13.93
572.474	13.82
572.897	13.71
573.32	13.59
573.743	13.49
574.166	13.37
574.589	13.26
575.012	13.16
575.435	13.08
575.858	12.99
576.281	12.89
576.704	12.81
577.126	12.72
577.549	12.64
577.972	12.55
578.394	12.47
578.817	12.4
579.239	12.33
579.661	12.27
580.084	12.19
580.506	12.12
580.928	12.06
581.35	11.99
581.772	11.92
582.194	11.86
582.616	11.8
583.038	11.73
583.46	11.66
583.882	11.61
584.303	11.53
584.725	11.47
585.147	11.42
585.568	11.36
585.99	11.31
586.411	11.26
586.833	11.21
587.254	11.16
587.675	11.12
588.096	11.08
588.518	11.03
588.939	11
589.36	10.97
589.781	10.91
590.202	10.88
590.623	10.85
591.043	10.81
591.464	10.79
591.885	10.75
592.305	10.72
592.726	10.69
593.147	10.67
593.567	10.63
593.987	10.6
594.408	10.58
594.828	10.54
595.248	10.53
595.669	10.5
596.089	10.46
596.509	10.43
596.929	10.42
597.349	10.39
597.769	10.37
598.189	10.34
598.608	10.31
599.028	10.29
599.448	10.26
599.867	10.22
600.287	10.19
600.706	10.16
601.126	10.13
601.545	10.09
601.965	10.06
602.384	10.01
602.803	9.97
603.222	9.93
603.641	9.88
604.061	9.85
604.48	9.8
604.898	9.76
605.317	9.72
605.736	9.67
606.155	9.62
606.574	9.57
606.992	9.51
607.411	9.46
607.829	9.38
608.248	9.31
608.666	9.25
609.085	9.19
609.503	9.13
609.921	9.07
610.339	9.02
610.758	8.96
611.176	8.91
611.594	8.85
612.012	8.79
612.43	8.76
612.847	8.7
613.265	8.65
613.683	8.59
614.101	8.53
614.518	8.47
614.936	8.42
615.353	8.35
615.771	8.3
616.188	8.25
616.606	8.21
617.023	8.16
617.44	8.12
617.857	8.08
618.274	8.04
618.691	8.01
619.108	7.97
619.525	7.93
619.942	7.9
620.359	7.88
620.776	7.85
621.192	7.83
621.609	7.81
622.026	7.77
622.442	7.75
622.859	7.73
623.275	7.71
623.691	7.69
624.108	7.67
624.524	7.65
624.94	7.64
625.356	7.63
625.772	7.62
626.188	7.6
626.604	7.61
627.02	7.59
627.436	7.59
627.852	7.58
628.268	7.57
628.683	7.56
629.099	7.55
629.514	7.54
629.93	7.51
630.345	7.5
630.761	7.49
631.176	7.46
631.591	7.44
632.007	7.4
632.422	7.37
632.837	7.34
633.252	7.3
633.667	7.26
634.082	7.21
634.497	7.16
634.911	7.12
635.326	7.06
635.741	7.02
636.155	6.96
636.57	6.91
636.984	6.85
637.399	6.8
637.813	6.73
638.228	6.65
638.642	6.59
639.056	6.51
639.47	6.43
639.884	6.36
640.298	6.27
640.712	6.19
641.126	6.11
641.54	6.03
641.954	5.95
642.368	5.88
642.781	5.82
643.195	5.75
643.609	5.7
644.022	5.63
644.436	5.57
644.849	5.51
645.262	5.45
645.676	5.39
646.089	5.35
646.502	5.31
646.915	5.26
647.328	5.22
647.741	5.17
648.154	5.12
648.567	5.1
648.98	5.07
649.393	5.05
649.805	5.02
650.218	5
650.631	4.97
651.043	4.95
651.456	4.92
651.868	4.9
652.28	4.89
652.693	4.87
653.105	4.84
653.517	4.81
653.929	4.78
654.341	4.76
654.753	4.72
655.165	4.68
655.577	4.65
655.989	4.63
656.401	4.58
656.813	4.55
657.224	4.51
657.636	4.46
658.047	4.43
658.459	4.38
658.87	4.34
659.282	4.3
659.693	4.27
660.104	4.2
660.515	4.15
660.926	4.11
661.338	4.06
661.749	4.03
662.159	4
662.57	3.97
662.981	3.93
663.392	3.9
663.803	3.86
664.213	3.83
664.624	3.82
665.035	3.8
665.445	3.79
665.855	3.77
666.266	3.75
666.676	3.74
667.086	3.72
667.497	3.7
667.907	3.7
668.317	3.7
668.727	3.7
669.137	3.7
669.547	3.71
669.956	3.7
670.366	3.71
670.776	3.71
671.186	3.72
671.595	3.72
672.005	3.73
672.414	3.73
672.824	3.74
673.233	3.76
673.642	3.77
674.052	3.78
674.461	3.8
674.87	3.81
675.279	3.83
675.688	3.86
676.097	3.88
676.506	3.91
676.915	3.93
677.323	3.96
677.732	3.98
678.141	4.02
678.549	4.04
678.958	4.08
679.366	4.11
679.775	4.14
680.183	4.18
680.592	4.22
681	4.25
681.408	4.3
681.816	4.35
682.224	4.4
682.632	4.45
683.04	4.51
683.448	4.58
683.856	4.66
684.264	4.75
684.671	4.84
685.079	4.95
685.487	5.07
685.894	5.21
686.302	5.36
686.709	5.53
687.116	5.72
687.524	5.93
687.931	6.16
688.338	6.4
688.745	6.65
689.152	6.93
689.559	7.23
689.966	7.55
690.373	7.9
690.78	8.25
691.187	8.62
691.593	9
692	9.4
692.407	9.81
692.813	10.25
693.22	10.68
693.626	11.14
694.032	11.6
694.439	12.06
694.845	12.53
695.251	13
695.657	13.47
696.063	13.94
696.469	14.42
696.875	14.91
697.281	15.38
697.687	15.87
698.093	16.33
698.498	16.79
698.904	17.26
699.31	17.72
699.715	18.2
700.12	18.66
700.526	19.12
700.931	19.57
701.337	20.01
701.742	20.43
702.147	20.86
702.552	21.29
702.957	21.71
703.362	22.12
703.767	22.53
704.172	22.92
704.577	23.31
704.981	23.71
705.386	24.08
705.791	24.45
706.195	24.83
706.6	25.2
707.004	25.56
707.408	25.9
707.813	26.25
708.217	26.6
708.621	26.94
709.025	27.27
709.43	27.6
709.834	27.93
710.237	28.26
710.641	28.58
711.045	28.9
711.449	29.21
711.853	29.55
712.256	29.85
712.66	30.14
713.064	30.42
713.467	30.71
713.87	30.99
714.274	31.25
714.677	31.53
715.08	31.79
715.484	32.05
715.887	32.33
716.29	32.55
716.693	32.81
717.096	33.06
717.499	33.33
717.901	33.56
718.304	33.79
718.707	34.04
719.109	34.26
719.512	34.5
719.915	34.71
720.317	34.9
720.719	35.08
721.122	35.29
721.524	35.48
721.926	35.66
722.328	35.85
722.731	36.03
723.133	36.21
723.535	36.38
723.937	36.53
724.338	36.69
724.74	36.85
725.142	37.1
725.544	37.23
725.945	37.41
726.347	37.5
726.748	37.63
727.15	37.74
727.551	37.89
727.952	37.98
728.354	38.1
728.755	38.21
729.156	38.31
729.557	38.35
729.958	38.44
730.359	38.53
730.76	38.65
731.161	38.76
731.562	38.86
731.962	38.93
732.363	39.03
732.763	39.11
733.164	39.17
733.564	39.27
733.965	39.33
734.365	39.41
734.766	39.46
735.166	39.52
735.566	39.56
735.966	39.63
736.366	39.68
736.766	39.76
737.166	39.81
737.566	39.87
737.966	39.91
738.365	39.96
738.765	40
739.165	40.06
739.564	40.13
739.964	40.18
740.363	40.21
740.763	40.26
741.162	40.3
741.561	40.33
741.96	40.35
742.36	40.41
742.759	40.44
743.158	40.44
743.557	40.44
743.955	40.46
744.354	40.49
744.753	40.53
745.152	40.56
745.55	40.58
745.949	40.63
746.348	40.66
746.746	40.65
747.144	40.67
747.543	40.72
747.941	40.77
748.339	40.76
748.737	40.77
749.136	40.76
749.534	40.74
749.932	40.75
750.33	40.73
750.727	40.76
751.125	40.78
751.523	40.78
751.921	40.78
752.318	40.79
752.716	40.8
753.113	40.81
753.511	40.83
753.908	40.87
754.305	40.88
754.703	40.88
755.1	40.85
755.497	40.84
755.894	40.83
756.291	40.81
756.688	40.79
757.085	40.78
757.482	40.76
757.878	40.76
758.275	40.74
758.672	40.74
759.068	40.76
759.465	40.76
759.861	40.77
760.258	40.79
760.654	40.81
761.05	40.82
761.447	40.84
761.843	40.85
762.239	40.84
762.635	40.86
763.031	40.85
763.427	40.84
763.822	40.85
764.218	40.89
764.614	40.91
765.01	40.91
765.405	40.91
765.801	40.91
766.196	40.91
766.592	40.94
766.987	40.9
767.382	40.91
767.778	40.92
768.173	40.93
768.568	40.91
768.963	40.89
769.358	40.9
769.753	40.87
770.148	40.86
770.542	40.87
770.937	40.86
771.332	40.86
771.726	40.87
772.121	40.88
772.515	40.87
772.91	40.86
773.304	40.87
773.699	40.87
774.093	40.88
774.487	40.89
774.881	40.89
775.275	40.88
775.669	40.87
776.063	40.85
776.457	40.86
776.851	40.85
777.245	40.84
777.638	40.81
778.032	40.81
778.425	40.82
778.819	40.82
779.212	40.86
779.606	40.88
779.999	40.88
780.392	40.9
780.786	40.89
781.179	40.89
781.572	40.9
781.965	40.93
782.358	40.92
782.751	40.93
783.143	40.91
783.536	40.88
783.929	40.86
784.322	40.88
784.714	40.88
785.107	40.89
785.499	40.89
785.891	40.89
