Data from N_2_DIV_IL_4N_Splice17_13-37-34-940.txt Node
Date: Sat Mar 07 13:37:34 EST 2020
User: sa697716
Spectrometer: NQ5500242
Trigger mode: 0
Integration Time (sec): 1.450000E-1
Scans to average: 20
Nonlinearity correction enabled: false
Boxcar width: 5
Storing dark spectrum: false
XAxis mode: Wavelengths
Number of Pixels in Spectrum: 512
>>>>>Begin Spectral Data<<<<<
187.83	197.36
188.298	204.11
188.766	163
189.233	138.36
189.701	138.21
190.169	183.61
190.636	180.93
191.104	203.16
191.571	-14.93
192.039	33.75
192.506	-398.16
192.974	114.69
193.441	74.84
193.908	-42.98
194.375	-21.48
194.842	-58
195.31	21.63
195.777	-41.01
196.244	83
196.711	84.51
197.177	87.27
197.644	85.34
198.111	85.94
198.578	86.6
199.045	87.24
199.511	86.72
199.978	86.55
200.445	86.87
200.911	86.88
201.378	86.73
201.844	86.52
202.31	85.86
202.777	85.92
203.243	85.74
203.709	85.13
204.176	84.24
204.642	84.04
205.108	83.68
205.574	82.7
206.04	81.82
206.506	81.05
206.972	80.34
207.438	79.44
207.903	78.09
208.369	76.11
208.835	74.07
209.301	72.35
209.766	70.11
210.232	67.9
210.697	65.83
211.163	63.78
211.628	61.86
212.094	60.05
212.559	58.59
213.024	57.02
213.49	55.69
213.955	54.38
214.42	52.77
214.885	50.87
215.35	48.57
215.815	45.74
216.28	42.36
216.745	38.27
217.21	34.28
217.675	30.4
218.14	27.12
218.604	24.24
219.069	21.84
219.534	19.84
219.998	18.27
220.463	16.91
220.927	15.73
221.392	14.79
221.856	14.08
222.32	13.45
222.785	12.92
223.249	12.43
223.713	12
224.177	11.66
224.642	11.31
225.106	10.96
225.57	10.64
226.034	10.37
226.497	10.1
226.961	9.83
227.425	9.62
227.889	9.41
228.353	9.22
228.816	9.02
229.28	8.82
229.744	8.66
230.207	8.5
230.671	8.35
231.134	8.2
231.597	8.09
232.061	7.97
232.524	7.84
232.987	7.7
233.45	7.61
233.914	7.51
234.377	7.41
234.84	7.32
235.303	7.25
235.766	7.18
236.229	7.11
236.691	7.02
237.154	6.95
237.617	6.89
238.08	6.82
238.542	6.75
239.005	6.69
239.468	6.63
239.93	6.57
240.393	6.52
240.855	6.43
241.317	6.36
241.78	6.3
242.242	6.23
242.704	6.18
243.166	6.13
243.629	6.08
244.091	6.02
244.553	5.96
245.015	5.89
245.477	5.83
245.939	5.78
246.4	5.74
246.862	5.69
247.324	5.64
247.786	5.59
248.247	5.54
248.709	5.46
249.17	5.41
249.632	5.37
250.093	5.33
250.555	5.29
251.016	5.24
251.477	5.19
251.939	5.16
252.4	5.12
252.861	5.07
253.322	5.04
253.783	5.01
254.244	4.98
254.705	4.94
255.166	4.9
255.627	4.86
256.088	4.83
256.549	4.8
257.009	4.75
257.47	4.71
257.931	4.66
258.391	4.61
258.852	4.56
259.312	4.51
259.773	4.47
260.233	4.43
260.694	4.39
261.154	4.34
261.614	4.3
262.074	4.26
262.534	4.22
262.994	4.18
263.455	4.15
263.915	4.12
264.374	4.08
264.834	4.05
265.294	4.02
265.754	3.99
266.214	3.97
266.673	3.94
267.133	3.92
267.593	3.9
268.052	3.89
268.512	3.87
268.971	3.86
269.431	3.84
269.89	3.82
270.349	3.81
270.809	3.79
271.268	3.78
271.727	3.77
272.186	3.76
272.645	3.76
273.104	3.74
273.563	3.72
274.022	3.71
274.481	3.7
274.94	3.7
275.399	3.68
275.857	3.67
276.316	3.66
276.775	3.66
277.233	3.65
277.692	3.65
278.15	3.65
278.609	3.65
279.067	3.65
279.525	3.65
279.984	3.64
280.442	3.64
280.9	3.65
281.358	3.65
281.816	3.65
282.274	3.65
282.732	3.64
283.19	3.64
283.648	3.64
284.106	3.64
284.564	3.64
285.021	3.64
285.479	3.64
285.937	3.63
286.394	3.63
286.852	3.62
287.309	3.62
287.767	3.61
288.224	3.6
288.682	3.59
289.139	3.57
289.596	3.56
290.053	3.54
290.511	3.52
290.968	3.5
291.425	3.48
291.882	3.47
292.339	3.45
292.796	3.44
293.252	3.43
293.709	3.42
294.166	3.41
294.623	3.4
295.079	3.39
295.536	3.39
295.992	3.38
296.449	3.38
296.905	3.37
297.362	3.37
297.818	3.37
298.274	3.37
298.731	3.36
299.187	3.35
299.643	3.34
300.099	3.35
300.555	3.34
301.011	3.34
301.467	3.34
301.923	3.33
302.379	3.33
302.835	3.33
303.291	3.33
303.746	3.34
304.202	3.34
304.658	3.35
305.113	3.35
305.569	3.36
306.024	3.36
306.479	3.36
306.935	3.37
307.39	3.37
307.845	3.38
308.301	3.38
308.756	3.39
309.211	3.39
309.666	3.4
310.121	3.41
310.576	3.42
311.031	3.42
311.486	3.44
311.94	3.45
312.395	3.45
312.85	3.45
313.305	3.45
313.759	3.47
314.214	3.47
314.668	3.46
315.123	3.46
315.577	3.46
316.032	3.46
316.486	3.45
316.94	3.45
317.394	3.44
317.849	3.42
318.303	3.42
318.757	3.39
319.211	3.39
319.665	3.37
320.119	3.36
320.572	3.35
321.026	3.34
321.48	3.34
321.934	3.32
322.387	3.31
322.841	3.31
323.295	3.31
323.748	3.32
324.202	3.31
324.655	3.32
325.108	3.33
325.562	3.33
326.015	3.34
326.468	3.34
326.921	3.35
327.374	3.35
327.827	3.36
328.28	3.36
328.733	3.37
329.186	3.38
329.639	3.38
330.092	3.37
330.545	3.38
330.997	3.38
331.45	3.39
331.903	3.41
332.355	3.41
332.808	3.42
333.26	3.42
333.713	3.43
334.165	3.43
334.617	3.44
335.069	3.44
335.522	3.45
335.974	3.46
336.426	3.45
336.878	3.45
337.33	3.45
337.782	3.45
338.234	3.46
338.686	3.45
339.137	3.46
339.589	3.46
340.041	3.45
340.493	3.44
340.944	3.43
341.396	3.42
341.847	3.41
342.299	3.4
342.75	3.38
343.201	3.36
343.653	3.35
344.104	3.32
344.555	3.31
345.006	3.3
345.457	3.29
345.908	3.28
346.359	3.27
346.81	3.26
347.261	3.26
347.712	3.26
348.163	3.26
348.613	3.27
349.064	3.27
349.515	3.27
349.965	3.28
350.416	3.27
350.866	3.28
351.317	3.27
351.767	3.28
352.217	3.28
352.668	3.27
353.118	3.28
353.568	3.27
354.018	3.28
354.468	3.29
354.918	3.29
355.368	3.3
355.818	3.31
356.268	3.32
356.718	3.33
357.168	3.33
357.617	3.33
358.067	3.34
358.517	3.35
358.966	3.36
359.416	3.35
359.865	3.36
360.315	3.36
360.764	3.36
361.213	3.36
361.663	3.35
362.112	3.36
362.561	3.36
363.01	3.36
363.459	3.34
363.908	3.33
364.357	3.33
364.806	3.33
365.255	3.33
365.703	3.33
366.152	3.34
366.601	3.35
367.05	3.35
367.498	3.35
367.947	3.35
368.395	3.36
368.844	3.36
369.292	3.36
369.74	3.37
370.189	3.36
370.637	3.36
371.085	3.34
371.533	3.35
371.981	3.34
372.429	3.35
372.877	3.35
373.325	3.35
373.773	3.35
374.221	3.34
374.669	3.32
375.116	3.32
375.564	3.31
376.012	3.31
376.459	3.31
376.907	3.31
377.354	3.3
377.801	3.3
378.249	3.3
378.696	3.3
379.143	3.31
379.591	3.31
380.038	3.31
380.485	3.31
380.932	3.31
381.379	3.32
381.826	3.32
382.273	3.31
382.72	3.3
383.166	3.3
383.613	3.3
384.06	3.28
384.506	3.28
384.953	3.28
385.4	3.27
385.846	3.27
386.292	3.26
386.739	3.26
387.185	3.26
387.631	3.27
388.078	3.27
388.524	3.28
388.97	3.29
389.416	3.3
389.862	3.31
390.308	3.32
390.754	3.34
391.2	3.36
391.645	3.36
392.091	3.39
392.537	3.39
392.983	3.4
393.428	3.41
393.874	3.42
394.319	3.42
394.765	3.43
395.21	3.43
395.655	3.44
396.101	3.46
396.546	3.47
396.991	3.48
397.436	3.5
397.881	3.53
398.326	3.55
398.771	3.57
399.216	3.6
399.661	3.62
400.106	3.65
400.551	3.65
400.995	3.66
401.44	3.67
401.885	3.68
402.329	3.7
402.774	3.71
403.218	3.75
403.663	3.76
404.107	3.78
404.551	3.79
404.995	3.8
405.44	3.81
405.884	3.84
406.328	3.87
406.772	3.89
407.216	3.9
407.66	3.91
408.104	3.91
408.547	3.93
408.991	3.94
409.435	3.95
409.879	3.98
410.322	4.02
410.766	4.05
411.209	4.08
411.653	4.11
412.096	4.15
412.54	4.19
412.983	4.22
413.426	4.27
413.869	4.32
414.312	4.37
414.756	4.41
415.199	4.42
415.642	4.44
416.085	4.46
416.527	4.47
416.97	4.48
417.413	4.49
417.856	4.51
418.298	4.51
418.741	4.51
419.184	4.53
419.626	4.54
420.069	4.57
420.511	4.59
420.953	4.6
421.396	4.62
421.838	4.65
422.28	4.67
422.722	4.69
423.164	4.71
423.606	4.73
424.048	4.73
424.49	4.74
424.932	4.74
425.374	4.71
425.816	4.69
426.258	4.68
426.699	4.67
427.141	4.68
427.582	4.68
428.024	4.69
428.465	4.69
428.907	4.7
429.348	4.7
429.789	4.71
430.231	4.75
430.672	4.79
431.113	4.83
431.554	4.86
431.995	4.88
432.436	4.89
432.877	4.92
433.318	4.94
433.759	4.98
434.2	5.02
434.64	5.05
435.081	5.07
435.522	5.09
435.962	5.12
436.403	5.16
436.843	5.18
437.284	5.19
437.724	5.19
438.164	5.2
438.604	5.21
439.045	5.22
439.485	5.24
439.925	5.25
440.365	5.25
440.805	5.27
441.245	5.28
441.685	5.32
442.125	5.35
442.564	5.38
443.004	5.39
443.444	5.41
443.883	5.43
444.323	5.43
444.762	5.46
445.202	5.49
445.641	5.53
446.081	5.55
446.52	5.55
446.959	5.57
447.398	5.61
447.837	5.64
448.276	5.66
448.716	5.68
449.154	5.71
449.593	5.73
450.032	5.73
450.471	5.72
450.91	5.72
451.349	5.74
451.787	5.73
452.226	5.72
452.664	5.72
453.103	5.7
453.541	5.69
453.98	5.69
454.418	5.67
454.856	5.66
455.295	5.65
455.733	5.61
456.171	5.59
456.609	5.59
457.047	5.56
457.485	5.56
457.923	5.55
458.361	5.55
458.798	5.54
459.236	5.54
459.674	5.53
460.111	5.53
460.549	5.55
460.987	5.55
461.424	5.56
461.862	5.58
462.299	5.6
462.736	5.6
463.173	5.59
463.611	5.6
464.048	5.62
464.485	5.63
464.922	5.62
465.359	5.63
465.796	5.65
466.233	5.65
466.67	5.65
467.106	5.66
467.543	5.67
467.98	5.67
468.416	5.66
468.853	5.66
469.29	5.66
469.726	5.66
470.162	5.66
470.599	5.65
471.035	5.63
471.471	5.62
471.907	5.61
472.344	5.61
472.78	5.63
473.216	5.62
473.652	5.61
474.088	5.6
474.523	5.59
474.959	5.58
475.395	5.56
475.831	5.56
476.266	5.56
476.702	5.55
477.138	5.54
477.573	5.53
478.008	5.53
478.444	5.52
478.879	5.53
479.314	5.52
479.75	5.51
480.185	5.5
480.62	5.49
481.055	5.47
481.49	5.46
481.925	5.45
482.36	5.45
482.795	5.44
483.229	5.43
483.664	5.43
484.099	5.42
484.534	5.42
484.968	5.42
485.403	5.43
485.837	5.44
486.271	5.46
486.706	5.46
487.14	5.46
487.574	5.47
488.009	5.49
488.443	5.5
488.877	5.53
489.311	5.56
489.745	5.59
490.179	5.63
490.613	5.67
491.046	5.7
491.48	5.74
491.914	5.79
492.348	5.83
492.781	5.88
493.215	5.94
493.648	6
494.082	6.05
494.515	6.1
494.948	6.16
495.382	6.21
495.815	6.28
496.248	6.35
496.681	6.42
497.114	6.49
497.547	6.57
497.98	6.65
498.413	6.73
498.846	6.82
499.279	6.92
499.711	7.01
500.144	7.12
500.577	7.24
501.009	7.34
501.442	7.47
501.874	7.6
502.306	7.72
502.739	7.87
503.171	8
503.603	8.14
504.036	8.29
504.468	8.44
504.9	8.59
505.332	8.75
505.764	8.92
506.196	9.09
506.627	9.26
507.059	9.46
507.491	9.64
507.923	9.83
508.354	10.05
508.786	10.27
509.217	10.49
509.649	10.72
510.08	10.94
510.512	11.17
510.943	11.41
511.374	11.65
511.805	11.89
512.237	12.14
512.668	12.39
513.099	12.63
513.53	12.88
513.961	13.14
514.391	13.42
514.822	13.7
515.253	13.97
515.684	14.23
516.114	14.51
516.545	14.79
516.975	15.08
517.406	15.38
517.836	15.66
518.267	15.96
518.697	16.22
519.127	16.47
519.558	16.73
519.988	17
520.418	17.27
520.848	17.53
521.278	17.78
521.708	18.22
522.138	18.45
522.567	18.68
522.997	18.9
523.427	19.15
523.857	19.37
524.286	19.59
524.716	19.81
525.145	20.01
525.575	20.23
526.004	20.44
526.433	20.43
526.863	20.62
527.292	20.81
527.721	20.98
528.15	21.15
528.579	21.32
529.008	21.47
529.437	21.62
529.866	21.77
530.295	21.91
530.724	22.04
531.152	22.16
531.581	22.3
532.01	22.4
532.438	22.52
532.867	22.63
533.295	22.73
533.723	22.81
534.152	22.9
534.58	22.99
535.008	23.04
535.436	23.12
535.865	23.2
536.293	23.25
536.721	23.3
537.149	23.36
537.576	23.41
538.004	23.47
538.432	23.52
538.86	23.57
539.287	23.6
539.715	23.65
540.143	23.68
540.57	23.71
540.998	23.75
541.425	23.8
541.852	23.82
542.28	23.86
542.707	23.88
543.134	23.92
543.561	23.96
543.988	23.99
544.415	24.02
544.842	24.04
545.269	24.07
545.696	24.1
546.123	24.11
546.549	24.14
546.976	24.18
547.403	24.22
547.829	24.23
548.256	24.24
548.682	24.26
549.108	24.28
549.535	24.31
549.961	24.31
550.387	24.32
550.813	24.33
551.24	24.35
551.666	24.34
552.092	24.33
552.518	24.33
552.943	24.33
553.369	24.32
553.795	24.3
554.221	24.29
554.646	24.27
555.072	24.24
555.498	24.21
555.923	24.15
556.349	24.1
556.774	24.06
557.199	24
557.625	23.93
558.05	23.88
558.475	23.82
558.9	23.73
559.325	23.68
559.75	23.61
560.175	23.54
560.6	23.46
561.025	23.38
561.449	23.3
561.874	23.22
562.299	23.15
562.723	23.05
563.148	22.95
563.572	22.86
563.997	22.75
564.421	22.63
564.846	22.5
565.27	22.39
565.694	22.27
566.118	22.15
566.542	22.03
566.966	21.9
567.39	21.76
567.814	21.64
568.238	21.5
568.662	21.36
569.086	21.25
569.509	21.13
569.933	21.01
570.357	20.89
570.78	20.76
571.204	20.64
571.627	20.52
572.05	20.41
572.474	20.3
572.897	20.2
573.32	20.1
573.743	19.99
574.166	19.9
574.589	19.79
575.012	19.69
575.435	19.59
575.858	19.49
576.281	19.39
576.704	19.29
577.126	19.2
577.549	19.1
577.972	19
578.394	18.91
578.817	18.82
579.239	18.74
579.661	18.66
580.084	18.59
580.506	18.51
580.928	18.45
581.35	18.38
581.772	18.3
582.194	18.25
582.616	18.19
583.038	18.13
583.46	18.05
583.882	17.99
584.303	17.92
584.725	17.86
585.147	17.8
585.568	17.73
585.99	17.66
586.411	17.61
586.833	17.55
587.254	17.49
587.675	17.42
588.096	17.38
588.518	17.32
588.939	17.29
589.36	17.24
589.781	17.18
590.202	17.15
590.623	17.11
591.043	17.06
591.464	17.02
591.885	16.97
592.305	16.94
592.726	16.91
593.147	16.87
593.567	16.81
593.987	16.77
594.408	16.75
594.828	16.7
595.248	16.68
595.669	16.65
596.089	16.62
596.509	16.6
596.929	16.57
597.349	16.53
597.769	16.5
598.189	16.48
598.608	16.46
599.028	16.43
599.448	16.4
599.867	16.35
600.287	16.31
600.706	16.27
601.126	16.23
601.545	16.19
601.965	16.15
602.384	16.11
602.803	16.05
603.222	16
603.641	15.95
604.061	15.89
604.48	15.84
604.898	15.79
605.317	15.73
605.736	15.67
606.155	15.61
606.574	15.55
606.992	15.48
607.411	15.42
607.829	15.33
608.248	15.25
608.666	15.18
609.085	15.1
609.503	15.02
609.921	14.95
610.339	14.88
610.758	14.8
611.176	14.71
611.594	14.63
612.012	14.55
612.43	14.49
612.847	14.41
613.265	14.34
613.683	14.27
614.101	14.2
614.518	14.12
614.936	14.04
615.353	13.97
615.771	13.91
616.188	13.84
616.606	13.79
617.023	13.73
617.44	13.68
617.857	13.63
618.274	13.58
618.691	13.52
619.108	13.47
619.525	13.42
619.942	13.38
620.359	13.34
620.776	13.31
621.192	13.28
621.609	13.25
622.026	13.23
622.442	13.2
622.859	13.17
623.275	13.15
623.691	13.15
624.108	13.13
624.524	13.1
624.94	13.1
625.356	13.07
625.772	13.05
626.188	13.03
626.604	13
627.02	12.99
627.436	12.97
627.852	12.97
628.268	12.94
628.683	12.94
629.099	12.93
629.514	12.91
629.93	12.9
630.345	12.89
630.761	12.86
631.176	12.86
631.591	12.83
632.007	12.79
632.422	12.74
632.837	12.7
633.252	12.65
633.667	12.6
634.082	12.52
634.497	12.46
634.911	12.39
635.326	12.32
635.741	12.23
636.155	12.13
636.57	12.06
636.984	11.98
637.399	11.89
637.813	11.79
638.228	11.69
638.642	11.6
639.056	11.49
639.47	11.38
639.884	11.27
640.298	11.16
640.712	11.05
641.126	10.94
641.54	10.81
641.954	10.68
642.368	10.58
642.781	10.48
643.195	10.37
643.609	10.27
644.022	10.16
644.436	10.06
644.849	9.95
645.262	9.85
645.676	9.75
646.089	9.67
646.502	9.59
646.915	9.51
647.328	9.43
647.741	9.36
648.154	9.29
648.567	9.23
648.98	9.18
649.393	9.13
649.805	9.09
650.218	9.05
650.631	9.01
651.043	8.96
651.456	8.91
651.868	8.86
652.28	8.81
652.693	8.76
653.105	8.72
653.517	8.66
653.929	8.6
654.341	8.53
654.753	8.46
655.165	8.38
655.577	8.32
655.989	8.24
656.401	8.15
656.813	8.07
657.224	7.97
657.636	7.86
658.047	7.77
658.459	7.67
658.87	7.57
659.282	7.47
659.693	7.36
660.104	7.25
660.515	7.14
660.926	7.04
661.338	6.93
661.749	6.84
662.159	6.74
662.57	6.65
662.981	6.56
663.392	6.47
663.803	6.4
664.213	6.31
664.624	6.24
665.035	6.18
665.445	6.1
665.855	6.04
666.266	5.98
666.676	5.93
667.086	5.86
667.497	5.82
667.907	5.78
668.317	5.73
668.727	5.69
669.137	5.65
669.547	5.62
669.956	5.6
670.366	5.58
670.776	5.56
671.186	5.54
671.595	5.53
672.005	5.51
672.414	5.51
672.824	5.51
673.233	5.51
673.642	5.51
674.052	5.51
674.461	5.51
674.87	5.51
675.279	5.52
675.688	5.54
676.097	5.56
676.506	5.57
676.915	5.6
677.323	5.63
677.732	5.65
678.141	5.68
678.549	5.72
678.958	5.77
679.366	5.83
679.775	5.89
680.183	5.97
680.592	6.05
681	6.15
681.408	6.25
681.816	6.37
682.224	6.51
682.632	6.65
683.04	6.81
683.448	6.97
683.856	7.16
684.264	7.35
684.671	7.57
685.079	7.81
685.487	8.06
685.894	8.34
686.302	8.64
686.709	8.96
687.116	9.32
687.524	9.7
687.931	10.09
688.338	10.5
688.745	10.94
689.152	11.38
689.559	11.85
689.966	12.33
690.373	12.83
690.78	13.32
691.187	13.84
691.593	14.36
692	14.87
692.407	15.38
692.813	15.92
693.22	16.45
693.626	16.98
694.032	17.51
694.439	18.04
694.845	18.56
695.251	19.08
695.657	19.59
696.063	20.09
696.469	20.61
696.875	21.11
697.281	21.59
697.687	22.08
698.093	22.55
698.498	23.02
698.904	23.49
699.31	23.94
699.715	24.39
700.12	24.82
700.526	25.24
700.931	25.65
701.337	26.08
701.742	26.47
702.147	26.86
702.552	27.23
702.957	27.59
703.362	27.93
703.767	28.27
704.172	28.61
704.577	28.93
704.981	29.26
705.386	29.57
705.791	29.88
706.195	30.2
706.6	30.5
707.004	30.78
707.408	31.07
707.813	31.37
708.217	31.66
708.621	31.95
709.025	32.2
709.43	32.46
709.834	32.74
710.237	32.98
710.641	33.21
711.045	33.45
711.449	33.7
711.853	33.95
712.256	34.16
712.66	34.36
713.064	34.55
713.467	34.77
713.87	34.97
714.274	35.16
714.677	35.38
715.08	35.57
715.484	35.77
715.887	35.99
716.29	36.16
716.693	36.36
717.096	36.57
717.499	36.75
717.901	36.95
718.304	37.13
718.707	37.3
719.109	37.45
719.512	37.6
719.915	37.77
720.317	37.87
720.719	37.99
721.122	38.13
721.524	38.23
721.926	38.38
722.328	38.49
722.731	38.6
723.133	38.7
723.535	38.83
723.937	38.96
724.338	39.04
724.74	39.14
725.142	39.38
725.544	39.47
725.945	39.62
726.347	39.69
726.748	39.77
727.15	39.85
727.551	39.95
727.952	40.02
728.354	40.08
728.755	40.15
729.156	40.21
729.557	40.17
729.958	40.22
730.359	40.26
730.76	40.33
731.161	40.39
731.562	40.46
731.962	40.5
732.363	40.57
732.763	40.63
733.164	40.69
733.564	40.76
733.965	40.8
734.365	40.86
734.766	40.88
735.166	40.92
735.566	40.96
735.966	41.01
736.366	41.03
736.766	41.05
737.166	41.08
737.566	41.13
737.966	41.16
738.365	41.2
738.765	41.22
739.165	41.27
739.564	41.33
739.964	41.36
740.363	41.37
740.763	41.42
741.162	41.42
741.561	41.43
741.96	41.45
742.36	41.47
742.759	41.49
743.158	41.5
743.557	41.5
743.955	41.49
744.354	41.5
744.753	41.52
745.152	41.53
745.55	41.56
745.949	41.58
746.348	41.59
746.746	41.6
747.144	41.62
747.543	41.62
747.941	41.65
748.339	41.65
748.737	41.65
749.136	41.64
749.534	41.63
749.932	41.62
750.33	41.61
750.727	41.61
751.125	41.62
751.523	41.6
751.921	41.61
752.318	41.61
752.716	41.61
753.113	41.64
753.511	41.65
753.908	41.66
754.305	41.66
754.703	41.66
755.1	41.66
755.497	41.66
755.894	41.66
756.291	41.65
756.688	41.63
757.085	41.63
757.482	41.62
757.878	41.62
758.275	41.61
758.672	41.61
759.068	41.63
759.465	41.63
759.861	41.63
760.258	41.62
760.654	41.64
761.05	41.65
761.447	41.69
761.843	41.7
762.239	41.69
762.635	41.72
763.031	41.75
763.427	41.73
763.822	41.75
764.218	41.77
764.614	41.79
765.01	41.76
765.405	41.76
765.801	41.72
766.196	41.72
766.592	41.71
766.987	41.69
767.382	41.68
767.778	41.7
768.173	41.68
768.568	41.65
768.963	41.66
769.358	41.67
769.753	41.68
770.148	41.72
770.542	41.72
770.937	41.73
771.332	41.75
771.726	41.72
772.121	41.7
772.515	41.7
772.91	41.73
773.304	41.74
773.699	41.73
774.093	41.72
774.487	41.7
774.881	41.73
775.275	41.71
775.669	41.69
776.063	41.69
776.457	41.71
776.851	41.71
777.245	41.68
777.638	41.65
778.032	41.71
778.425	41.73
778.819	41.74
779.212	41.77
779.606	41.82
779.999	41.83
780.392	41.87
780.786	41.86
781.179	41.88
781.572	41.93
