Data from N_2_DEC_CT_2N_Splice17_13-31-32-837.txt Node
Date: Sat Mar 07 13:31:32 EST 2020
User: sa697716
Spectrometer: NQ5500242
Trigger mode: 0
Integration Time (sec): 1.450000E-1
Scans to average: 20
Nonlinearity correction enabled: false
Boxcar width: 5
Storing dark spectrum: false
XAxis mode: Wavelengths
Number of Pixels in Spectrum: 512
>>>>>Begin Spectral Data<<<<<
187.83	117.62
188.298	138.51
188.766	120.44
189.233	102.81
189.701	116.35
190.169	140.36
190.636	150.23
191.104	243.51
191.571	166.13
192.039	-29.22
192.506	163.89
192.974	-2.03
193.441	68.43
193.908	19.83
194.375	56.26
194.842	55.01
195.31	133.25
195.777	343.76
196.244	84.35
196.711	68.34
197.177	68.79
197.644	68.35
198.111	67.61
198.578	67.79
199.045	67.46
199.511	67.28
199.978	67.37
200.445	67.41
200.911	67.37
201.378	67.66
201.844	67.64
202.31	67.36
202.777	67.16
203.243	67.21
203.709	66.79
204.176	66.41
204.642	66.05
205.108	65.92
205.574	65.62
206.04	64.99
206.506	64.27
206.972	64.01
207.438	63.62
207.903	63.17
208.369	62.4
208.835	61.72
209.301	61.26
209.766	60.39
210.232	59.32
210.697	58.3
211.163	57.6
211.628	56.85
212.094	56.02
212.559	55.32
213.024	54.57
213.49	54.1
213.955	53.43
214.42	52.67
214.885	51.71
215.35	50.63
215.815	49.31
216.28	47.38
216.745	45.52
217.21	43.63
217.675	41.82
218.14	40.38
218.604	38.96
219.069	37.96
219.534	37.13
219.998	36.4
220.463	35.83
220.927	35.22
221.392	34.84
221.856	34.47
222.32	34.11
222.785	33.84
223.249	33.56
223.713	33.29
224.177	33.02
224.642	32.74
225.106	32.45
225.57	32.15
226.034	31.96
226.497	31.7
226.961	31.46
227.425	31.23
227.889	30.98
228.353	30.72
228.816	30.49
229.28	30.24
229.744	29.99
230.207	29.74
230.671	29.51
231.134	29.26
231.597	29.04
232.061	28.81
232.524	28.57
232.987	28.35
233.45	28.14
233.914	27.92
234.377	27.71
234.84	27.51
235.303	27.32
235.766	27.14
236.229	26.94
236.691	26.76
237.154	26.56
237.617	26.4
238.08	26.22
238.542	26.03
239.005	25.87
239.468	25.69
239.93	25.51
240.393	25.36
240.855	25.16
241.317	24.99
241.78	24.81
242.242	24.64
242.704	24.49
243.166	24.33
243.629	24.17
244.091	24.02
244.553	23.87
245.015	23.71
245.477	23.56
245.939	23.41
246.4	23.27
246.862	23.13
247.324	22.99
247.786	22.85
248.247	22.69
248.709	22.55
249.17	22.42
249.632	22.31
250.093	22.2
250.555	22.08
251.016	21.98
251.477	21.86
251.939	21.77
252.4	21.68
252.861	21.57
253.322	21.48
253.783	21.4
254.244	21.31
254.705	21.2
255.166	21.11
255.627	21.02
256.088	20.94
256.549	20.87
257.009	20.76
257.47	20.66
257.931	20.58
258.391	20.48
258.852	20.39
259.312	20.31
259.773	20.24
260.233	20.17
260.694	20.1
261.154	20.02
261.614	19.95
262.074	19.9
262.534	19.85
262.994	19.81
263.455	19.78
263.915	19.76
264.374	19.73
264.834	19.71
265.294	19.68
265.754	19.67
266.214	19.67
266.673	19.67
267.133	19.67
267.593	19.65
268.052	19.65
268.512	19.64
268.971	19.63
269.431	19.64
269.89	19.63
270.349	19.63
270.809	19.62
271.268	19.61
271.727	19.59
272.186	19.57
272.645	19.58
273.104	19.55
273.563	19.54
274.022	19.51
274.481	19.49
274.94	19.46
275.399	19.42
275.857	19.4
276.316	19.37
276.775	19.34
277.233	19.32
277.692	19.28
278.15	19.25
278.609	19.22
279.067	19.21
279.525	19.17
279.984	19.13
280.442	19.1
280.9	19.07
281.358	19.04
281.816	19
282.274	18.96
282.732	18.94
283.19	18.89
283.648	18.84
284.106	18.8
284.564	18.76
285.021	18.73
285.479	18.7
285.937	18.64
286.394	18.62
286.852	18.58
287.309	18.54
287.767	18.49
288.224	18.45
288.682	18.42
289.139	18.37
289.596	18.33
290.053	18.28
290.511	18.24
290.968	18.21
291.425	18.16
291.882	18.13
292.339	18.08
292.796	18.05
293.252	18.03
293.709	18
294.166	17.98
294.623	17.94
295.079	17.9
295.536	17.87
295.992	17.84
296.449	17.8
296.905	17.77
297.362	17.74
297.818	17.71
298.274	17.68
298.731	17.63
299.187	17.59
299.643	17.55
300.099	17.53
300.555	17.49
301.011	17.46
301.467	17.42
301.923	17.38
302.379	17.35
302.835	17.32
303.291	17.28
303.746	17.25
304.202	17.22
304.658	17.19
305.113	17.15
305.569	17.12
306.024	17.08
306.479	17.04
306.935	17.01
307.39	16.98
307.845	16.94
308.301	16.9
308.756	16.88
309.211	16.84
309.666	16.81
310.121	16.78
310.576	16.75
311.031	16.72
311.486	16.7
311.94	16.66
312.395	16.64
312.85	16.62
313.305	16.59
313.759	16.57
314.214	16.55
314.668	16.52
315.123	16.47
315.577	16.43
316.032	16.41
316.486	16.37
316.94	16.33
317.394	16.28
317.849	16.23
318.303	16.18
318.757	16.12
319.211	16.08
319.665	16.04
320.119	16.02
320.572	15.98
321.026	15.94
321.48	15.91
321.934	15.87
322.387	15.84
322.841	15.81
323.295	15.8
323.748	15.77
324.202	15.73
324.655	15.69
325.108	15.65
325.562	15.62
326.015	15.59
326.468	15.55
326.921	15.52
327.374	15.49
327.827	15.47
328.28	15.44
328.733	15.42
329.186	15.4
329.639	15.38
330.092	15.36
330.545	15.33
330.997	15.3
331.45	15.29
331.903	15.28
332.355	15.27
332.808	15.26
333.26	15.24
333.713	15.21
334.165	15.18
334.617	15.18
335.069	15.15
335.522	15.14
335.974	15.12
336.426	15.11
336.878	15.09
337.33	15.07
337.782	15.04
338.234	15.02
338.686	15.01
339.137	14.99
339.589	14.96
340.041	14.93
340.493	14.91
340.944	14.88
341.396	14.84
341.847	14.8
342.299	14.76
342.75	14.71
343.201	14.68
343.653	14.65
344.104	14.61
344.555	14.57
345.006	14.54
345.457	14.5
345.908	14.48
346.359	14.46
346.81	14.42
347.261	14.4
347.712	14.38
348.163	14.36
348.613	14.35
349.064	14.33
349.515	14.31
349.965	14.29
350.416	14.28
350.866	14.26
351.317	14.24
351.767	14.24
352.217	14.23
352.668	14.22
353.118	14.21
353.568	14.19
354.018	14.19
354.468	14.19
354.918	14.2
355.368	14.19
355.818	14.19
356.268	14.17
356.718	14.16
357.168	14.15
357.617	14.14
358.067	14.14
358.517	14.13
358.966	14.12
359.416	14.11
359.865	14.1
360.315	14.1
360.764	14.09
361.213	14.09
361.663	14.08
362.112	14.07
362.561	14.06
363.01	14.05
363.459	14.03
363.908	14
364.357	14
364.806	13.98
365.255	13.97
365.703	13.96
366.152	13.95
366.601	13.95
367.05	13.94
367.498	13.92
367.947	13.91
368.395	13.9
368.844	13.89
369.292	13.86
369.74	13.84
370.189	13.83
370.637	13.81
371.085	13.79
371.533	13.76
371.981	13.75
372.429	13.74
372.877	13.71
373.325	13.68
373.773	13.65
374.221	13.62
374.669	13.6
375.116	13.58
375.564	13.56
376.012	13.55
376.459	13.53
376.907	13.52
377.354	13.51
377.801	13.51
378.249	13.51
378.696	13.51
379.143	13.51
379.591	13.5
380.038	13.49
380.485	13.48
380.932	13.46
381.379	13.47
381.826	13.45
382.273	13.44
382.72	13.41
383.166	13.38
383.613	13.36
384.06	13.34
384.506	13.32
384.953	13.31
385.4	13.3
385.846	13.3
386.292	13.29
386.739	13.28
387.185	13.27
387.631	13.27
388.078	13.26
388.524	13.26
388.97	13.26
389.416	13.27
389.862	13.28
390.308	13.28
390.754	13.28
391.2	13.28
391.645	13.28
392.091	13.31
392.537	13.33
392.983	13.35
393.428	13.36
393.874	13.36
394.319	13.37
394.765	13.38
395.21	13.4
395.655	13.41
396.101	13.44
396.546	13.45
396.991	13.47
397.436	13.49
397.881	13.52
398.326	13.55
398.771	13.61
399.216	13.65
399.661	13.69
400.106	13.73
400.551	13.75
400.995	13.77
401.44	13.81
401.885	13.83
402.329	13.86
402.774	13.9
403.218	13.94
403.663	13.96
404.107	13.98
404.551	14
404.995	14.03
405.44	14.06
405.884	14.1
406.328	14.13
406.772	14.15
407.216	14.2
407.66	14.22
408.104	14.23
408.547	14.26
408.991	14.3
409.435	14.34
409.879	14.38
410.322	14.42
410.766	14.46
411.209	14.51
411.653	14.57
412.096	14.6
412.54	14.65
412.983	14.7
413.426	14.76
413.869	14.81
414.312	14.87
414.756	14.93
415.199	14.97
415.642	15.01
416.085	15.05
416.527	15.07
416.97	15.08
417.413	15.11
417.856	15.13
418.298	15.15
418.741	15.18
419.184	15.19
419.626	15.2
420.069	15.23
420.511	15.25
420.953	15.27
421.396	15.32
421.838	15.38
422.28	15.41
422.722	15.47
423.164	15.48
423.606	15.48
424.048	15.5
424.49	15.53
424.932	15.54
425.374	15.53
425.816	15.5
426.258	15.48
426.699	15.47
427.141	15.47
427.582	15.47
428.024	15.49
428.465	15.5
428.907	15.49
429.348	15.47
429.789	15.48
430.231	15.53
430.672	15.57
431.113	15.6
431.554	15.64
431.995	15.65
432.436	15.65
432.877	15.66
433.318	15.69
433.759	15.72
434.2	15.78
434.64	15.83
435.081	15.84
435.522	15.84
435.962	15.86
436.403	15.89
436.843	15.92
437.284	15.93
437.724	15.96
438.164	15.96
438.604	16
439.045	16.02
439.485	16.01
439.925	16
440.365	16.03
440.805	16.05
441.245	16.04
441.685	16.07
442.125	16.12
442.564	16.14
443.004	16.17
443.444	16.19
443.883	16.21
444.323	16.23
444.762	16.3
445.202	16.33
445.641	16.38
446.081	16.46
446.52	16.48
446.959	16.53
447.398	16.58
447.837	16.62
448.276	16.65
448.716	16.69
449.154	16.74
449.593	16.76
450.032	16.79
450.471	16.79
450.91	16.78
451.349	16.81
451.787	16.79
452.226	16.78
452.664	16.77
453.103	16.77
453.541	16.76
453.98	16.77
454.418	16.75
454.856	16.74
455.295	16.74
455.733	16.71
456.171	16.71
456.609	16.71
457.047	16.7
457.485	16.69
457.923	16.68
458.361	16.68
458.798	16.67
459.236	16.65
459.674	16.65
460.111	16.64
460.549	16.65
460.987	16.65
461.424	16.66
461.862	16.66
462.299	16.66
462.736	16.67
463.173	16.65
463.611	16.63
464.048	16.64
464.485	16.64
464.922	16.64
465.359	16.64
465.796	16.63
466.233	16.62
466.67	16.61
467.106	16.59
467.543	16.56
467.98	16.55
468.416	16.54
468.853	16.54
469.29	16.5
469.726	16.49
470.162	16.46
470.599	16.44
471.035	16.41
471.471	16.4
471.907	16.39
472.344	16.41
472.78	16.41
473.216	16.39
473.652	16.39
474.088	16.37
474.523	16.38
474.959	16.38
475.395	16.35
475.831	16.35
476.266	16.35
476.702	16.33
477.138	16.31
477.573	16.3
478.008	16.29
478.444	16.28
478.879	16.29
479.314	16.27
479.75	16.25
480.185	16.24
480.62	16.23
481.055	16.21
481.49	16.2
481.925	16.19
482.36	16.19
482.795	16.18
483.229	16.19
483.664	16.19
484.099	16.19
484.534	16.2
484.968	16.22
485.403	16.24
485.837	16.27
486.271	16.3
486.706	16.33
487.14	16.35
487.574	16.39
488.009	16.42
488.443	16.45
488.877	16.49
489.311	16.54
489.745	16.58
490.179	16.64
490.613	16.7
491.046	16.75
491.48	16.82
491.914	16.88
492.348	16.95
492.781	17.02
493.215	17.11
493.648	17.19
494.082	17.28
494.515	17.36
494.948	17.45
495.382	17.55
495.815	17.66
496.248	17.79
496.681	17.9
497.114	18.01
497.547	18.13
497.98	18.25
498.413	18.39
498.846	18.52
499.279	18.67
499.711	18.8
500.144	18.94
500.577	19.08
501.009	19.22
501.442	19.36
501.874	19.53
502.306	19.7
502.739	19.89
503.171	20.06
503.603	20.24
504.036	20.42
504.468	20.61
504.9	20.79
505.332	20.98
505.764	21.18
506.196	21.4
506.627	21.61
507.059	21.82
507.491	22.03
507.923	22.25
508.354	22.49
508.786	22.74
509.217	23.01
509.649	23.27
510.08	23.53
510.512	23.77
510.943	24.03
511.374	24.29
511.805	24.57
512.237	24.84
512.668	25.11
513.099	25.37
513.53	25.64
513.961	25.91
514.391	26.18
514.822	26.46
515.253	26.75
515.684	27.01
516.114	27.29
516.545	27.57
516.975	27.84
517.406	28.11
517.836	28.37
518.267	28.64
518.697	28.88
519.127	29.14
519.558	29.38
519.988	29.63
520.418	29.88
520.848	30.12
521.278	30.33
521.708	30.62
522.138	30.84
522.567	31.05
522.997	31.24
523.427	31.48
523.857	31.69
524.286	31.88
524.716	32.08
525.145	32.27
525.575	32.45
526.004	32.63
526.433	32.73
526.863	32.91
527.292	33.09
527.721	33.23
528.15	33.35
528.579	33.48
529.008	33.63
529.437	33.75
529.866	33.86
530.295	33.98
530.724	34.1
531.152	34.2
531.581	34.29
532.01	34.41
532.438	34.53
532.867	34.63
533.295	34.72
533.723	34.79
534.152	34.89
534.58	34.99
535.008	35.05
535.436	35.14
535.865	35.22
536.293	35.29
536.721	35.34
537.149	35.4
537.576	35.47
538.004	35.53
538.432	35.59
538.86	35.64
539.287	35.66
539.715	35.73
540.143	35.76
540.57	35.79
540.998	35.83
541.425	35.86
541.852	35.89
542.28	35.93
542.707	35.96
543.134	35.98
543.561	36.02
543.988	36.06
544.415	36.08
544.842	36.11
545.269	36.15
545.696	36.19
546.123	36.22
546.549	36.26
546.976	36.29
547.403	36.32
547.829	36.34
548.256	36.38
548.682	36.41
549.108	36.44
549.535	36.46
549.961	36.47
550.387	36.49
550.813	36.49
551.24	36.5
551.666	36.49
552.092	36.5
552.518	36.5
552.943	36.49
553.369	36.48
553.795	36.49
554.221	36.47
554.646	36.46
555.072	36.43
555.498	36.41
555.923	36.38
556.349	36.35
556.774	36.32
557.199	36.29
557.625	36.26
558.05	36.21
558.475	36.15
558.9	36.11
559.325	36.08
559.75	36.03
560.175	36
560.6	35.91
561.025	35.84
561.449	35.77
561.874	35.69
562.299	35.59
562.723	35.49
563.148	35.4
563.572	35.29
563.997	35.18
564.421	35.07
564.846	34.95
565.27	34.83
565.694	34.71
566.118	34.6
566.542	34.49
566.966	34.38
567.39	34.27
567.814	34.15
568.238	34.02
568.662	33.89
569.086	33.78
569.509	33.66
569.933	33.56
570.357	33.44
570.78	33.31
571.204	33.18
571.627	33.09
572.05	32.98
572.474	32.89
572.897	32.79
573.32	32.7
573.743	32.6
574.166	32.51
574.589	32.41
575.012	32.32
575.435	32.23
575.858	32.15
576.281	32.04
576.704	31.95
577.126	31.84
577.549	31.76
577.972	31.68
578.394	31.59
578.817	31.5
579.239	31.44
579.661	31.37
580.084	31.28
580.506	31.2
580.928	31.14
581.35	31.07
581.772	31
582.194	30.94
582.616	30.87
583.038	30.8
583.46	30.74
583.882	30.67
584.303	30.6
584.725	30.55
585.147	30.5
585.568	30.43
585.99	30.37
586.411	30.32
586.833	30.27
587.254	30.22
587.675	30.16
588.096	30.1
588.518	30.05
588.939	30
589.36	29.91
589.781	29.86
590.202	29.82
590.623	29.79
591.043	29.74
591.464	29.69
591.885	29.64
592.305	29.59
592.726	29.55
593.147	29.51
593.567	29.46
593.987	29.43
594.408	29.39
594.828	29.34
595.248	29.31
595.669	29.27
596.089	29.21
596.509	29.19
596.929	29.15
597.349	29.11
597.769	29.06
598.189	29.02
598.608	28.99
599.028	28.95
599.448	28.92
599.867	28.86
600.287	28.82
600.706	28.79
601.126	28.73
601.545	28.68
601.965	28.64
602.384	28.61
602.803	28.56
603.222	28.51
603.641	28.46
604.061	28.4
604.48	28.35
604.898	28.29
605.317	28.24
605.736	28.2
606.155	28.14
606.574	28.08
606.992	28.03
607.411	27.97
607.829	27.89
608.248	27.81
608.666	27.76
609.085	27.69
609.503	27.63
609.921	27.58
610.339	27.5
610.758	27.44
611.176	27.37
611.594	27.29
612.012	27.21
612.43	27.16
612.847	27.09
613.265	27.01
613.683	26.95
614.101	26.87
614.518	26.78
614.936	26.71
615.353	26.62
615.771	26.56
616.188	26.5
616.606	26.45
617.023	26.38
617.44	26.34
617.857	26.31
618.274	26.26
618.691	26.21
619.108	26.16
619.525	26.1
619.942	26.07
620.359	26.03
620.776	25.99
621.192	25.97
621.609	25.95
622.026	25.92
622.442	25.88
622.859	25.85
623.275	25.82
623.691	25.81
624.108	25.79
624.524	25.78
624.94	25.77
625.356	25.76
625.772	25.73
626.188	25.72
626.604	25.71
627.02	25.69
627.436	25.69
627.852	25.68
628.268	25.67
628.683	25.67
629.099	25.66
629.514	25.63
629.93	25.6
630.345	25.57
630.761	25.53
631.176	25.49
631.591	25.45
632.007	25.4
632.422	25.34
632.837	25.28
633.252	25.2
633.667	25.12
634.082	25.02
634.497	24.94
634.911	24.83
635.326	24.72
635.741	24.59
636.155	24.45
636.57	24.3
636.984	24.15
637.399	23.99
637.813	23.83
638.228	23.66
638.642	23.49
639.056	23.29
639.47	23.12
639.884	22.92
640.298	22.72
640.712	22.54
641.126	22.34
641.54	22.14
641.954	21.92
642.368	21.73
642.781	21.53
643.195	21.36
643.609	21.17
644.022	20.98
644.436	20.81
644.849	20.65
645.262	20.48
645.676	20.34
646.089	20.22
646.502	20.09
646.915	19.99
647.328	19.88
647.741	19.76
648.154	19.68
648.567	19.6
648.98	19.51
649.393	19.46
649.805	19.4
650.218	19.33
650.631	19.29
651.043	19.25
651.456	19.19
651.868	19.14
652.28	19.1
652.693	19.06
653.105	19.01
653.517	18.98
653.929	18.94
654.341	18.87
654.753	18.81
655.165	18.74
655.577	18.67
655.989	18.6
656.401	18.52
656.813	18.45
657.224	18.33
657.636	18.23
658.047	18.11
658.459	17.99
658.87	17.88
659.282	17.75
659.693	17.64
660.104	17.51
660.515	17.37
660.926	17.25
661.338	17.1
661.749	16.98
662.159	16.86
662.57	16.74
662.981	16.63
663.392	16.51
663.803	16.41
664.213	16.28
664.624	16.18
665.035	16.1
665.445	16
665.855	15.9
666.266	15.82
666.676	15.75
667.086	15.65
667.497	15.57
667.907	15.5
668.317	15.44
668.727	15.37
669.137	15.31
669.547	15.24
669.956	15.19
670.366	15.16
670.776	15.12
671.186	15.08
671.595	15.06
672.005	15.03
672.414	15.02
672.824	14.98
673.233	14.99
673.642	14.98
674.052	14.99
674.461	15
674.87	15
675.279	15.02
675.688	15.04
676.097	15.06
676.506	15.09
676.915	15.12
677.323	15.18
677.732	15.24
678.141	15.31
678.549	15.38
678.958	15.48
679.366	15.6
679.775	15.71
680.183	15.85
680.592	16.02
681	16.21
681.408	16.4
681.816	16.62
682.224	16.86
682.632	17.13
683.04	17.41
683.448	17.73
683.856	18.06
684.264	18.44
684.671	18.84
685.079	19.25
685.487	19.7
685.894	20.2
686.302	20.69
686.709	21.21
687.116	21.77
687.524	22.35
687.931	22.95
688.338	23.56
688.745	24.19
689.152	24.81
689.559	25.47
689.966	26.14
690.373	26.79
690.78	27.45
691.187	28.13
691.593	28.8
692	29.47
692.407	30.1
692.813	30.76
693.22	31.4
693.626	32.04
694.032	32.66
694.439	33.26
694.845	33.85
695.251	34.44
695.657	34.98
696.063	35.52
696.469	36.04
696.875	36.57
697.281	37.07
697.687	37.58
698.093	38.07
698.498	38.53
698.904	38.99
699.31	39.43
699.715	39.85
700.12	40.27
700.526	40.7
700.931	41.1
701.337	41.49
701.742	41.83
702.147	42.19
702.552	42.55
702.957	42.88
703.362	43.17
703.767	43.5
704.172	43.81
704.577	44.1
704.981	44.37
705.386	44.62
705.791	44.88
706.195	45.17
706.6	45.43
707.004	45.65
707.408	45.89
707.813	46.15
708.217	46.36
708.621	46.6
709.025	46.79
709.43	46.99
709.834	47.23
710.237	47.43
710.641	47.61
711.045	47.8
711.449	48.01
711.853	48.21
712.256	48.37
712.66	48.55
713.064	48.72
713.467	48.9
713.87	49.08
714.274	49.22
714.677	49.38
715.08	49.52
715.484	49.66
715.887	49.8
716.29	49.9
716.693	50.08
717.096	50.21
717.499	50.33
717.901	50.46
718.304	50.57
718.707	50.67
719.109	50.8
719.512	50.92
719.915	51.04
720.317	51.12
720.719	51.25
721.122	51.31
721.524	51.38
721.926	51.48
722.328	51.58
722.731	51.68
723.133	51.79
723.535	51.87
723.937	51.97
724.338	52.04
724.74	52.13
725.142	52.29
725.544	52.38
725.945	52.48
726.347	52.53
726.748	52.59
727.15	52.64
727.551	52.71
727.952	52.76
728.354	52.82
728.755	52.86
729.156	52.9
729.557	52.86
729.958	52.9
730.359	52.91
730.76	52.95
731.161	53.01
731.562	53.07
731.962	53.06
732.363	53.1
732.763	53.1
733.164	53.13
733.564	53.15
733.965	53.18
734.365	53.24
734.766	53.28
735.166	53.32
735.566	53.35
735.966	53.37
736.366	53.43
736.766	53.44
737.166	53.5
737.566	53.55
737.966	53.63
738.365	53.63
738.765	53.65
739.165	53.67
739.564	53.69
739.964	53.69
740.363	53.69
740.763	53.69
741.162	53.72
741.561	53.7
741.96	53.68
742.36	53.64
742.759	53.66
743.158	53.65
743.557	53.66
743.955	53.68
744.354	53.69
744.753	53.73
745.152	53.76
745.55	53.79
745.949	53.82
746.348	53.88
746.746	53.89
747.144	53.92
747.543	53.92
747.941	53.97
748.339	53.97
748.737	53.97
749.136	53.95
749.534	53.94
749.932	53.9
750.33	53.88
750.727	53.85
751.125	53.86
751.523	53.83
751.921	53.85
752.318	53.82
752.716	53.81
753.113	53.81
753.511	53.83
753.908	53.83
754.305	53.87
754.703	53.89
755.1	53.92
755.497	53.92
755.894	53.93
756.291	53.92
756.688	53.93
757.085	53.93
757.482	53.92
757.878	53.93
758.275	53.92
758.672	53.89
759.068	53.91
759.465	53.89
759.861	53.89
760.258	53.89
760.654	53.9
761.05	53.93
761.447	53.94
761.843	53.95
762.239	53.96
762.635	53.96
