Data from N_2_DIV_WI_4N_Splice17_13-19-30-158.txt Node
Date: Sat Mar 07 13:19:30 EST 2020
User: sa697716
Spectrometer: NQ5500242
Trigger mode: 0
Integration Time (sec): 1.450000E-1
Scans to average: 20
Nonlinearity correction enabled: false
Boxcar width: 5
Storing dark spectrum: false
XAxis mode: Wavelengths
Number of Pixels in Spectrum: 512
>>>>>Begin Spectral Data<<<<<
187.83	190.38
188.298	196.42
188.766	193.19
189.233	155.49
189.701	179.6
190.169	216.24
190.636	247.5
191.104	372.08
191.571	421.48
192.039	195.32
192.506	84.27
192.974	4.84
193.441	41.48
193.908	43.28
194.375	73.96
194.842	50.66
195.31	170.93
195.777	421.09
196.244	53.95
196.711	42.67
197.177	42.28
197.644	41.52
198.111	41.03
198.578	40.4
199.045	41.38
199.511	40.81
199.978	40.94
200.445	40.75
200.911	40.65
201.378	40.56
201.844	40.68
202.31	40.49
202.777	40.26
203.243	40.32
203.709	40.25
204.176	39.49
204.642	39.25
205.108	39.28
205.574	39.14
206.04	38.7
206.506	38.79
206.972	38.65
207.438	38.1
207.903	37.9
208.369	36.94
208.835	36.35
209.301	35.87
209.766	34.85
210.232	33.98
210.697	33.07
211.163	32.49
211.628	31.59
212.094	30.87
212.559	30.3
213.024	29.48
213.49	29.16
213.955	28.55
214.42	27.96
214.885	27.32
215.35	26.47
215.815	25.41
216.28	23.83
216.745	22.28
217.21	20.66
217.675	19.2
218.14	17.96
218.604	16.85
219.069	16.06
219.534	15.28
219.998	14.69
220.463	14.12
220.927	13.61
221.392	13.28
221.856	12.97
222.32	12.68
222.785	12.45
223.249	12.26
223.713	12.08
224.177	11.85
224.642	11.68
225.106	11.48
225.57	11.33
226.034	11.19
226.497	11.04
226.961	10.9
227.425	10.77
227.889	10.65
228.353	10.51
228.816	10.35
229.28	10.23
229.744	10.1
230.207	9.98
230.671	9.85
231.134	9.74
231.597	9.63
232.061	9.52
232.524	9.43
232.987	9.32
233.45	9.25
233.914	9.15
234.377	9.05
234.84	8.96
235.303	8.89
235.766	8.81
236.229	8.73
236.691	8.66
237.154	8.58
237.617	8.5
238.08	8.44
238.542	8.35
239.005	8.3
239.468	8.22
239.93	8.16
240.393	8.09
240.855	8.01
241.317	7.95
241.78	7.87
242.242	7.79
242.704	7.73
243.166	7.67
243.629	7.61
244.091	7.53
244.553	7.48
245.015	7.41
245.477	7.36
245.939	7.31
246.4	7.25
246.862	7.2
247.324	7.16
247.786	7.11
248.247	7.05
248.709	6.98
249.17	6.93
249.632	6.89
250.093	6.86
250.555	6.81
251.016	6.77
251.477	6.72
251.939	6.68
252.4	6.65
252.861	6.61
253.322	6.58
253.783	6.55
254.244	6.53
254.705	6.49
255.166	6.45
255.627	6.4
256.088	6.38
256.549	6.34
257.009	6.29
257.47	6.24
257.931	6.19
258.391	6.15
258.852	6.11
259.312	6.06
259.773	6.01
260.233	5.98
260.694	5.95
261.154	5.9
261.614	5.88
262.074	5.84
262.534	5.81
262.994	5.78
263.455	5.75
263.915	5.73
264.374	5.71
264.834	5.69
265.294	5.66
265.754	5.64
266.214	5.62
266.673	5.59
267.133	5.58
267.593	5.56
268.052	5.55
268.512	5.54
268.971	5.52
269.431	5.5
269.89	5.47
270.349	5.46
270.809	5.44
271.268	5.43
271.727	5.41
272.186	5.39
272.645	5.37
273.104	5.34
273.563	5.32
274.022	5.3
274.481	5.29
274.94	5.27
275.399	5.24
275.857	5.22
276.316	5.21
276.775	5.19
277.233	5.18
277.692	5.16
278.15	5.14
278.609	5.14
279.067	5.12
279.525	5.11
279.984	5.09
280.442	5.08
280.9	5.07
281.358	5.05
281.816	5.04
282.274	5.02
282.732	5.01
283.19	4.99
283.648	4.97
284.106	4.95
284.564	4.93
285.021	4.92
285.479	4.9
285.937	4.88
286.394	4.86
286.852	4.84
287.309	4.83
287.767	4.81
288.224	4.79
288.682	4.76
289.139	4.74
289.596	4.72
290.053	4.7
290.511	4.68
290.968	4.65
291.425	4.63
291.882	4.61
292.339	4.59
292.796	4.58
293.252	4.57
293.709	4.55
294.166	4.54
294.623	4.53
295.079	4.51
295.536	4.5
295.992	4.5
296.449	4.48
296.905	4.46
297.362	4.44
297.818	4.43
298.274	4.43
298.731	4.41
299.187	4.4
299.643	4.38
300.099	4.37
300.555	4.36
301.011	4.35
301.467	4.34
301.923	4.33
302.379	4.32
302.835	4.31
303.291	4.29
303.746	4.28
304.202	4.28
304.658	4.27
305.113	4.27
305.569	4.26
306.024	4.25
306.479	4.24
306.935	4.23
307.39	4.23
307.845	4.22
308.301	4.22
308.756	4.22
309.211	4.2
309.666	4.2
310.121	4.2
310.576	4.19
311.031	4.18
311.486	4.17
311.94	4.17
312.395	4.17
312.85	4.17
313.305	4.17
313.759	4.17
314.214	4.16
314.668	4.14
315.123	4.13
315.577	4.13
316.032	4.12
316.486	4.12
316.94	4.1
317.394	4.09
317.849	4.07
318.303	4.06
318.757	4.04
319.211	4.04
319.665	4.03
320.119	4.02
320.572	4.01
321.026	4
321.48	3.99
321.934	3.98
322.387	3.96
322.841	3.94
323.295	3.94
323.748	3.94
324.202	3.93
324.655	3.93
325.108	3.93
325.562	3.92
326.015	3.91
326.468	3.91
326.921	3.91
327.374	3.91
327.827	3.92
328.28	3.91
328.733	3.9
329.186	3.91
329.639	3.9
330.092	3.89
330.545	3.89
330.997	3.89
331.45	3.89
331.903	3.89
332.355	3.89
332.808	3.88
333.26	3.88
333.713	3.88
334.165	3.87
334.617	3.87
335.069	3.86
335.522	3.87
335.974	3.87
336.426	3.86
336.878	3.85
337.33	3.85
337.782	3.85
338.234	3.86
338.686	3.85
339.137	3.85
339.589	3.84
340.041	3.83
340.493	3.82
340.944	3.81
341.396	3.8
341.847	3.78
342.299	3.76
342.75	3.75
343.201	3.72
343.653	3.71
344.104	3.69
344.555	3.68
345.006	3.67
345.457	3.66
345.908	3.65
346.359	3.65
346.81	3.64
347.261	3.63
347.712	3.64
348.163	3.63
348.613	3.63
349.064	3.63
349.515	3.63
349.965	3.62
350.416	3.61
350.866	3.61
351.317	3.59
351.767	3.61
352.217	3.6
352.668	3.59
353.118	3.6
353.568	3.59
354.018	3.6
354.468	3.6
354.918	3.6
355.368	3.61
355.818	3.61
356.268	3.61
356.718	3.6
357.168	3.6
357.617	3.59
358.067	3.57
358.517	3.58
358.966	3.57
359.416	3.58
359.865	3.57
360.315	3.57
360.764	3.56
361.213	3.55
361.663	3.54
362.112	3.54
362.561	3.54
363.01	3.54
363.459	3.52
363.908	3.52
364.357	3.51
364.806	3.5
365.255	3.5
365.703	3.51
366.152	3.52
366.601	3.53
367.05	3.52
367.498	3.52
367.947	3.52
368.395	3.52
368.844	3.51
369.292	3.51
369.74	3.51
370.189	3.5
370.637	3.49
371.085	3.47
371.533	3.46
371.981	3.46
372.429	3.46
372.877	3.46
373.325	3.45
373.773	3.44
374.221	3.43
374.669	3.42
375.116	3.41
375.564	3.42
376.012	3.41
376.459	3.4
376.907	3.39
377.354	3.38
377.801	3.39
378.249	3.38
378.696	3.38
379.143	3.38
379.591	3.38
380.038	3.37
380.485	3.36
380.932	3.35
381.379	3.35
381.826	3.35
382.273	3.35
382.72	3.34
383.166	3.33
383.613	3.32
384.06	3.31
384.506	3.3
384.953	3.3
385.4	3.29
385.846	3.31
386.292	3.29
386.739	3.28
387.185	3.27
387.631	3.27
388.078	3.27
388.524	3.26
388.97	3.26
389.416	3.27
389.862	3.27
390.308	3.26
390.754	3.26
391.2	3.26
391.645	3.27
392.091	3.28
392.537	3.28
392.983	3.27
393.428	3.28
393.874	3.28
394.319	3.28
394.765	3.28
395.21	3.29
395.655	3.29
396.101	3.29
396.546	3.3
396.991	3.31
397.436	3.32
397.881	3.34
398.326	3.36
398.771	3.38
399.216	3.38
399.661	3.39
400.106	3.4
400.551	3.4
400.995	3.39
401.44	3.4
401.885	3.4
402.329	3.39
402.774	3.4
403.218	3.41
403.663	3.41
404.107	3.42
404.551	3.42
404.995	3.43
405.44	3.43
405.884	3.45
406.328	3.47
406.772	3.47
407.216	3.48
407.66	3.47
408.104	3.46
408.547	3.46
408.991	3.47
409.435	3.49
409.879	3.5
410.322	3.51
410.766	3.52
411.209	3.53
411.653	3.54
412.096	3.56
412.54	3.58
412.983	3.59
413.426	3.63
413.869	3.64
414.312	3.65
414.756	3.67
415.199	3.67
415.642	3.68
416.085	3.67
416.527	3.66
416.97	3.65
417.413	3.65
417.856	3.65
418.298	3.64
418.741	3.63
419.184	3.63
419.626	3.63
420.069	3.64
420.511	3.64
420.953	3.65
421.396	3.67
421.838	3.68
422.28	3.68
422.722	3.7
423.164	3.7
423.606	3.71
424.048	3.71
424.49	3.71
424.932	3.7
425.374	3.69
425.816	3.66
426.258	3.65
426.699	3.64
427.141	3.64
427.582	3.64
428.024	3.66
428.465	3.66
428.907	3.67
429.348	3.67
429.789	3.67
430.231	3.71
430.672	3.74
431.113	3.76
431.554	3.77
431.995	3.78
432.436	3.78
432.877	3.79
433.318	3.8
433.759	3.82
434.2	3.84
434.64	3.86
435.081	3.85
435.522	3.86
435.962	3.86
436.403	3.89
436.843	3.9
437.284	3.9
437.724	3.9
438.164	3.89
438.604	3.88
439.045	3.88
439.485	3.88
439.925	3.89
440.365	3.89
440.805	3.89
441.245	3.89
441.685	3.9
442.125	3.91
442.564	3.91
443.004	3.92
443.444	3.91
443.883	3.91
444.323	3.91
444.762	3.9
445.202	3.91
445.641	3.92
446.081	3.92
446.52	3.91
446.959	3.92
447.398	3.93
447.837	3.93
448.276	3.93
448.716	3.93
449.154	3.95
449.593	3.95
450.032	3.95
450.471	3.93
450.91	3.92
451.349	3.93
451.787	3.91
452.226	3.9
452.664	3.89
453.103	3.89
453.541	3.89
453.98	3.89
454.418	3.86
454.856	3.85
455.295	3.84
455.733	3.81
456.171	3.8
456.609	3.8
457.047	3.78
457.485	3.77
457.923	3.77
458.361	3.76
458.798	3.76
459.236	3.76
459.674	3.75
460.111	3.75
460.549	3.77
460.987	3.77
461.424	3.78
461.862	3.79
462.299	3.8
462.736	3.79
463.173	3.8
463.611	3.79
464.048	3.8
464.485	3.81
464.922	3.81
465.359	3.81
465.796	3.83
466.233	3.83
466.67	3.82
467.106	3.83
467.543	3.83
467.98	3.82
468.416	3.82
468.853	3.81
469.29	3.81
469.726	3.82
470.162	3.82
470.599	3.81
471.035	3.8
471.471	3.79
471.907	3.78
472.344	3.78
472.78	3.78
473.216	3.77
473.652	3.76
474.088	3.74
474.523	3.73
474.959	3.72
475.395	3.7
475.831	3.7
476.266	3.69
476.702	3.68
477.138	3.67
477.573	3.66
478.008	3.66
478.444	3.65
478.879	3.65
479.314	3.64
479.75	3.64
480.185	3.62
480.62	3.61
481.055	3.59
481.49	3.58
481.925	3.57
482.36	3.56
482.795	3.55
483.229	3.54
483.664	3.53
484.099	3.52
484.534	3.51
484.968	3.52
485.403	3.52
485.837	3.53
486.271	3.54
486.706	3.54
487.14	3.55
487.574	3.55
488.009	3.56
488.443	3.56
488.877	3.58
489.311	3.6
489.745	3.61
490.179	3.62
490.613	3.64
491.046	3.65
491.48	3.68
491.914	3.69
492.348	3.71
492.781	3.74
493.215	3.77
493.648	3.79
494.082	3.81
494.515	3.84
494.948	3.88
495.382	3.9
495.815	3.93
496.248	3.97
496.681	4.01
497.114	4.06
497.547	4.1
497.98	4.14
498.413	4.18
498.846	4.23
499.279	4.28
499.711	4.33
500.144	4.4
500.577	4.47
501.009	4.53
501.442	4.6
501.874	4.69
502.306	4.76
502.739	4.86
503.171	4.96
503.603	5.05
504.036	5.15
504.468	5.26
504.9	5.35
505.332	5.45
505.764	5.56
506.196	5.69
506.627	5.81
507.059	5.94
507.491	6.06
507.923	6.2
508.354	6.35
508.786	6.51
509.217	6.67
509.649	6.84
510.08	7.01
510.512	7.19
510.943	7.37
511.374	7.55
511.805	7.74
512.237	7.93
512.668	8.13
513.099	8.33
513.53	8.53
513.961	8.73
514.391	8.95
514.822	9.17
515.253	9.39
515.684	9.61
516.114	9.85
516.545	10.07
516.975	10.32
517.406	10.56
517.836	10.81
518.267	11.05
518.697	11.29
519.127	11.52
519.558	11.76
519.988	12
520.418	12.23
520.848	12.46
521.278	12.7
521.708	12.98
522.138	13.2
522.567	13.41
522.997	13.61
523.427	13.82
523.857	14.02
524.286	14.21
524.716	14.39
525.145	14.58
525.575	14.76
526.004	14.93
526.433	15.03
526.863	15.19
527.292	15.36
527.721	15.53
528.15	15.68
528.579	15.83
529.008	15.97
529.437	16.11
529.866	16.24
530.295	16.35
530.724	16.46
531.152	16.58
531.581	16.7
532.01	16.8
532.438	16.89
532.867	16.99
533.295	17.07
533.723	17.14
534.152	17.21
534.58	17.29
535.008	17.35
535.436	17.41
535.865	17.46
536.293	17.51
536.721	17.56
537.149	17.6
537.576	17.64
538.004	17.68
538.432	17.71
538.86	17.74
539.287	17.77
539.715	17.82
540.143	17.85
540.57	17.88
540.998	17.91
541.425	17.93
541.852	17.96
542.28	17.99
542.707	18
543.134	18.04
543.561	18.08
543.988	18.1
544.415	18.12
544.842	18.15
545.269	18.17
545.696	18.2
546.123	18.22
546.549	18.23
546.976	18.26
547.403	18.29
547.829	18.31
548.256	18.31
548.682	18.33
549.108	18.36
549.535	18.38
549.961	18.38
550.387	18.37
550.813	18.37
551.24	18.37
551.666	18.36
552.092	18.35
552.518	18.34
552.943	18.33
553.369	18.31
553.795	18.26
554.221	18.24
554.646	18.2
555.072	18.17
555.498	18.12
555.923	18.07
556.349	18.01
556.774	17.96
557.199	17.9
557.625	17.84
558.05	17.77
558.475	17.7
558.9	17.62
559.325	17.57
559.75	17.47
560.175	17.38
560.6	17.29
561.025	17.21
561.449	17.1
561.874	16.99
562.299	16.88
562.723	16.78
563.148	16.66
563.572	16.52
563.997	16.4
564.421	16.27
564.846	16.15
565.27	16.02
565.694	15.9
566.118	15.77
566.542	15.65
566.966	15.51
567.39	15.37
567.814	15.23
568.238	15.11
568.662	14.97
569.086	14.85
569.509	14.73
569.933	14.61
570.357	14.47
570.78	14.33
571.204	14.19
571.627	14.07
572.05	13.94
572.474	13.83
572.897	13.72
573.32	13.61
573.743	13.49
574.166	13.38
574.589	13.26
575.012	13.14
575.435	13.05
575.858	12.97
576.281	12.88
576.704	12.79
577.126	12.69
577.549	12.59
577.972	12.5
578.394	12.42
578.817	12.34
579.239	12.27
579.661	12.2
580.084	12.13
580.506	12.07
580.928	12
581.35	11.94
581.772	11.87
582.194	11.81
582.616	11.74
583.038	11.68
583.46	11.61
583.882	11.54
584.303	11.47
584.725	11.39
585.147	11.33
585.568	11.28
585.99	11.22
586.411	11.17
586.833	11.11
587.254	11.05
587.675	11
588.096	10.96
588.518	10.92
588.939	10.88
589.36	10.84
589.781	10.79
590.202	10.75
590.623	10.71
591.043	10.67
591.464	10.64
591.885	10.61
592.305	10.58
592.726	10.55
593.147	10.51
593.567	10.48
593.987	10.44
594.408	10.41
594.828	10.38
595.248	10.36
595.669	10.33
596.089	10.31
596.509	10.29
596.929	10.27
597.349	10.23
597.769	10.21
598.189	10.19
598.608	10.18
599.028	10.16
599.448	10.12
599.867	10.08
600.287	10.06
600.706	10.03
601.126	9.98
601.545	9.94
601.965	9.91
602.384	9.87
602.803	9.82
603.222	9.77
603.641	9.72
604.061	9.68
604.48	9.63
604.898	9.58
605.317	9.53
605.736	9.48
606.155	9.44
606.574	9.37
606.992	9.31
607.411	9.26
607.829	9.17
608.248	9.11
608.666	9.05
609.085	8.99
609.503	8.92
609.921	8.86
610.339	8.79
610.758	8.72
611.176	8.67
611.594	8.62
612.012	8.54
612.43	8.5
612.847	8.45
613.265	8.4
613.683	8.34
614.101	8.29
614.518	8.23
614.936	8.17
615.353	8.12
615.771	8.06
616.188	8.01
616.606	7.97
617.023	7.93
617.44	7.89
617.857	7.85
618.274	7.8
618.691	7.75
619.108	7.71
619.525	7.67
619.942	7.64
620.359	7.61
620.776	7.59
621.192	7.55
621.609	7.52
622.026	7.49
622.442	7.47
622.859	7.45
623.275	7.44
623.691	7.43
624.108	7.42
624.524	7.4
624.94	7.39
625.356	7.37
625.772	7.37
626.188	7.36
626.604	7.35
627.02	7.33
627.436	7.32
627.852	7.31
628.268	7.3
628.683	7.29
629.099	7.28
629.514	7.27
629.93	7.25
630.345	7.24
630.761	7.21
631.176	7.19
631.591	7.17
632.007	7.14
632.422	7.11
632.837	7.08
633.252	7.03
633.667	6.99
634.082	6.94
634.497	6.89
634.911	6.84
635.326	6.78
635.741	6.73
636.155	6.66
636.57	6.6
636.984	6.54
637.399	6.47
637.813	6.41
638.228	6.34
638.642	6.26
639.056	6.19
639.47	6.11
639.884	6.05
640.298	5.97
640.712	5.9
641.126	5.84
641.54	5.75
641.954	5.67
642.368	5.59
642.781	5.53
643.195	5.45
643.609	5.39
644.022	5.32
644.436	5.26
644.849	5.19
645.262	5.12
645.676	5.06
646.089	5.01
646.502	4.97
646.915	4.92
647.328	4.88
647.741	4.85
648.154	4.82
648.567	4.78
648.98	4.74
649.393	4.71
649.805	4.69
650.218	4.67
650.631	4.65
651.043	4.63
651.456	4.61
651.868	4.58
652.28	4.56
652.693	4.54
653.105	4.52
653.517	4.49
653.929	4.48
654.341	4.44
654.753	4.4
655.165	4.36
655.577	4.33
655.989	4.28
656.401	4.25
656.813	4.2
657.224	4.16
657.636	4.11
658.047	4.07
658.459	4.02
658.87	3.99
659.282	3.93
659.693	3.9
660.104	3.84
660.515	3.8
660.926	3.77
661.338	3.73
661.749	3.69
662.159	3.65
662.57	3.62
662.981	3.59
663.392	3.56
663.803	3.54
664.213	3.51
664.624	3.49
665.035	3.47
665.445	3.45
665.855	3.44
666.266	3.43
666.676	3.42
667.086	3.4
667.497	3.4
667.907	3.4
668.317	3.39
668.727	3.38
669.137	3.39
669.547	3.39
669.956	3.39
670.366	3.39
670.776	3.39
671.186	3.39
671.595	3.39
672.005	3.39
672.414	3.39
672.824	3.4
673.233	3.41
673.642	3.42
674.052	3.44
674.461	3.46
674.87	3.47
675.279	3.49
675.688	3.52
676.097	3.54
676.506	3.57
676.915	3.6
677.323	3.63
677.732	3.65
678.141	3.68
678.549	3.71
678.958	3.74
679.366	3.78
679.775	3.8
680.183	3.85
680.592	3.88
681	3.92
681.408	3.97
681.816	4.01
682.224	4.07
682.632	4.12
683.04	4.19
683.448	4.25
683.856	4.32
684.264	4.41
684.671	4.5
685.079	4.6
685.487	4.73
685.894	4.86
686.302	5.01
686.709	5.19
687.116	5.38
687.524	5.58
687.931	5.81
688.338	6.06
688.745	6.32
689.152	6.61
689.559	6.93
689.966	7.27
690.373	7.64
690.78	8.01
691.187	8.4
691.593	8.8
692	9.22
692.407	9.63
692.813	10.09
693.22	10.54
693.626	11
694.032	11.49
694.439	11.96
694.845	12.43
695.251	12.91
695.657	13.4
696.063	13.91
696.469	14.41
696.875	14.93
697.281	15.43
697.687	15.95
698.093	16.45
698.498	16.96
698.904	17.45
699.31	17.95
699.715	18.44
700.12	18.92
700.526	19.41
700.931	19.88
701.337	20.35
701.742	20.8
702.147	21.24
702.552	21.67
702.957	22.09
703.362	22.52
703.767	22.94
704.172	23.38
704.577	23.78
704.981	24.19
705.386	24.61
705.791	25.01
706.195	25.42
706.6	25.84
707.004	26.24
707.408	26.64
707.813	27.04
708.217	27.41
708.621	27.78
709.025	28.13
709.43	28.49
709.834	28.84
710.237	29.18
710.641	29.51
711.045	29.83
711.449	30.18
711.853	30.52
712.256	30.83
712.66	31.15
713.064	31.46
713.467	31.8
713.87	32.12
714.274	32.42
714.677	32.73
715.08	33.02
715.484	33.32
715.887	33.61
716.29	33.87
716.693	34.16
717.096	34.43
717.499	34.72
717.901	34.98
718.304	35.21
718.707	35.45
719.109	35.68
719.512	35.92
719.915	36.15
720.317	36.35
720.719	36.55
721.122	36.75
721.524	36.94
721.926	37.14
722.328	37.34
722.731	37.52
723.133	37.73
723.535	37.92
723.937	38.1
724.338	38.28
724.74	38.44
725.142	38.7
725.544	38.84
725.945	39.03
726.347	39.16
726.748	39.28
727.15	39.42
727.551	39.55
727.952	39.7
728.354	39.81
728.755	39.92
729.156	40.06
729.557	40.09
729.958	40.19
730.359	40.25
730.76	40.4
731.161	40.51
731.562	40.62
731.962	40.69
732.363	40.78
732.763	40.87
733.164	40.98
733.564	41.06
733.965	41.13
734.365	41.23
734.766	41.32
735.166	41.35
735.566	41.43
735.966	41.51
736.366	41.6
736.766	41.66
737.166	41.73
737.566	41.79
737.966	41.83
738.365	41.89
738.765	41.96
739.165	42.01
739.564	42.06
739.964	42.12
740.363	42.15
740.763	42.2
741.162	42.23
741.561	42.25
741.96	42.27
742.36	42.32
742.759	42.36
743.158	42.37
743.557	42.37
743.955	42.41
744.354	42.42
744.753	42.46
745.152	42.48
745.55	42.52
745.949	42.54
746.348	42.58
746.746	42.6
747.144	42.64
747.543	42.65
747.941	42.71
748.339	42.7
748.737	42.71
749.136	42.71
749.534	42.69
749.932	42.68
750.33	42.71
750.727	42.71
751.125	42.72
751.523	42.72
751.921	42.75
752.318	42.75
752.716	42.75
753.113	42.77
753.511	42.78
753.908	42.83
754.305	42.85
754.703	42.83
755.1	42.84
755.497	42.85
755.894	42.83
756.291	42.82
756.688	42.81
757.085	42.81
757.482	42.8
757.878	42.79
758.275	42.78
758.672	42.8
759.068	42.83
759.465	42.81
759.861	42.82
760.258	42.83
760.654	42.83
761.05	42.86
761.447	42.91
761.843	42.92
762.239	42.94
762.635	42.93
763.031	42.92
763.427	42.91
763.822	42.94
764.218	42.92
764.614	42.94
765.01	42.93
765.405	42.93
765.801	42.9
766.196	42.89
766.592	42.88
766.987	42.89
767.382	42.87
767.778	42.86
768.173	42.84
768.568	42.84
768.963	42.83
769.358	42.85
769.753	42.82
770.148	42.82
770.542	42.83
770.937	42.83
771.332	42.82
771.726	42.84
772.121	42.83
772.515	42.83
772.91	42.86
773.304	42.88
773.699	42.88
774.093	42.88
774.487	42.88
774.881	42.87
775.275	42.85
775.669	42.84
776.063	42.84
776.457	42.85
776.851	42.83
777.245	42.79
777.638	42.77
778.032	42.77
778.425	42.8
778.819	42.8
779.212	42.83
779.606	42.87
779.999	42.87
780.392	42.91
780.786	42.9
781.179	42.95
781.572	42.99
781.965	43
782.358	43
782.751	42.97
783.143	42.98
783.536	42.94
783.929	42.95
784.322	42.95
784.714	42.92
785.107	42.92
