Data from N_2_DIV_IL_4N_Splice17_13-37-25-091.txt Node
Date: Sat Mar 07 13:37:25 EST 2020
User: sa697716
Spectrometer: NQ5500242
Trigger mode: 0
Integration Time (sec): 1.450000E-1
Scans to average: 20
Nonlinearity correction enabled: false
Boxcar width: 5
Storing dark spectrum: false
XAxis mode: Wavelengths
Number of Pixels in Spectrum: 512
>>>>>Begin Spectral Data<<<<<
187.83	260.65
188.298	270.95
188.766	244.86
189.233	184.92
189.701	190.31
190.169	231.51
190.636	256.78
191.104	351.78
191.571	170.31
192.039	5.48
192.506	-277.45
192.974	102.45
193.441	165.26
193.908	84.1
194.375	34.01
194.842	-19.44
195.31	39.69
195.777	20.36
196.244	73.55
196.711	82.7
197.177	86.39
197.644	86.03
198.111	86.75
198.578	86.69
199.045	87.23
199.511	87.06
199.978	87.55
200.445	88.1
200.911	88.19
201.378	88.24
201.844	88.37
202.31	87.87
202.777	88.19
203.243	87.81
203.709	87.53
204.176	86.63
204.642	86.1
205.108	85.46
205.574	84.36
206.04	83.45
206.506	82.65
206.972	81.8
207.438	81.07
207.903	79.64
208.369	78.06
208.835	76.24
209.301	74.44
209.766	72.04
210.232	69.71
210.697	67.56
211.163	65.55
211.628	63.77
212.094	61.9
212.559	60.35
213.024	58.67
213.49	57.34
213.955	55.9
214.42	54.52
214.885	52.8
215.35	50.66
215.815	47.88
216.28	44.36
216.745	40.3
217.21	36.31
217.675	32.4
218.14	29.07
218.604	26.19
219.069	23.75
219.534	21.76
219.998	20.1
220.463	18.79
220.927	17.61
221.392	16.67
221.856	15.95
222.32	15.27
222.785	14.74
223.249	14.25
223.713	13.78
224.177	13.4
224.642	13.02
225.106	12.69
225.57	12.32
226.034	12.06
226.497	11.78
226.961	11.5
227.425	11.26
227.889	11.03
228.353	10.8
228.816	10.59
229.28	10.4
229.744	10.21
230.207	10.03
230.671	9.87
231.134	9.67
231.597	9.54
232.061	9.39
232.524	9.25
232.987	9.11
233.45	9
233.914	8.88
234.377	8.75
234.84	8.65
235.303	8.56
235.766	8.47
236.229	8.38
236.691	8.29
237.154	8.21
237.617	8.13
238.08	8.04
238.542	7.94
239.005	7.88
239.468	7.82
239.93	7.75
240.393	7.68
240.855	7.6
241.317	7.52
241.78	7.44
242.242	7.36
242.704	7.3
243.166	7.24
243.629	7.2
244.091	7.12
244.553	7.04
245.015	6.96
245.477	6.9
245.939	6.84
246.4	6.78
246.862	6.73
247.324	6.67
247.786	6.6
248.247	6.53
248.709	6.45
249.17	6.39
249.632	6.35
250.093	6.3
250.555	6.24
251.016	6.19
251.477	6.13
251.939	6.09
252.4	6.04
252.861	6
253.322	5.97
253.783	5.93
254.244	5.9
254.705	5.85
255.166	5.81
255.627	5.76
256.088	5.72
256.549	5.68
257.009	5.63
257.47	5.58
257.931	5.53
258.391	5.47
258.852	5.42
259.312	5.37
259.773	5.32
260.233	5.27
260.694	5.24
261.154	5.19
261.614	5.16
262.074	5.11
262.534	5.07
262.994	5.03
263.455	5
263.915	4.97
264.374	4.93
264.834	4.91
265.294	4.87
265.754	4.84
266.214	4.81
266.673	4.79
267.133	4.78
267.593	4.75
268.052	4.74
268.512	4.72
268.971	4.71
269.431	4.69
269.89	4.67
270.349	4.66
270.809	4.65
271.268	4.64
271.727	4.62
272.186	4.61
272.645	4.6
273.104	4.59
273.563	4.57
274.022	4.56
274.481	4.54
274.94	4.53
275.399	4.51
275.857	4.49
276.316	4.48
276.775	4.47
277.233	4.46
277.692	4.46
278.15	4.46
278.609	4.46
279.067	4.46
279.525	4.45
279.984	4.45
280.442	4.46
280.9	4.46
281.358	4.46
281.816	4.46
282.274	4.45
282.732	4.44
283.19	4.43
283.648	4.42
284.106	4.42
284.564	4.42
285.021	4.43
285.479	4.41
285.937	4.4
286.394	4.41
286.852	4.39
287.309	4.38
287.767	4.37
288.224	4.35
288.682	4.34
289.139	4.32
289.596	4.29
290.053	4.27
290.511	4.25
290.968	4.23
291.425	4.19
291.882	4.18
292.339	4.16
292.796	4.14
293.252	4.14
293.709	4.12
294.166	4.11
294.623	4.1
295.079	4.08
295.536	4.07
295.992	4.07
296.449	4.06
296.905	4.06
297.362	4.05
297.818	4.04
298.274	4.04
298.731	4.02
299.187	4.01
299.643	4.01
300.099	4
300.555	4
301.011	4
301.467	4
301.923	3.98
302.379	3.98
302.835	3.97
303.291	3.97
303.746	3.97
304.202	3.97
304.658	3.98
305.113	3.98
305.569	3.98
306.024	3.98
306.479	3.97
306.935	3.98
307.39	3.98
307.845	3.99
308.301	4
308.756	4
309.211	4
309.666	4.02
310.121	4.02
310.576	4.02
311.031	4.03
311.486	4.04
311.94	4.04
312.395	4.05
312.85	4.05
313.305	4.05
313.759	4.06
314.214	4.06
314.668	4.05
315.123	4.05
315.577	4.04
316.032	4.03
316.486	4.02
316.94	4.02
317.394	4.01
317.849	3.99
318.303	3.98
318.757	3.96
319.211	3.94
319.665	3.92
320.119	3.91
320.572	3.9
321.026	3.89
321.48	3.89
321.934	3.87
322.387	3.86
322.841	3.86
323.295	3.86
323.748	3.86
324.202	3.86
324.655	3.86
325.108	3.86
325.562	3.86
326.015	3.86
326.468	3.86
326.921	3.87
327.374	3.87
327.827	3.88
328.28	3.88
328.733	3.89
329.186	3.88
329.639	3.88
330.092	3.89
330.545	3.89
330.997	3.89
331.45	3.9
331.903	3.91
332.355	3.92
332.808	3.92
333.26	3.92
333.713	3.92
334.165	3.93
334.617	3.95
335.069	3.94
335.522	3.96
335.974	3.98
336.426	3.98
336.878	3.98
337.33	3.98
337.782	3.99
338.234	4
338.686	3.99
339.137	4
339.589	3.98
340.041	3.97
340.493	3.94
340.944	3.92
341.396	3.91
341.847	3.89
342.299	3.87
342.75	3.84
343.201	3.81
343.653	3.8
344.104	3.77
344.555	3.76
345.006	3.75
345.457	3.74
345.908	3.73
346.359	3.73
346.81	3.72
347.261	3.71
347.712	3.71
348.163	3.71
348.613	3.71
349.064	3.72
349.515	3.72
349.965	3.72
350.416	3.72
350.866	3.73
351.317	3.71
351.767	3.72
352.217	3.72
352.668	3.72
353.118	3.72
353.568	3.71
354.018	3.72
354.468	3.73
354.918	3.74
355.368	3.75
355.818	3.75
356.268	3.75
356.718	3.76
357.168	3.76
357.617	3.76
358.067	3.76
358.517	3.78
358.966	3.78
359.416	3.78
359.865	3.77
360.315	3.76
360.764	3.77
361.213	3.78
361.663	3.77
362.112	3.77
362.561	3.78
363.01	3.78
363.459	3.76
363.908	3.76
364.357	3.76
364.806	3.76
365.255	3.76
365.703	3.77
366.152	3.77
366.601	3.78
367.05	3.78
367.498	3.77
367.947	3.77
368.395	3.78
368.844	3.78
369.292	3.77
369.74	3.77
370.189	3.76
370.637	3.75
371.085	3.73
371.533	3.73
371.981	3.72
372.429	3.72
372.877	3.72
373.325	3.72
373.773	3.72
374.221	3.71
374.669	3.71
375.116	3.7
375.564	3.69
376.012	3.7
376.459	3.7
376.907	3.7
377.354	3.7
377.801	3.7
378.249	3.7
378.696	3.7
379.143	3.7
379.591	3.69
380.038	3.7
380.485	3.7
380.932	3.69
381.379	3.7
381.826	3.69
382.273	3.69
382.72	3.67
383.166	3.66
383.613	3.65
384.06	3.64
384.506	3.65
384.953	3.64
385.4	3.65
385.846	3.65
386.292	3.63
386.739	3.62
387.185	3.62
387.631	3.62
388.078	3.62
388.524	3.61
388.97	3.62
389.416	3.62
389.862	3.64
390.308	3.65
390.754	3.67
391.2	3.69
391.645	3.7
392.091	3.72
392.537	3.73
392.983	3.75
393.428	3.77
393.874	3.78
394.319	3.78
394.765	3.79
395.21	3.79
395.655	3.79
396.101	3.81
396.546	3.83
396.991	3.84
397.436	3.86
397.881	3.9
398.326	3.93
398.771	3.95
399.216	3.98
399.661	4
400.106	4.02
400.551	4.04
400.995	4.04
401.44	4.04
401.885	4.05
402.329	4.07
402.774	4.09
403.218	4.12
403.663	4.14
404.107	4.15
404.551	4.17
404.995	4.19
405.44	4.21
405.884	4.24
406.328	4.27
406.772	4.3
407.216	4.32
407.66	4.33
408.104	4.34
408.547	4.36
408.991	4.39
409.435	4.42
409.879	4.45
410.322	4.49
410.766	4.53
411.209	4.57
411.653	4.61
412.096	4.64
412.54	4.68
412.983	4.72
413.426	4.77
413.869	4.79
414.312	4.84
414.756	4.89
415.199	4.9
415.642	4.92
416.085	4.94
416.527	4.94
416.97	4.94
417.413	4.95
417.856	4.95
418.298	4.96
418.741	4.97
419.184	4.97
419.626	4.96
420.069	4.98
420.511	5
420.953	5.02
421.396	5.05
421.838	5.08
422.28	5.1
422.722	5.14
423.164	5.16
423.606	5.18
424.048	5.2
424.49	5.22
424.932	5.23
425.374	5.19
425.816	5.17
426.258	5.16
426.699	5.15
427.141	5.15
427.582	5.15
428.024	5.17
428.465	5.19
428.907	5.18
429.348	5.18
429.789	5.19
430.231	5.23
430.672	5.27
431.113	5.31
431.554	5.34
431.995	5.37
432.436	5.38
432.877	5.41
433.318	5.43
433.759	5.49
434.2	5.54
434.64	5.57
435.081	5.6
435.522	5.63
435.962	5.65
436.403	5.69
436.843	5.71
437.284	5.72
437.724	5.72
438.164	5.71
438.604	5.72
439.045	5.74
439.485	5.76
439.925	5.76
440.365	5.77
440.805	5.79
441.245	5.81
441.685	5.84
442.125	5.88
442.564	5.9
443.004	5.92
443.444	5.94
443.883	5.95
444.323	5.98
444.762	6
445.202	6.02
445.641	6.05
446.081	6.07
446.52	6.1
446.959	6.14
447.398	6.19
447.837	6.24
448.276	6.27
448.716	6.3
449.154	6.34
449.593	6.37
450.032	6.4
450.471	6.41
450.91	6.41
451.349	6.42
451.787	6.41
452.226	6.4
452.664	6.39
453.103	6.39
453.541	6.35
453.98	6.36
454.418	6.33
454.856	6.32
455.295	6.3
455.733	6.28
456.171	6.27
456.609	6.27
457.047	6.24
457.485	6.23
457.923	6.22
458.361	6.23
458.798	6.22
459.236	6.21
459.674	6.2
460.111	6.21
460.549	6.22
460.987	6.21
461.424	6.21
461.862	6.23
462.299	6.23
462.736	6.23
463.173	6.23
463.611	6.24
464.048	6.27
464.485	6.28
464.922	6.3
465.359	6.3
465.796	6.32
466.233	6.34
466.67	6.36
467.106	6.38
467.543	6.39
467.98	6.39
468.416	6.37
468.853	6.36
469.29	6.35
469.726	6.36
470.162	6.35
470.599	6.34
471.035	6.33
471.471	6.31
471.907	6.31
472.344	6.31
472.78	6.31
473.216	6.31
473.652	6.31
474.088	6.3
474.523	6.3
474.959	6.3
475.395	6.29
475.831	6.29
476.266	6.29
476.702	6.27
477.138	6.25
477.573	6.25
478.008	6.26
478.444	6.24
478.879	6.24
479.314	6.23
479.75	6.21
480.185	6.2
480.62	6.19
481.055	6.19
481.49	6.19
481.925	6.18
482.36	6.17
482.795	6.16
483.229	6.16
483.664	6.15
484.099	6.14
484.534	6.14
484.968	6.15
485.403	6.16
485.837	6.17
486.271	6.19
486.706	6.2
487.14	6.21
487.574	6.22
488.009	6.25
488.443	6.28
488.877	6.32
489.311	6.35
489.745	6.38
490.179	6.42
490.613	6.46
491.046	6.49
491.48	6.54
491.914	6.59
492.348	6.65
492.781	6.7
493.215	6.75
493.648	6.81
494.082	6.87
494.515	6.92
494.948	6.99
495.382	7.06
495.815	7.13
496.248	7.2
496.681	7.28
497.114	7.36
497.547	7.46
497.98	7.56
498.413	7.65
498.846	7.75
499.279	7.86
499.711	7.96
500.144	8.08
500.577	8.2
501.009	8.32
501.442	8.46
501.874	8.6
502.306	8.73
502.739	8.89
503.171	9.04
503.603	9.2
504.036	9.37
504.468	9.55
504.9	9.72
505.332	9.9
505.764	10.1
506.196	10.29
506.627	10.5
507.059	10.71
507.491	10.92
507.923	11.14
508.354	11.38
508.786	11.61
509.217	11.85
509.649	12.09
510.08	12.34
510.512	12.6
510.943	12.86
511.374	13.13
511.805	13.4
512.237	13.66
512.668	13.95
513.099	14.21
513.53	14.49
513.961	14.78
514.391	15.06
514.822	15.36
515.253	15.64
515.684	15.94
516.114	16.24
516.545	16.53
516.975	16.84
517.406	17.14
517.836	17.45
518.267	17.76
518.697	18.04
519.127	18.35
519.558	18.64
519.988	18.93
520.418	19.21
520.848	19.47
521.278	19.76
521.708	20.22
522.138	20.48
522.567	20.73
522.997	20.97
523.427	21.23
523.857	21.46
524.286	21.68
524.716	21.92
525.145	22.14
525.575	22.36
526.004	22.57
526.433	22.59
526.863	22.8
527.292	23
527.721	23.17
528.15	23.34
528.579	23.5
529.008	23.66
529.437	23.81
529.866	23.96
530.295	24.1
530.724	24.24
531.152	24.37
531.581	24.5
532.01	24.61
532.438	24.74
532.867	24.86
533.295	24.96
533.723	25.07
534.152	25.17
534.58	25.26
535.008	25.33
535.436	25.4
535.865	25.47
536.293	25.53
536.721	25.58
537.149	25.64
537.576	25.69
538.004	25.77
538.432	25.81
538.86	25.87
539.287	25.91
539.715	25.96
540.143	26.01
540.57	26.05
540.998	26.09
541.425	26.14
541.852	26.17
542.28	26.21
542.707	26.23
543.134	26.27
543.561	26.31
543.988	26.33
544.415	26.35
544.842	26.38
545.269	26.41
545.696	26.43
546.123	26.45
546.549	26.49
546.976	26.52
547.403	26.56
547.829	26.58
548.256	26.6
548.682	26.62
549.108	26.64
549.535	26.67
549.961	26.68
550.387	26.69
550.813	26.71
551.24	26.71
551.666	26.7
552.092	26.69
552.518	26.68
552.943	26.67
553.369	26.66
553.795	26.63
554.221	26.61
554.646	26.57
555.072	26.54
555.498	26.5
555.923	26.46
556.349	26.41
556.774	26.36
557.199	26.31
557.625	26.26
558.05	26.21
558.475	26.17
558.9	26.1
559.325	26.05
559.75	25.98
560.175	25.91
560.6	25.81
561.025	25.75
561.449	25.68
561.874	25.57
562.299	25.48
562.723	25.37
563.148	25.25
563.572	25.11
563.997	24.99
564.421	24.86
564.846	24.74
565.27	24.62
565.694	24.5
566.118	24.37
566.542	24.24
566.966	24.1
567.39	23.97
567.814	23.85
568.238	23.74
568.662	23.62
569.086	23.5
569.509	23.38
569.933	23.26
570.357	23.12
570.78	22.96
571.204	22.84
571.627	22.73
572.05	22.61
572.474	22.51
572.897	22.38
573.32	22.25
573.743	22.12
574.166	22.01
574.589	21.89
575.012	21.78
575.435	21.69
575.858	21.59
576.281	21.48
576.704	21.38
577.126	21.26
577.549	21.18
577.972	21.09
578.394	20.99
578.817	20.91
579.239	20.84
579.661	20.76
580.084	20.68
580.506	20.61
580.928	20.54
581.35	20.45
581.772	20.38
582.194	20.3
582.616	20.22
583.038	20.15
583.46	20.05
583.882	19.98
584.303	19.9
584.725	19.83
585.147	19.77
585.568	19.7
585.99	19.66
586.411	19.6
586.833	19.54
587.254	19.48
587.675	19.44
588.096	19.39
588.518	19.34
588.939	19.31
589.36	19.26
589.781	19.2
590.202	19.16
590.623	19.11
591.043	19.06
591.464	19.02
591.885	18.98
592.305	18.95
592.726	18.91
593.147	18.87
593.567	18.83
593.987	18.79
594.408	18.75
594.828	18.7
595.248	18.68
595.669	18.64
596.089	18.62
596.509	18.61
596.929	18.57
597.349	18.52
597.769	18.48
598.189	18.44
598.608	18.4
599.028	18.38
599.448	18.34
599.867	18.29
600.287	18.26
600.706	18.21
601.126	18.16
601.545	18.13
601.965	18.1
602.384	18.06
602.803	18.02
603.222	17.97
603.641	17.9
604.061	17.85
604.48	17.78
604.898	17.71
605.317	17.64
605.736	17.57
606.155	17.51
606.574	17.43
606.992	17.34
607.411	17.26
607.829	17.16
608.248	17.09
608.666	17.01
609.085	16.93
609.503	16.86
609.921	16.79
610.339	16.71
610.758	16.62
611.176	16.53
611.594	16.45
612.012	16.36
612.43	16.3
612.847	16.22
613.265	16.14
613.683	16.07
614.101	15.99
614.518	15.9
614.936	15.82
615.353	15.72
615.771	15.65
616.188	15.59
616.606	15.54
617.023	15.48
617.44	15.42
617.857	15.35
618.274	15.28
618.691	15.22
619.108	15.18
619.525	15.13
619.942	15.09
620.359	15.06
620.776	15.01
621.192	14.96
621.609	14.91
622.026	14.88
622.442	14.87
622.859	14.84
623.275	14.81
623.691	14.78
624.108	14.76
624.524	14.74
624.94	14.72
625.356	14.71
625.772	14.69
626.188	14.68
626.604	14.67
627.02	14.65
627.436	14.64
627.852	14.64
628.268	14.63
628.683	14.61
629.099	14.6
629.514	14.58
629.93	14.56
630.345	14.54
630.761	14.5
631.176	14.46
631.591	14.43
632.007	14.39
632.422	14.34
632.837	14.3
633.252	14.25
633.667	14.19
634.082	14.13
634.497	14.07
634.911	13.98
635.326	13.92
635.741	13.85
636.155	13.75
636.57	13.67
636.984	13.57
637.399	13.46
637.813	13.36
638.228	13.25
638.642	13.14
639.056	13.01
639.47	12.91
639.884	12.78
640.298	12.65
640.712	12.53
641.126	12.39
641.54	12.27
641.954	12.14
642.368	12.01
642.781	11.89
643.195	11.76
643.609	11.65
644.022	11.52
644.436	11.42
644.849	11.3
645.262	11.2
645.676	11.09
646.089	10.99
646.502	10.9
646.915	10.82
647.328	10.74
647.741	10.67
648.154	10.6
648.567	10.54
648.98	10.47
649.393	10.4
649.805	10.36
650.218	10.31
650.631	10.26
651.043	10.2
651.456	10.15
651.868	10.08
652.28	10.03
652.693	9.97
653.105	9.91
653.517	9.84
653.929	9.79
654.341	9.71
654.753	9.64
655.165	9.56
655.577	9.48
655.989	9.4
656.401	9.31
656.813	9.23
657.224	9.12
657.636	9
658.047	8.91
658.459	8.8
658.87	8.68
659.282	8.56
659.693	8.45
660.104	8.33
660.515	8.21
660.926	8.09
661.338	7.97
661.749	7.86
662.159	7.75
662.57	7.65
662.981	7.54
663.392	7.44
663.803	7.35
664.213	7.27
664.624	7.18
665.035	7.09
665.445	7.02
665.855	6.94
666.266	6.88
666.676	6.81
667.086	6.75
667.497	6.69
667.907	6.64
668.317	6.59
668.727	6.55
669.137	6.52
669.547	6.48
669.956	6.45
670.366	6.41
670.776	6.39
671.186	6.37
671.595	6.35
672.005	6.34
672.414	6.33
672.824	6.31
673.233	6.29
673.642	6.29
674.052	6.3
674.461	6.3
674.87	6.32
675.279	6.34
675.688	6.35
676.097	6.37
676.506	6.4
676.915	6.42
677.323	6.46
677.732	6.5
678.141	6.54
678.549	6.57
678.958	6.63
679.366	6.68
679.775	6.74
680.183	6.83
680.592	6.93
681	7.03
681.408	7.14
681.816	7.28
682.224	7.42
682.632	7.59
683.04	7.77
683.448	7.96
683.856	8.17
684.264	8.41
684.671	8.66
685.079	8.93
685.487	9.22
685.894	9.55
686.302	9.9
686.709	10.27
687.116	10.67
687.524	11.09
687.931	11.53
688.338	11.99
688.745	12.46
689.152	12.95
689.559	13.47
689.966	13.99
690.373	14.52
690.78	15.06
691.187	15.62
691.593	16.18
692	16.73
692.407	17.28
692.813	17.86
693.22	18.43
693.626	19
694.032	19.57
694.439	20.13
694.845	20.7
695.251	21.26
695.657	21.79
696.063	22.31
696.469	22.84
696.875	23.38
697.281	23.87
697.687	24.37
698.093	24.86
698.498	25.35
698.904	25.83
699.31	26.28
699.715	26.72
700.12	27.18
700.526	27.62
700.931	28.05
701.337	28.46
701.742	28.86
702.147	29.27
702.552	29.65
702.957	30.01
703.362	30.39
703.767	30.72
704.172	31.06
704.577	31.39
704.981	31.72
705.386	32.05
705.791	32.36
706.195	32.68
706.6	32.98
707.004	33.27
707.408	33.56
707.813	33.83
708.217	34.13
708.621	34.42
709.025	34.68
709.43	34.93
709.834	35.2
710.237	35.43
710.641	35.66
711.045	35.9
711.449	36.14
711.853	36.38
712.256	36.62
712.66	36.81
713.064	37.01
713.467	37.23
713.87	37.45
714.274	37.61
714.677	37.83
715.08	38.02
715.484	38.21
715.887	38.42
716.29	38.58
716.693	38.76
717.096	38.96
717.499	39.13
717.901	39.29
718.304	39.46
718.707	39.65
719.109	39.82
719.512	39.99
719.915	40.15
720.317	40.26
720.719	40.38
721.122	40.51
721.524	40.62
721.926	40.77
722.328	40.91
722.731	41.02
723.133	41.13
723.535	41.24
723.937	41.35
724.338	41.45
724.74	41.58
725.142	41.79
725.544	41.88
725.945	42.03
726.347	42.08
726.748	42.17
727.15	42.23
727.551	42.32
727.952	42.37
728.354	42.43
728.755	42.49
729.156	42.53
729.557	42.49
729.958	42.54
730.359	42.57
730.76	42.66
731.161	42.72
731.562	42.78
731.962	42.8
732.363	42.87
732.763	42.92
733.164	42.98
733.564	43.04
733.965	43.07
734.365	43.15
734.766	43.18
735.166	43.22
735.566	43.27
735.966	43.31
736.366	43.37
736.766	43.39
737.166	43.46
737.566	43.48
737.966	43.5
738.365	43.53
738.765	43.55
739.165	43.57
739.564	43.61
739.964	43.62
740.363	43.65
740.763	43.66
741.162	43.68
741.561	43.67
741.96	43.69
742.36	43.71
742.759	43.73
743.158	43.73
743.557	43.74
743.955	43.75
744.354	43.76
744.753	43.79
745.152	43.83
745.55	43.87
745.949	43.89
746.348	43.89
746.746	43.93
747.144	43.96
747.543	43.96
747.941	43.98
748.339	43.96
748.737	43.95
749.136	43.92
749.534	43.88
749.932	43.86
750.33	43.86
750.727	43.86
751.125	43.85
751.523	43.82
751.921	43.85
752.318	43.86
752.716	43.86
753.113	43.87
753.511	43.89
753.908	43.94
754.305	43.97
754.703	43.97
755.1	43.97
755.497	43.96
755.894	43.96
756.291	43.93
756.688	43.89
757.085	43.9
757.482	43.89
757.878	43.89
758.275	43.87
758.672	43.84
759.068	43.85
759.465	43.84
759.861	43.84
760.258	43.85
760.654	43.87
761.05	43.9
761.447	43.9
761.843	43.9
762.239	43.9
762.635	43.89
763.031	43.91
763.427	43.91
763.822	43.93
764.218	43.96
764.614	43.99
765.01	43.97
765.405	43.98
765.801	43.97
766.196	44
766.592	44
766.987	44.01
767.382	44.01
767.778	44.01
768.173	44.01
768.568	44
768.963	43.96
769.358	44
769.753	43.98
770.148	44.01
770.542	44.01
770.937	44.03
771.332	44.02
771.726	44.02
772.121	44.02
772.515	44.02
772.91	44.02
773.304	44.06
773.699	44.05
774.093	44.07
774.487	44.04
774.881	44.03
775.275	44.03
775.669	44.06
776.063	44.05
776.457	44.07
776.851	44.06
777.245	44.05
777.638	44.02
778.032	44.05
778.425	44.06
778.819	44.1
779.212	44.13
779.606	44.12
779.999	44.1
780.392	44.11
780.786	44.08
781.179	44.12
781.572	44.14
781.965	44.15
