Data from N_2_HIR_WI_4N_Splice17_13-33-49-369.txt Node
Date: Sat Mar 07 13:33:49 EST 2020
User: sa697716
Spectrometer: NQ5500242
Trigger mode: 0
Integration Time (sec): 1.450000E-1
Scans to average: 20
Nonlinearity correction enabled: false
Boxcar width: 5
Storing dark spectrum: false
XAxis mode: Wavelengths
Number of Pixels in Spectrum: 512
>>>>>Begin Spectral Data<<<<<
187.83	180.01
188.298	187.69
188.766	162.38
189.233	146.41
189.701	146.14
190.169	176.63
190.636	197.29
191.104	253.55
191.571	97.27
192.039	15.03
192.506	-14.1
192.974	135.09
193.441	157.6
193.908	50.9
194.375	91.42
194.842	35
195.31	57.72
195.777	261.16
196.244	99.67
196.711	87.25
197.177	87.54
197.644	86.24
198.111	86.71
198.578	86.75
199.045	87.57
199.511	87.03
199.978	87.3
200.445	87.63
200.911	87.38
201.378	87.22
201.844	87.18
202.31	86.59
202.777	86.62
203.243	86.21
203.709	85.45
204.176	84.46
204.642	84.1
205.108	83.37
205.574	82.43
206.04	81.34
206.506	80.52
206.972	79.97
207.438	79.4
207.903	77.9
208.369	76.13
208.835	74.57
209.301	72.92
209.766	70.9
210.232	69.01
210.697	67.11
211.163	65.36
211.628	63.67
212.094	61.86
212.559	60.29
213.024	59
213.49	57.75
213.955	56.66
214.42	55.2
214.885	53.42
215.35	51.12
215.815	48.31
216.28	44.96
216.745	41.26
217.21	37.48
217.675	33.92
218.14	30.86
218.604	28.19
219.069	25.85
219.534	24.02
219.998	22.52
220.463	21.3
220.927	20.22
221.392	19.35
221.856	18.58
222.32	17.96
222.785	17.44
223.249	16.94
223.713	16.5
224.177	16.14
224.642	15.76
225.106	15.37
225.57	14.99
226.034	14.67
226.497	14.38
226.961	14.11
227.425	13.83
227.889	13.56
228.353	13.29
228.816	13.05
229.28	12.8
229.744	12.58
230.207	12.37
230.671	12.17
231.134	11.98
231.597	11.79
232.061	11.61
232.524	11.44
232.987	11.27
233.45	11.13
233.914	10.98
234.377	10.82
234.84	10.69
235.303	10.57
235.766	10.45
236.229	10.32
236.691	10.21
237.154	10.09
237.617	10
238.08	9.88
238.542	9.77
239.005	9.67
239.468	9.57
239.93	9.46
240.393	9.38
240.855	9.26
241.317	9.17
241.78	9.06
242.242	8.96
242.704	8.86
243.166	8.78
243.629	8.71
244.091	8.61
244.553	8.54
245.015	8.45
245.477	8.38
245.939	8.3
246.4	8.22
246.862	8.15
247.324	8.08
247.786	8
248.247	7.92
248.709	7.83
249.17	7.75
249.632	7.69
250.093	7.63
250.555	7.55
251.016	7.5
251.477	7.43
251.939	7.38
252.4	7.33
252.861	7.28
253.322	7.23
253.783	7.18
254.244	7.14
254.705	7.08
255.166	7.03
255.627	6.98
256.088	6.93
256.549	6.88
257.009	6.82
257.47	6.76
257.931	6.71
258.391	6.65
258.852	6.59
259.312	6.54
259.773	6.48
260.233	6.44
260.694	6.39
261.154	6.33
261.614	6.28
262.074	6.24
262.534	6.19
262.994	6.15
263.455	6.11
263.915	6.07
264.374	6.03
264.834	6
265.294	5.96
265.754	5.94
266.214	5.91
266.673	5.88
267.133	5.86
267.593	5.84
268.052	5.82
268.512	5.8
268.971	5.79
269.431	5.77
269.89	5.74
270.349	5.73
270.809	5.7
271.268	5.68
271.727	5.67
272.186	5.65
272.645	5.63
273.104	5.6
273.563	5.58
274.022	5.56
274.481	5.55
274.94	5.53
275.399	5.51
275.857	5.49
276.316	5.47
276.775	5.46
277.233	5.44
277.692	5.43
278.15	5.42
278.609	5.4
279.067	5.4
279.525	5.38
279.984	5.36
280.442	5.35
280.9	5.35
281.358	5.34
281.816	5.33
282.274	5.31
282.732	5.3
283.19	5.29
283.648	5.27
284.106	5.24
284.564	5.23
285.021	5.22
285.479	5.21
285.937	5.19
286.394	5.17
286.852	5.15
287.309	5.14
287.767	5.12
288.224	5.11
288.682	5.09
289.139	5.07
289.596	5.04
290.053	5.01
290.511	4.99
290.968	4.96
291.425	4.94
291.882	4.91
292.339	4.89
292.796	4.87
293.252	4.85
293.709	4.83
294.166	4.82
294.623	4.8
295.079	4.78
295.536	4.77
295.992	4.76
296.449	4.74
296.905	4.73
297.362	4.71
297.818	4.7
298.274	4.68
298.731	4.66
299.187	4.64
299.643	4.63
300.099	4.62
300.555	4.61
301.011	4.6
301.467	4.59
301.923	4.58
302.379	4.58
302.835	4.57
303.291	4.57
303.746	4.56
304.202	4.56
304.658	4.56
305.113	4.55
305.569	4.55
306.024	4.54
306.479	4.53
306.935	4.53
307.39	4.52
307.845	4.52
308.301	4.52
308.756	4.52
309.211	4.51
309.666	4.51
310.121	4.52
310.576	4.51
311.031	4.51
311.486	4.5
311.94	4.5
312.395	4.49
312.85	4.49
313.305	4.49
313.759	4.48
314.214	4.48
314.668	4.47
315.123	4.45
315.577	4.45
316.032	4.44
316.486	4.43
316.94	4.42
317.394	4.41
317.849	4.39
318.303	4.36
318.757	4.34
319.211	4.33
319.665	4.31
320.119	4.28
320.572	4.26
321.026	4.25
321.48	4.23
321.934	4.22
322.387	4.2
322.841	4.19
323.295	4.19
323.748	4.18
324.202	4.17
324.655	4.16
325.108	4.17
325.562	4.17
326.015	4.16
326.468	4.16
326.921	4.16
327.374	4.16
327.827	4.16
328.28	4.14
328.733	4.14
329.186	4.14
329.639	4.14
330.092	4.13
330.545	4.13
330.997	4.12
331.45	4.12
331.903	4.13
332.355	4.14
332.808	4.14
333.26	4.15
333.713	4.14
334.165	4.14
334.617	4.15
335.069	4.15
335.522	4.15
335.974	4.15
336.426	4.15
336.878	4.14
337.33	4.12
337.782	4.12
338.234	4.11
338.686	4.1
339.137	4.1
339.589	4.08
340.041	4.07
340.493	4.06
340.944	4.04
341.396	4.02
341.847	4.01
342.299	3.99
342.75	3.98
343.201	3.96
343.653	3.95
344.104	3.93
344.555	3.92
345.006	3.9
345.457	3.89
345.908	3.87
346.359	3.88
346.81	3.87
347.261	3.86
347.712	3.85
348.163	3.84
348.613	3.83
349.064	3.83
349.515	3.83
349.965	3.82
350.416	3.81
350.866	3.81
351.317	3.79
351.767	3.79
352.217	3.79
352.668	3.78
353.118	3.77
353.568	3.76
354.018	3.77
354.468	3.77
354.918	3.77
355.368	3.78
355.818	3.78
356.268	3.77
356.718	3.77
357.168	3.77
357.617	3.76
358.067	3.76
358.517	3.77
358.966	3.77
359.416	3.77
359.865	3.76
360.315	3.77
360.764	3.77
361.213	3.76
361.663	3.75
362.112	3.75
362.561	3.76
363.01	3.75
363.459	3.73
363.908	3.72
364.357	3.72
364.806	3.72
365.255	3.71
365.703	3.71
366.152	3.72
366.601	3.73
367.05	3.72
367.498	3.72
367.947	3.73
368.395	3.74
368.844	3.73
369.292	3.72
369.74	3.73
370.189	3.71
370.637	3.7
371.085	3.69
371.533	3.67
371.981	3.66
372.429	3.65
372.877	3.64
373.325	3.63
373.773	3.62
374.221	3.62
374.669	3.6
375.116	3.6
375.564	3.59
376.012	3.58
376.459	3.58
376.907	3.58
377.354	3.58
377.801	3.58
378.249	3.58
378.696	3.57
379.143	3.57
379.591	3.57
380.038	3.57
380.485	3.57
380.932	3.57
381.379	3.56
381.826	3.55
382.273	3.55
382.72	3.53
383.166	3.53
383.613	3.52
384.06	3.51
384.506	3.51
384.953	3.5
385.4	3.5
385.846	3.51
386.292	3.5
386.739	3.49
387.185	3.48
387.631	3.49
388.078	3.48
388.524	3.48
388.97	3.48
389.416	3.48
389.862	3.48
390.308	3.48
390.754	3.48
391.2	3.48
391.645	3.48
392.091	3.5
392.537	3.5
392.983	3.51
393.428	3.52
393.874	3.52
394.319	3.53
394.765	3.53
395.21	3.53
395.655	3.54
396.101	3.55
396.546	3.56
396.991	3.58
397.436	3.58
397.881	3.6
398.326	3.61
398.771	3.62
399.216	3.62
399.661	3.64
400.106	3.66
400.551	3.67
400.995	3.67
401.44	3.67
401.885	3.67
402.329	3.69
402.774	3.7
403.218	3.73
403.663	3.74
404.107	3.77
404.551	3.78
404.995	3.78
405.44	3.78
405.884	3.81
406.328	3.83
406.772	3.84
407.216	3.86
407.66	3.87
408.104	3.87
408.547	3.88
408.991	3.9
409.435	3.91
409.879	3.93
410.322	3.97
410.766	4
411.209	4.02
411.653	4.05
412.096	4.07
412.54	4.09
412.983	4.11
413.426	4.16
413.869	4.17
414.312	4.2
414.756	4.23
415.199	4.24
415.642	4.25
416.085	4.27
416.527	4.27
416.97	4.27
417.413	4.28
417.856	4.28
418.298	4.28
418.741	4.28
419.184	4.27
419.626	4.28
420.069	4.3
420.511	4.31
420.953	4.32
421.396	4.35
421.838	4.37
422.28	4.39
422.722	4.43
423.164	4.44
423.606	4.47
424.048	4.49
424.49	4.5
424.932	4.51
425.374	4.52
425.816	4.5
426.258	4.48
426.699	4.47
427.141	4.47
427.582	4.48
428.024	4.49
428.465	4.48
428.907	4.47
429.348	4.47
429.789	4.46
430.231	4.48
430.672	4.51
431.113	4.55
431.554	4.57
431.995	4.58
432.436	4.59
432.877	4.6
433.318	4.62
433.759	4.66
434.2	4.69
434.64	4.72
435.081	4.73
435.522	4.74
435.962	4.76
436.403	4.79
436.843	4.81
437.284	4.82
437.724	4.83
438.164	4.84
438.604	4.84
439.045	4.85
439.485	4.86
439.925	4.86
440.365	4.86
440.805	4.87
441.245	4.88
441.685	4.89
442.125	4.92
442.564	4.93
443.004	4.93
443.444	4.94
443.883	4.94
444.323	4.94
444.762	4.97
445.202	4.97
445.641	4.99
446.081	5.01
446.52	5
446.959	5.01
447.398	5.03
447.837	5.06
448.276	5.07
448.716	5.08
449.154	5.11
449.593	5.13
450.032	5.14
450.471	5.12
450.91	5.12
451.349	5.13
451.787	5.12
452.226	5.11
452.664	5.1
453.103	5.09
453.541	5.09
453.98	5.09
454.418	5.06
454.856	5.06
455.295	5.05
455.733	5.02
456.171	5
456.609	5
457.047	4.97
457.485	4.96
457.923	4.96
458.361	4.95
458.798	4.94
459.236	4.94
459.674	4.94
460.111	4.94
460.549	4.96
460.987	4.98
461.424	4.99
461.862	5
462.299	5.01
462.736	5.01
463.173	5.01
463.611	5.01
464.048	5.02
464.485	5.02
464.922	5.03
465.359	5.03
465.796	5.05
466.233	5.05
466.67	5.06
467.106	5.06
467.543	5.05
467.98	5.06
468.416	5.05
468.853	5.06
469.29	5.05
469.726	5.05
470.162	5.05
470.599	5.03
471.035	5.02
471.471	5.01
471.907	5.01
472.344	5
472.78	5
473.216	4.99
473.652	4.98
474.088	4.97
474.523	4.96
474.959	4.95
475.395	4.92
475.831	4.91
476.266	4.91
476.702	4.89
477.138	4.88
477.573	4.86
478.008	4.86
478.444	4.84
478.879	4.84
479.314	4.83
479.75	4.83
480.185	4.81
480.62	4.79
481.055	4.77
481.49	4.77
481.925	4.75
482.36	4.74
482.795	4.73
483.229	4.72
483.664	4.71
484.099	4.7
484.534	4.69
484.968	4.7
485.403	4.7
485.837	4.71
486.271	4.72
486.706	4.73
487.14	4.73
487.574	4.74
488.009	4.76
488.443	4.78
488.877	4.8
489.311	4.82
489.745	4.85
490.179	4.88
490.613	4.92
491.046	4.95
491.48	4.98
491.914	5.02
492.348	5.06
492.781	5.11
493.215	5.15
493.648	5.21
494.082	5.25
494.515	5.3
494.948	5.35
495.382	5.4
495.815	5.47
496.248	5.53
496.681	5.6
497.114	5.68
497.547	5.74
497.98	5.82
498.413	5.9
498.846	5.98
499.279	6.06
499.711	6.16
500.144	6.26
500.577	6.35
501.009	6.46
501.442	6.57
501.874	6.68
502.306	6.8
502.739	6.93
503.171	7.06
503.603	7.2
504.036	7.34
504.468	7.48
504.9	7.63
505.332	7.77
505.764	7.93
506.196	8.09
506.627	8.27
507.059	8.44
507.491	8.61
507.923	8.79
508.354	8.99
508.786	9.19
509.217	9.4
509.649	9.6
510.08	9.82
510.512	10.04
510.943	10.26
511.374	10.48
511.805	10.72
512.237	10.94
512.668	11.17
513.099	11.41
513.53	11.64
513.961	11.89
514.391	12.15
514.822	12.39
515.253	12.63
515.684	12.87
516.114	13.12
516.545	13.36
516.975	13.62
517.406	13.87
517.836	14.12
518.267	14.37
518.697	14.61
519.127	14.84
519.558	15.08
519.988	15.34
520.418	15.58
520.848	15.8
521.278	16.02
521.708	16.41
522.138	16.63
522.567	16.84
522.997	17.05
523.427	17.26
523.857	17.47
524.286	17.64
524.716	17.82
525.145	18
525.575	18.19
526.004	18.38
526.433	18.38
526.863	18.54
527.292	18.69
527.721	18.83
528.15	18.95
528.579	19.09
529.008	19.24
529.437	19.37
529.866	19.49
530.295	19.61
530.724	19.72
531.152	19.81
531.581	19.93
532.01	20.03
532.438	20.13
532.867	20.22
533.295	20.31
533.723	20.38
534.152	20.45
534.58	20.52
535.008	20.57
535.436	20.64
535.865	20.68
536.293	20.73
536.721	20.78
537.149	20.83
537.576	20.87
538.004	20.91
538.432	20.94
538.86	20.98
539.287	21
539.715	21.05
540.143	21.06
540.57	21.11
540.998	21.13
541.425	21.16
541.852	21.2
542.28	21.24
542.707	21.26
543.134	21.29
543.561	21.32
543.988	21.37
544.415	21.36
544.842	21.37
545.269	21.39
545.696	21.42
546.123	21.44
546.549	21.46
546.976	21.48
547.403	21.5
547.829	21.52
548.256	21.54
548.682	21.55
549.108	21.59
549.535	21.62
549.961	21.63
550.387	21.62
550.813	21.63
551.24	21.62
551.666	21.61
552.092	21.6
552.518	21.59
552.943	21.57
553.369	21.55
553.795	21.52
554.221	21.5
554.646	21.47
555.072	21.45
555.498	21.4
555.923	21.36
556.349	21.32
556.774	21.28
557.199	21.24
557.625	21.2
558.05	21.13
558.475	21.07
558.9	21
559.325	20.96
559.75	20.89
560.175	20.84
560.6	20.76
561.025	20.69
561.449	20.59
561.874	20.5
562.299	20.4
562.723	20.32
563.148	20.22
563.572	20.11
563.997	19.99
564.421	19.86
564.846	19.72
565.27	19.61
565.694	19.5
566.118	19.38
566.542	19.26
566.966	19.13
567.39	19
567.814	18.88
568.238	18.76
568.662	18.64
569.086	18.53
569.509	18.41
569.933	18.3
570.357	18.17
570.78	18.05
571.204	17.93
571.627	17.82
572.05	17.7
572.474	17.6
572.897	17.5
573.32	17.4
573.743	17.29
574.166	17.2
574.589	17.1
575.012	17
575.435	16.92
575.858	16.83
576.281	16.74
576.704	16.65
577.126	16.55
577.549	16.46
577.972	16.38
578.394	16.3
578.817	16.23
579.239	16.15
579.661	16.08
580.084	16.01
580.506	15.95
580.928	15.89
581.35	15.83
581.772	15.77
582.194	15.7
582.616	15.64
583.038	15.57
583.46	15.49
583.882	15.42
584.303	15.35
584.725	15.27
585.147	15.21
585.568	15.15
585.99	15.09
586.411	15.05
586.833	15
587.254	14.95
587.675	14.91
588.096	14.87
588.518	14.82
588.939	14.79
589.36	14.75
589.781	14.71
590.202	14.67
590.623	14.63
591.043	14.59
591.464	14.55
591.885	14.51
592.305	14.48
592.726	14.46
593.147	14.44
593.567	14.4
593.987	14.37
594.408	14.34
594.828	14.29
595.248	14.27
595.669	14.24
596.089	14.21
596.509	14.17
596.929	14.14
597.349	14.1
597.769	14.07
598.189	14.03
598.608	14
599.028	13.98
599.448	13.95
599.867	13.9
600.287	13.87
600.706	13.83
601.126	13.8
601.545	13.77
601.965	13.74
602.384	13.69
602.803	13.64
603.222	13.59
603.641	13.53
604.061	13.49
604.48	13.44
604.898	13.37
605.317	13.32
605.736	13.26
606.155	13.21
606.574	13.13
606.992	13.06
607.411	13
607.829	12.91
608.248	12.85
608.666	12.77
609.085	12.7
609.503	12.64
609.921	12.58
610.339	12.5
610.758	12.43
611.176	12.35
611.594	12.29
612.012	12.24
612.43	12.2
612.847	12.13
613.265	12.06
613.683	12
614.101	11.93
614.518	11.86
614.936	11.79
615.353	11.72
615.771	11.68
616.188	11.62
616.606	11.57
617.023	11.51
617.44	11.47
617.857	11.42
618.274	11.37
618.691	11.33
619.108	11.29
619.525	11.25
619.942	11.22
620.359	11.19
620.776	11.16
621.192	11.12
621.609	11.09
622.026	11.05
622.442	11.03
622.859	11.02
623.275	10.99
623.691	10.97
624.108	10.95
624.524	10.94
624.94	10.93
625.356	10.93
625.772	10.91
626.188	10.9
626.604	10.9
627.02	10.89
627.436	10.88
627.852	10.88
628.268	10.87
628.683	10.87
629.099	10.86
629.514	10.84
629.93	10.82
630.345	10.8
630.761	10.78
631.176	10.75
631.591	10.73
632.007	10.69
632.422	10.66
632.837	10.62
633.252	10.58
633.667	10.53
634.082	10.48
634.497	10.42
634.911	10.37
635.326	10.31
635.741	10.25
636.155	10.17
636.57	10.1
636.984	10.01
637.399	9.93
637.813	9.84
638.228	9.75
638.642	9.65
639.056	9.56
639.47	9.45
639.884	9.36
640.298	9.25
640.712	9.15
641.126	9.05
641.54	8.94
641.954	8.83
642.368	8.72
642.781	8.62
643.195	8.52
643.609	8.42
644.022	8.32
644.436	8.23
644.849	8.14
645.262	8.04
645.676	7.95
646.089	7.88
646.502	7.81
646.915	7.75
647.328	7.69
647.741	7.62
648.154	7.57
648.567	7.52
648.98	7.47
649.393	7.43
649.805	7.4
650.218	7.37
650.631	7.34
651.043	7.3
651.456	7.26
651.868	7.21
652.28	7.17
652.693	7.14
653.105	7.11
653.517	7.06
653.929	7.02
654.341	6.95
654.753	6.88
655.165	6.82
655.577	6.76
655.989	6.7
656.401	6.65
656.813	6.59
657.224	6.51
657.636	6.42
658.047	6.35
658.459	6.28
658.87	6.21
659.282	6.13
659.693	6.06
660.104	5.97
660.515	5.89
660.926	5.81
661.338	5.73
661.749	5.66
662.159	5.59
662.57	5.52
662.981	5.46
663.392	5.39
663.803	5.33
664.213	5.28
664.624	5.22
665.035	5.18
665.445	5.14
665.855	5.08
666.266	5.04
666.676	5.01
667.086	4.97
667.497	4.94
667.907	4.91
668.317	4.89
668.727	4.86
669.137	4.84
669.547	4.82
669.956	4.81
670.366	4.81
670.776	4.8
671.186	4.79
671.595	4.79
672.005	4.79
672.414	4.79
672.824	4.79
673.233	4.8
673.642	4.81
674.052	4.81
674.461	4.82
674.87	4.83
675.279	4.85
675.688	4.87
676.097	4.89
676.506	4.91
676.915	4.93
677.323	4.96
677.732	5
678.141	5.03
678.549	5.07
678.958	5.11
679.366	5.17
679.775	5.2
680.183	5.25
680.592	5.32
681	5.4
681.408	5.48
681.816	5.58
682.224	5.67
682.632	5.79
683.04	5.9
683.448	6.04
683.856	6.17
684.264	6.34
684.671	6.52
685.079	6.7
685.487	6.9
685.894	7.14
686.302	7.39
686.709	7.66
687.116	7.94
687.524	8.26
687.931	8.6
688.338	8.96
688.745	9.33
689.152	9.72
689.559	10.14
689.966	10.57
690.373	11
690.78	11.45
691.187	11.91
691.593	12.38
692	12.84
692.407	13.3
692.813	13.8
693.22	14.28
693.626	14.75
694.032	15.23
694.439	15.72
694.845	16.19
695.251	16.68
695.657	17.15
696.063	17.61
696.469	18.09
696.875	18.56
697.281	19.01
697.687	19.47
698.093	19.92
698.498	20.37
698.904	20.8
699.31	21.2
699.715	21.63
700.12	22.04
700.526	22.45
700.931	22.84
701.337	23.24
701.742	23.62
702.147	23.99
702.552	24.35
702.957	24.67
703.362	25.02
703.767	25.36
704.172	25.67
704.577	26
704.981	26.32
705.386	26.62
705.791	26.92
706.195	27.23
706.6	27.55
707.004	27.83
707.408	28.13
707.813	28.41
708.217	28.71
708.621	28.98
709.025	29.24
709.43	29.5
709.834	29.78
710.237	30.02
710.641	30.26
711.045	30.47
711.449	30.74
711.853	30.99
712.256	31.21
712.66	31.43
713.064	31.65
713.467	31.86
713.87	32.07
714.274	32.26
714.677	32.47
715.08	32.66
715.484	32.86
715.887	33.06
716.29	33.23
716.693	33.42
717.096	33.62
717.499	33.8
717.901	33.97
718.304	34.14
718.707	34.32
719.109	34.5
719.512	34.64
719.915	34.8
720.317	34.94
720.719	35.07
721.122	35.22
721.524	35.34
721.926	35.48
722.328	35.62
722.731	35.74
723.133	35.88
723.535	35.99
723.937	36.11
724.338	36.22
724.74	36.34
725.142	36.53
725.544	36.62
725.945	36.75
726.347	36.82
726.748	36.92
727.15	37.01
727.551	37.1
727.952	37.17
728.354	37.25
728.755	37.33
729.156	37.39
729.557	37.37
729.958	37.44
730.359	37.49
730.76	37.59
731.161	37.63
731.562	37.71
731.962	37.73
732.363	37.79
732.763	37.83
733.164	37.86
733.564	37.92
733.965	37.97
734.365	38.02
734.766	38.06
735.166	38.09
735.566	38.14
735.966	38.18
736.366	38.24
736.766	38.25
737.166	38.29
737.566	38.33
737.966	38.35
738.365	38.37
738.765	38.41
739.165	38.46
739.564	38.49
739.964	38.5
740.363	38.49
740.763	38.51
741.162	38.55
741.561	38.59
741.96	38.61
742.36	38.66
742.759	38.69
743.158	38.69
743.557	38.66
743.955	38.67
744.354	38.71
744.753	38.76
745.152	38.8
745.55	38.82
745.949	38.82
746.348	38.84
746.746	38.84
747.144	38.85
747.543	38.86
747.941	38.91
748.339	38.89
748.737	38.89
749.136	38.88
749.534	38.85
749.932	38.87
750.33	38.86
750.727	38.87
751.125	38.88
751.523	38.87
751.921	38.87
752.318	38.87
752.716	38.91
753.113	38.89
753.511	38.9
753.908	38.92
754.305	38.91
754.703	38.9
755.1	38.89
755.497	38.88
755.894	38.88
756.291	38.89
756.688	38.87
757.085	38.86
757.482	38.87
757.878	38.84
758.275	38.82
758.672	38.83
759.068	38.85
759.465	38.84
759.861	38.85
760.258	38.84
760.654	38.86
761.05	38.9
761.447	38.9
761.843	38.92
762.239	38.94
762.635	38.94
763.031	38.93
763.427	38.93
763.822	38.95
764.218	38.96
764.614	38.97
765.01	38.96
765.405	38.96
765.801	38.95
766.196	38.94
766.592	38.94
766.987	38.95
767.382	38.95
767.778	38.95
768.173	38.95
768.568	38.95
768.963	38.94
769.358	38.95
769.753	38.94
770.148	38.97
770.542	38.98
770.937	38.98
771.332	38.98
771.726	38.98
772.121	39
772.515	39
772.91	38.98
773.304	38.99
773.699	38.98
774.093	38.94
774.487	38.93
774.881	38.94
775.275	38.93
775.669	38.94
776.063	38.93
776.457	38.93
776.851	38.93
777.245	38.91
777.638	38.91
778.032	38.91
778.425	38.95
778.819	38.94
779.212	38.94
779.606	38.97
779.999	38.94
780.392	38.98
780.786	38.94
781.179	38.94
781.572	38.99
781.965	38.97
782.358	39
782.751	38.99
783.143	38.99
