Data from N_2_DIV_PA_2N_Splice17_13-39-24-761.txt Node
Date: Sat Mar 07 13:39:24 EST 2020
User: sa697716
Spectrometer: NQ5500242
Trigger mode: 0
Integration Time (sec): 1.450000E-1
Scans to average: 20
Nonlinearity correction enabled: false
Boxcar width: 5
Storing dark spectrum: false
XAxis mode: Wavelengths
Number of Pixels in Spectrum: 512
>>>>>Begin Spectral Data<<<<<
187.83	160.25
188.298	181.39
188.766	156.08
189.233	127.17
189.701	157.87
190.169	187.08
190.636	180.12
191.104	202.39
191.571	-50.89
192.039	-237.17
192.506	-477.45
192.974	48.76
193.441	152.2
193.908	27.62
194.375	20.47
194.842	60.83
195.31	85.87
195.777	268.61
196.244	106.06
196.711	93.78
197.177	92.19
197.644	91.4
198.111	92.03
198.578	92.32
199.045	93.23
199.511	92.68
199.978	92.99
200.445	93.39
200.911	93.09
201.378	92.93
201.844	92.69
202.31	92.32
202.777	92.62
203.243	92.36
203.709	91.63
204.176	90.56
204.642	90.21
205.108	89.47
205.574	88.45
206.04	87.41
206.506	86.61
206.972	85.86
207.438	85.23
207.903	83.59
208.369	81.5
208.835	79.52
209.301	77.68
209.766	75.17
210.232	72.77
210.697	70.51
211.163	68.46
211.628	66.37
212.094	64.51
212.559	62.83
213.024	61.18
213.49	59.97
213.955	58.46
214.42	56.64
214.885	54.91
215.35	52.68
215.815	49.76
216.28	45.93
216.745	41.73
217.21	37.3
217.675	33.12
218.14	29.6
218.604	26.5
219.069	24.02
219.534	21.99
219.998	20.23
220.463	18.79
220.927	17.53
221.392	16.56
221.856	15.75
222.32	15.1
222.785	14.54
223.249	14.02
223.713	13.6
224.177	13.22
224.642	12.87
225.106	12.52
225.57	12.19
226.034	11.94
226.497	11.7
226.961	11.45
227.425	11.23
227.889	11.03
228.353	10.82
228.816	10.59
229.28	10.39
229.744	10.21
230.207	10.07
230.671	9.9
231.134	9.74
231.597	9.62
232.061	9.5
232.524	9.36
232.987	9.24
233.45	9.14
233.914	9.06
234.377	8.95
234.84	8.87
235.303	8.79
235.766	8.73
236.229	8.65
236.691	8.56
237.154	8.49
237.617	8.44
238.08	8.39
238.542	8.31
239.005	8.27
239.468	8.21
239.93	8.15
240.393	8.08
240.855	7.99
241.317	7.93
241.78	7.87
242.242	7.78
242.704	7.73
243.166	7.65
243.629	7.6
244.091	7.53
244.553	7.46
245.015	7.39
245.477	7.32
245.939	7.27
246.4	7.21
246.862	7.15
247.324	7.1
247.786	7.03
248.247	6.97
248.709	6.91
249.17	6.85
249.632	6.81
250.093	6.78
250.555	6.73
251.016	6.69
251.477	6.65
251.939	6.61
252.4	6.58
252.861	6.54
253.322	6.51
253.783	6.48
254.244	6.46
254.705	6.42
255.166	6.38
255.627	6.35
256.088	6.32
256.549	6.3
257.009	6.25
257.47	6.22
257.931	6.17
258.391	6.11
258.852	6.06
259.312	6.01
259.773	5.97
260.233	5.93
260.694	5.88
261.154	5.84
261.614	5.79
262.074	5.74
262.534	5.7
262.994	5.67
263.455	5.64
263.915	5.61
264.374	5.58
264.834	5.55
265.294	5.52
265.754	5.5
266.214	5.47
266.673	5.45
267.133	5.44
267.593	5.41
268.052	5.4
268.512	5.39
268.971	5.38
269.431	5.36
269.89	5.35
270.349	5.33
270.809	5.32
271.268	5.31
271.727	5.3
272.186	5.29
272.645	5.28
273.104	5.27
273.563	5.25
274.022	5.24
274.481	5.24
274.94	5.23
275.399	5.21
275.857	5.2
276.316	5.19
276.775	5.18
277.233	5.17
277.692	5.16
278.15	5.16
278.609	5.16
279.067	5.16
279.525	5.14
279.984	5.14
280.442	5.14
280.9	5.14
281.358	5.14
281.816	5.14
282.274	5.14
282.732	5.14
283.19	5.13
283.648	5.13
284.106	5.11
284.564	5.11
285.021	5.1
285.479	5.1
285.937	5.09
286.394	5.09
286.852	5.07
287.309	5.06
287.767	5.04
288.224	5.03
288.682	5
289.139	4.98
289.596	4.97
290.053	4.94
290.511	4.92
290.968	4.9
291.425	4.88
291.882	4.87
292.339	4.85
292.796	4.84
293.252	4.83
293.709	4.83
294.166	4.82
294.623	4.81
295.079	4.81
295.536	4.8
295.992	4.79
296.449	4.79
296.905	4.78
297.362	4.78
297.818	4.77
298.274	4.77
298.731	4.76
299.187	4.75
299.643	4.74
300.099	4.74
300.555	4.74
301.011	4.73
301.467	4.73
301.923	4.72
302.379	4.72
302.835	4.72
303.291	4.72
303.746	4.72
304.202	4.73
304.658	4.73
305.113	4.73
305.569	4.74
306.024	4.74
306.479	4.74
306.935	4.74
307.39	4.74
307.845	4.74
308.301	4.75
308.756	4.76
309.211	4.76
309.666	4.77
310.121	4.78
310.576	4.78
311.031	4.77
311.486	4.78
311.94	4.78
312.395	4.79
312.85	4.78
313.305	4.78
313.759	4.78
314.214	4.78
314.668	4.77
315.123	4.77
315.577	4.77
316.032	4.77
316.486	4.76
316.94	4.76
317.394	4.75
317.849	4.74
318.303	4.73
318.757	4.71
319.211	4.7
319.665	4.69
320.119	4.66
320.572	4.65
321.026	4.63
321.48	4.62
321.934	4.6
322.387	4.6
322.841	4.6
323.295	4.61
323.748	4.6
324.202	4.6
324.655	4.61
325.108	4.62
325.562	4.63
326.015	4.64
326.468	4.65
326.921	4.65
327.374	4.65
327.827	4.66
328.28	4.65
328.733	4.66
329.186	4.66
329.639	4.65
330.092	4.65
330.545	4.65
330.997	4.66
331.45	4.67
331.903	4.68
332.355	4.69
332.808	4.69
333.26	4.7
333.713	4.7
334.165	4.7
334.617	4.72
335.069	4.71
335.522	4.72
335.974	4.72
336.426	4.7
336.878	4.7
337.33	4.69
337.782	4.69
338.234	4.7
338.686	4.71
339.137	4.71
339.589	4.68
340.041	4.68
340.493	4.66
340.944	4.64
341.396	4.64
341.847	4.63
342.299	4.61
342.75	4.59
343.201	4.56
343.653	4.54
344.104	4.51
344.555	4.5
345.006	4.48
345.457	4.47
345.908	4.47
346.359	4.45
346.81	4.44
347.261	4.44
347.712	4.43
348.163	4.43
348.613	4.43
349.064	4.44
349.515	4.44
349.965	4.43
350.416	4.44
350.866	4.43
351.317	4.43
351.767	4.43
352.217	4.43
352.668	4.43
353.118	4.44
353.568	4.43
354.018	4.43
354.468	4.44
354.918	4.44
355.368	4.44
355.818	4.44
356.268	4.45
356.718	4.46
357.168	4.45
357.617	4.45
358.067	4.44
358.517	4.46
358.966	4.46
359.416	4.47
359.865	4.47
360.315	4.48
360.764	4.49
361.213	4.49
361.663	4.48
362.112	4.49
362.561	4.5
363.01	4.5
363.459	4.49
363.908	4.49
364.357	4.49
364.806	4.49
365.255	4.48
365.703	4.49
366.152	4.5
366.601	4.51
367.05	4.51
367.498	4.52
367.947	4.54
368.395	4.55
368.844	4.55
369.292	4.55
369.74	4.55
370.189	4.56
370.637	4.56
371.085	4.56
371.533	4.57
371.981	4.58
372.429	4.58
372.877	4.58
373.325	4.59
373.773	4.59
374.221	4.58
374.669	4.59
375.116	4.59
375.564	4.6
376.012	4.6
376.459	4.61
376.907	4.63
377.354	4.64
377.801	4.67
378.249	4.67
378.696	4.69
379.143	4.71
379.591	4.73
380.038	4.75
380.485	4.77
380.932	4.79
381.379	4.82
381.826	4.82
382.273	4.84
382.72	4.83
383.166	4.85
383.613	4.87
384.06	4.89
384.506	4.92
384.953	4.94
385.4	4.96
385.846	5
386.292	5.01
386.739	5.03
387.185	5.04
387.631	5.08
388.078	5.11
388.524	5.13
388.97	5.15
389.416	5.19
389.862	5.23
390.308	5.26
390.754	5.3
391.2	5.34
391.645	5.38
392.091	5.44
392.537	5.47
392.983	5.51
393.428	5.55
393.874	5.59
394.319	5.62
394.765	5.65
395.21	5.68
395.655	5.72
396.101	5.76
396.546	5.79
396.991	5.83
397.436	5.87
397.881	5.92
398.326	5.97
398.771	6.03
399.216	6.06
399.661	6.11
400.106	6.15
400.551	6.18
400.995	6.2
401.44	6.23
401.885	6.26
402.329	6.3
402.774	6.32
403.218	6.37
403.663	6.4
404.107	6.44
404.551	6.48
404.995	6.51
405.44	6.54
405.884	6.58
406.328	6.62
406.772	6.66
407.216	6.69
407.66	6.72
408.104	6.74
408.547	6.76
408.991	6.79
409.435	6.81
409.879	6.84
410.322	6.89
410.766	6.94
411.209	6.98
411.653	7.01
412.096	7.05
412.54	7.1
412.983	7.14
413.426	7.21
413.869	7.25
414.312	7.3
414.756	7.34
415.199	7.35
415.642	7.37
416.085	7.4
416.527	7.41
416.97	7.4
417.413	7.41
417.856	7.42
418.298	7.42
418.741	7.43
419.184	7.44
419.626	7.45
420.069	7.48
420.511	7.5
420.953	7.52
421.396	7.55
421.838	7.58
422.28	7.6
422.722	7.64
423.164	7.65
423.606	7.68
424.048	7.68
424.49	7.68
424.932	7.67
425.374	7.65
425.816	7.62
426.258	7.61
426.699	7.6
427.141	7.61
427.582	7.62
428.024	7.64
428.465	7.63
428.907	7.61
429.348	7.61
429.789	7.62
430.231	7.66
430.672	7.7
431.113	7.74
431.554	7.76
431.995	7.76
432.436	7.75
432.877	7.76
433.318	7.8
433.759	7.85
434.2	7.9
434.64	7.93
435.081	7.95
435.522	7.97
435.962	7.98
436.403	8.01
436.843	8.02
437.284	8.03
437.724	8.03
438.164	8.01
438.604	8.01
439.045	8.01
439.485	8.02
439.925	8.01
440.365	8.01
440.805	7.99
441.245	8
441.685	8.02
442.125	8.04
442.564	8.03
443.004	8.03
443.444	8.05
443.883	8.05
444.323	8.03
444.762	8.04
445.202	8.04
445.641	8.05
446.081	8.06
446.52	8.04
446.959	8.06
447.398	8.07
447.837	8.07
448.276	8.04
448.716	8.03
449.154	8.03
449.593	8.03
450.032	8.01
450.471	8
450.91	7.96
451.349	7.95
451.787	7.91
452.226	7.88
452.664	7.86
453.103	7.84
453.541	7.81
453.98	7.8
454.418	7.76
454.856	7.74
455.295	7.7
455.733	7.67
456.171	7.65
456.609	7.64
457.047	7.6
457.485	7.6
457.923	7.58
458.361	7.57
458.798	7.56
459.236	7.56
459.674	7.55
460.111	7.55
460.549	7.56
460.987	7.57
461.424	7.57
461.862	7.6
462.299	7.61
462.736	7.63
463.173	7.63
463.611	7.63
464.048	7.65
464.485	7.67
464.922	7.7
465.359	7.7
465.796	7.73
466.233	7.73
466.67	7.73
467.106	7.74
467.543	7.72
467.98	7.72
468.416	7.7
468.853	7.69
469.29	7.67
469.726	7.63
470.162	7.62
470.599	7.57
471.035	7.56
471.471	7.54
471.907	7.52
472.344	7.51
472.78	7.51
473.216	7.49
473.652	7.47
474.088	7.44
474.523	7.44
474.959	7.43
475.395	7.4
475.831	7.39
476.266	7.38
476.702	7.36
477.138	7.34
477.573	7.32
478.008	7.3
478.444	7.27
478.879	7.27
479.314	7.25
479.75	7.24
480.185	7.21
480.62	7.19
481.055	7.15
481.49	7.13
481.925	7.11
482.36	7.1
482.795	7.09
483.229	7.08
483.664	7.07
484.099	7.04
484.534	7.02
484.968	7.02
485.403	7.01
485.837	7.01
486.271	7.01
486.706	6.99
487.14	6.98
487.574	6.97
488.009	6.97
488.443	6.96
488.877	6.96
489.311	6.97
489.745	6.97
490.179	6.99
490.613	7
491.046	7.01
491.48	7.01
491.914	7.02
492.348	7.04
492.781	7.05
493.215	7.07
493.648	7.08
494.082	7.08
494.515	7.08
494.948	7.09
495.382	7.09
495.815	7.1
496.248	7.12
496.681	7.13
497.114	7.14
497.547	7.14
497.98	7.15
498.413	7.16
498.846	7.18
499.279	7.2
499.711	7.2
500.144	7.22
500.577	7.24
501.009	7.25
501.442	7.28
501.874	7.3
502.306	7.33
502.739	7.37
503.171	7.39
503.603	7.42
504.036	7.46
504.468	7.49
504.9	7.5
505.332	7.53
505.764	7.58
506.196	7.62
506.627	7.66
507.059	7.69
507.491	7.73
507.923	7.77
508.354	7.83
508.786	7.87
509.217	7.94
509.649	8
510.08	8.06
510.512	8.13
510.943	8.18
511.374	8.24
511.805	8.32
512.237	8.38
512.668	8.46
513.099	8.52
513.53	8.61
513.961	8.7
514.391	8.79
514.822	8.9
515.253	8.98
515.684	9.08
516.114	9.19
516.545	9.29
516.975	9.4
517.406	9.51
517.836	9.62
518.267	9.73
518.697	9.82
519.127	9.92
519.558	10.02
519.988	10.13
520.418	10.22
520.848	10.33
521.278	10.43
521.708	10.76
522.138	10.87
522.567	10.97
522.997	11.07
523.427	11.19
523.857	11.3
524.286	11.4
524.716	11.52
525.145	11.63
525.575	11.75
526.004	11.85
526.433	11.73
526.863	11.82
527.292	11.93
527.721	12.02
528.15	12.1
528.579	12.19
529.008	12.28
529.437	12.35
529.866	12.41
530.295	12.49
530.724	12.56
531.152	12.64
531.581	12.71
532.01	12.77
532.438	12.83
532.867	12.89
533.295	12.94
533.723	12.99
534.152	13.05
534.58	13.1
535.008	13.13
535.436	13.19
535.865	13.22
536.293	13.26
536.721	13.29
537.149	13.31
537.576	13.36
538.004	13.39
538.432	13.42
538.86	13.45
539.287	13.48
539.715	13.53
540.143	13.54
540.57	13.56
540.998	13.59
541.425	13.62
541.852	13.65
542.28	13.66
542.707	13.69
543.134	13.7
543.561	13.72
543.988	13.74
544.415	13.75
544.842	13.77
545.269	13.8
545.696	13.82
546.123	13.84
546.549	13.86
546.976	13.88
547.403	13.89
547.829	13.91
548.256	13.91
548.682	13.91
549.108	13.94
549.535	13.96
549.961	13.95
550.387	13.96
550.813	13.97
551.24	13.98
551.666	13.98
552.092	13.97
552.518	13.97
552.943	13.97
553.369	13.95
553.795	13.92
554.221	13.9
554.646	13.88
555.072	13.86
555.498	13.81
555.923	13.77
556.349	13.72
556.774	13.68
557.199	13.63
557.625	13.6
558.05	13.56
558.475	13.52
558.9	13.49
559.325	13.44
559.75	13.37
560.175	13.32
560.6	13.26
561.025	13.21
561.449	13.15
561.874	13.09
562.299	13.02
562.723	12.94
563.148	12.86
563.572	12.77
563.997	12.68
564.421	12.6
564.846	12.51
565.27	12.44
565.694	12.35
566.118	12.26
566.542	12.18
566.966	12.09
567.39	12.01
567.814	11.92
568.238	11.83
568.662	11.76
569.086	11.67
569.509	11.61
569.933	11.54
570.357	11.46
570.78	11.39
571.204	11.31
571.627	11.24
572.05	11.17
572.474	11.11
572.897	11.05
573.32	11
573.743	10.95
574.166	10.89
574.589	10.82
575.012	10.78
575.435	10.72
575.858	10.67
576.281	10.62
576.704	10.58
577.126	10.53
577.549	10.49
577.972	10.44
578.394	10.38
578.817	10.34
579.239	10.31
579.661	10.27
580.084	10.24
580.506	10.22
580.928	10.18
581.35	10.15
581.772	10.11
582.194	10.07
582.616	10.04
583.038	10.02
583.46	9.99
583.882	9.97
584.303	9.94
584.725	9.92
585.147	9.91
585.568	9.9
585.99	9.88
586.411	9.86
586.833	9.84
587.254	9.81
587.675	9.78
588.096	9.75
588.518	9.73
588.939	9.72
589.36	9.69
589.781	9.65
590.202	9.64
590.623	9.62
591.043	9.59
591.464	9.58
591.885	9.56
592.305	9.55
592.726	9.55
593.147	9.52
593.567	9.5
593.987	9.47
594.408	9.47
594.828	9.43
595.248	9.41
595.669	9.41
596.089	9.39
596.509	9.37
596.929	9.36
597.349	9.34
597.769	9.33
598.189	9.31
598.608	9.29
599.028	9.27
599.448	9.25
599.867	9.23
600.287	9.19
600.706	9.18
601.126	9.15
601.545	9.13
601.965	9.12
602.384	9.09
602.803	9.06
603.222	9.04
603.641	9
604.061	9
604.48	8.98
604.898	8.95
605.317	8.93
605.736	8.91
606.155	8.89
606.574	8.86
606.992	8.83
607.411	8.81
607.829	8.76
608.248	8.73
608.666	8.7
609.085	8.67
609.503	8.66
609.921	8.63
610.339	8.61
610.758	8.57
611.176	8.54
611.594	8.53
612.012	8.5
612.43	8.52
612.847	8.49
613.265	8.47
613.683	8.45
614.101	8.42
614.518	8.39
614.936	8.36
615.353	8.34
615.771	8.32
616.188	8.29
616.606	8.28
617.023	8.25
617.44	8.24
617.857	8.22
618.274	8.19
618.691	8.17
619.108	8.16
619.525	8.14
619.942	8.14
620.359	8.13
620.776	8.12
621.192	8.11
621.609	8.1
622.026	8.08
622.442	8.08
622.859	8.08
623.275	8.07
623.691	8.06
624.108	8.06
624.524	8.05
624.94	8.05
625.356	8.05
625.772	8.04
626.188	8.04
626.604	8.04
627.02	8.03
627.436	8.03
627.852	8.03
628.268	8.03
628.683	8.03
629.099	8.03
629.514	8.04
629.93	8.03
630.345	8.04
630.761	8.03
631.176	8.03
631.591	8.03
632.007	8.04
632.422	8.02
632.837	8.02
633.252	8.01
633.667	8
634.082	7.97
634.497	7.97
634.911	7.96
635.326	7.94
635.741	7.93
636.155	7.92
636.57	7.9
636.984	7.9
637.399	7.88
637.813	7.87
638.228	7.85
638.642	7.83
639.056	7.8
639.47	7.78
639.884	7.76
640.298	7.73
640.712	7.7
641.126	7.69
641.54	7.65
641.954	7.62
642.368	7.6
642.781	7.59
643.195	7.57
643.609	7.56
644.022	7.53
644.436	7.53
644.849	7.51
645.262	7.49
645.676	7.46
646.089	7.44
646.502	7.43
646.915	7.42
647.328	7.41
647.741	7.4
648.154	7.39
648.567	7.39
648.98	7.37
649.393	7.37
649.805	7.36
650.218	7.36
650.631	7.36
651.043	7.35
651.456	7.35
651.868	7.33
652.28	7.33
652.693	7.33
653.105	7.32
653.517	7.32
653.929	7.31
654.341	7.29
654.753	7.28
655.165	7.27
655.577	7.27
655.989	7.25
656.401	7.23
656.813	7.23
657.224	7.21
657.636	7.2
658.047	7.19
658.459	7.17
658.87	7.16
659.282	7.14
659.693	7.13
660.104	7.1
660.515	7.09
660.926	7.08
661.338	7.06
661.749	7.04
662.159	7.02
662.57	7.01
662.981	7
663.392	6.99
663.803	6.99
664.213	6.97
664.624	6.97
665.035	6.97
665.445	6.98
665.855	6.97
666.266	6.98
666.676	6.98
667.086	6.97
667.497	6.97
667.907	6.98
668.317	6.97
668.727	6.98
669.137	6.98
669.547	6.98
669.956	6.97
670.366	6.97
670.776	6.97
671.186	6.98
671.595	6.99
672.005	6.99
672.414	7.01
672.824	7.02
673.233	7.03
673.642	7.04
674.052	7.06
674.461	7.07
674.87	7.08
675.279	7.11
675.688	7.12
676.097	7.13
676.506	7.16
676.915	7.17
677.323	7.18
677.732	7.2
678.141	7.21
678.549	7.23
678.958	7.25
679.366	7.28
679.775	7.28
680.183	7.3
680.592	7.33
681	7.36
681.408	7.39
681.816	7.43
682.224	7.45
682.632	7.49
683.04	7.52
683.448	7.56
683.856	7.59
684.264	7.64
684.671	7.68
685.079	7.71
685.487	7.76
685.894	7.81
686.302	7.85
686.709	7.91
687.116	7.98
687.524	8.05
687.931	8.12
688.338	8.21
688.745	8.31
689.152	8.41
689.559	8.54
689.966	8.67
690.373	8.82
690.78	8.97
691.187	9.15
691.593	9.31
692	9.51
692.407	9.7
692.813	9.93
693.22	10.16
693.626	10.4
694.032	10.65
694.439	10.92
694.845	11.19
695.251	11.48
695.657	11.78
696.063	12.1
696.469	12.43
696.875	12.77
697.281	13.11
697.687	13.46
698.093	13.82
698.498	14.19
698.904	14.55
699.31	14.92
699.715	15.32
700.12	15.71
700.526	16.11
700.931	16.51
701.337	16.91
701.742	17.3
702.147	17.72
702.552	18.13
702.957	18.53
703.362	18.95
703.767	19.35
704.172	19.75
704.577	20.15
704.981	20.55
705.386	20.95
705.791	21.35
706.195	21.76
706.6	22.16
707.004	22.56
707.408	22.98
707.813	23.4
708.217	23.81
708.621	24.21
709.025	24.62
709.43	25.02
709.834	25.47
710.237	25.88
710.641	26.29
711.045	26.69
711.449	27.11
711.853	27.54
712.256	27.94
712.66	28.36
713.064	28.79
713.467	29.2
713.87	29.63
714.274	29.99
714.677	30.41
715.08	30.82
715.484	31.22
715.887	31.64
716.29	32
716.693	32.4
717.096	32.79
717.499	33.18
717.901	33.57
718.304	33.94
718.707	34.31
719.109	34.67
719.512	35.02
719.915	35.38
720.317	35.71
720.719	36.03
721.122	36.35
721.524	36.67
721.926	36.99
722.328	37.32
722.731	37.6
723.133	37.93
723.535	38.22
723.937	38.53
724.338	38.82
724.74	39.1
725.142	39.56
725.544	39.83
725.945	40.14
726.347	40.38
726.748	40.6
727.15	40.86
727.551	41.11
727.952	41.32
728.354	41.55
728.755	41.74
729.156	41.95
729.557	41.99
729.958	42.17
730.359	42.33
730.76	42.52
731.161	42.71
731.562	42.89
731.962	43.04
732.363	43.25
732.763	43.4
733.164	43.58
733.564	43.76
733.965	43.91
734.365	44.07
734.766	44.22
735.166	44.39
735.566	44.51
735.966	44.67
736.366	44.81
736.766	44.91
737.166	45.05
737.566	45.16
737.966	45.26
738.365	45.36
738.765	45.47
739.165	45.56
739.564	45.65
739.964	45.75
740.363	45.83
740.763	45.91
741.162	46.02
741.561	46.07
741.96	46.15
742.36	46.24
742.759	46.35
743.158	46.4
743.557	46.47
743.955	46.54
744.354	46.6
744.753	46.66
745.152	46.74
745.55	46.78
745.949	46.86
746.348	46.92
746.746	46.95
747.144	46.99
747.543	47.04
747.941	47.06
748.339	47.06
748.737	47.1
749.136	47.12
749.534	47.11
749.932	47.13
750.33	47.15
750.727	47.16
751.125	47.2
751.523	47.21
751.921	47.23
752.318	47.27
752.716	47.32
753.113	47.34
753.511	47.38
753.908	47.44
754.305	47.49
754.703	47.48
755.1	47.51
755.497	47.52
755.894	47.55
756.291	47.58
756.688	47.57
757.085	47.6
757.482	47.62
757.878	47.64
758.275	47.65
758.672	47.67
759.068	47.75
759.465	47.74
759.861	47.77
760.258	47.79
760.654	47.8
761.05	47.84
761.447	47.88
761.843	47.9
762.239	47.92
762.635	47.93
763.031	47.93
763.427	47.91
763.822	47.94
764.218	47.96
764.614	48
765.01	48
765.405	47.99
765.801	47.98
766.196	47.98
766.592	47.97
766.987	47.98
767.382	48
767.778	47.99
768.173	48.02
768.568	48.01
768.963	47.99
769.358	48.02
769.753	48.04
770.148	48.06
770.542	48.06
770.937	48.07
771.332	48.04
771.726	48.06
772.121	48.08
772.515	48.06
772.91	48.06
773.304	48.06
773.699	48.03
774.093	48.03
774.487	48.04
774.881	48.05
775.275	48.07
775.669	48.08
776.063	48.06
776.457	48.05
776.851	48.06
777.245	48.04
777.638	48.05
778.032	48.09
778.425	48.12
778.819	48.15
779.212	48.19
779.606	48.2
779.999	48.22
780.392	48.25
780.786	48.27
781.179	48.29
781.572	48.34
781.965	48.37
782.358	48.36
782.751	48.34
783.143	48.31
783.536	48.31
783.929	48.28
784.322	48.31
784.714	48.3
785.107	48.34
785.499	48.32
785.891	48.31
786.284	48.32
786.676	48.34
