Data from N_2_DIV_PA_2N_Splice17_13-39-18-825.txt Node
Date: Sat Mar 07 13:39:18 EST 2020
User: sa697716
Spectrometer: NQ5500242
Trigger mode: 0
Integration Time (sec): 1.450000E-1
Scans to average: 20
Nonlinearity correction enabled: false
Boxcar width: 5
Storing dark spectrum: false
XAxis mode: Wavelengths
Number of Pixels in Spectrum: 512
>>>>>Begin Spectral Data<<<<<
187.83	209.7
188.298	235.49
188.766	224.04
189.233	182.24
189.701	181.08
190.169	206.75
190.636	224.51
191.104	310.11
191.571	214.26
192.039	-153.87
192.506	-168.32
192.974	52.09
193.441	159.39
193.908	117.33
194.375	67.98
194.842	19.05
195.31	42.41
195.777	123.56
196.244	84.5
196.711	90.21
197.177	90.86
197.644	90.62
198.111	91.43
198.578	91.97
199.045	92.99
199.511	93.23
199.978	93
200.445	93.14
200.911	93.24
201.378	93.4
201.844	93.41
202.31	93.06
202.777	93.07
203.243	92.44
203.709	91.66
204.176	90.5
204.642	89.51
205.108	88.91
205.574	88.08
206.04	86.78
206.506	86.05
206.972	85.15
207.438	84.21
207.903	82.94
208.369	81.32
208.835	79.64
209.301	77.86
209.766	75.47
210.232	73.39
210.697	71.15
211.163	69.29
211.628	67.25
212.094	65.24
212.559	63.73
213.024	62.02
213.49	60.47
213.955	58.87
214.42	57.24
214.885	55.47
215.35	52.99
215.815	50.06
216.28	46.05
216.745	41.7
217.21	37.39
217.675	33.2
218.14	29.64
218.604	26.59
219.069	23.99
219.534	21.87
219.998	20.18
220.463	18.82
220.927	17.53
221.392	16.55
221.856	15.76
222.32	15.08
222.785	14.53
223.249	14.02
223.713	13.57
224.177	13.21
224.642	12.85
225.106	12.46
225.57	12.12
226.034	11.87
226.497	11.62
226.961	11.38
227.425	11.16
227.889	10.94
228.353	10.73
228.816	10.51
229.28	10.31
229.744	10.13
230.207	10
230.671	9.82
231.134	9.64
231.597	9.52
232.061	9.39
232.524	9.25
232.987	9.14
233.45	9.06
233.914	8.95
234.377	8.85
234.84	8.75
235.303	8.67
235.766	8.6
236.229	8.54
236.691	8.45
237.154	8.36
237.617	8.31
238.08	8.24
238.542	8.16
239.005	8.11
239.468	8.05
239.93	8
240.393	7.93
240.855	7.84
241.317	7.77
241.78	7.7
242.242	7.64
242.704	7.57
243.166	7.49
243.629	7.43
244.091	7.35
244.553	7.28
245.015	7.21
245.477	7.15
245.939	7.1
246.4	7.04
246.862	6.98
247.324	6.93
247.786	6.87
248.247	6.82
248.709	6.74
249.17	6.69
249.632	6.66
250.093	6.62
250.555	6.57
251.016	6.53
251.477	6.48
251.939	6.45
252.4	6.41
252.861	6.37
253.322	6.34
253.783	6.32
254.244	6.3
254.705	6.25
255.166	6.22
255.627	6.19
256.088	6.16
256.549	6.13
257.009	6.09
257.47	6.06
257.931	6.01
258.391	5.95
258.852	5.9
259.312	5.86
259.773	5.81
260.233	5.77
260.694	5.72
261.154	5.67
261.614	5.62
262.074	5.57
262.534	5.53
262.994	5.5
263.455	5.46
263.915	5.43
264.374	5.4
264.834	5.38
265.294	5.34
265.754	5.32
266.214	5.3
266.673	5.29
267.133	5.27
267.593	5.25
268.052	5.23
268.512	5.23
268.971	5.21
269.431	5.2
269.89	5.18
270.349	5.17
270.809	5.16
271.268	5.14
271.727	5.12
272.186	5.12
272.645	5.11
273.104	5.1
273.563	5.08
274.022	5.07
274.481	5.06
274.94	5.05
275.399	5.04
275.857	5.03
276.316	5.03
276.775	5.02
277.233	5.01
277.692	5.01
278.15	5
278.609	5
279.067	5
279.525	4.99
279.984	4.99
280.442	4.99
280.9	4.99
281.358	4.98
281.816	4.99
282.274	4.98
282.732	4.98
283.19	4.97
283.648	4.97
284.106	4.96
284.564	4.96
285.021	4.95
285.479	4.94
285.937	4.93
286.394	4.93
286.852	4.92
287.309	4.91
287.767	4.9
288.224	4.88
288.682	4.86
289.139	4.84
289.596	4.83
290.053	4.81
290.511	4.78
290.968	4.76
291.425	4.73
291.882	4.72
292.339	4.7
292.796	4.69
293.252	4.68
293.709	4.67
294.166	4.67
294.623	4.65
295.079	4.64
295.536	4.63
295.992	4.63
296.449	4.62
296.905	4.61
297.362	4.6
297.818	4.59
298.274	4.6
298.731	4.58
299.187	4.57
299.643	4.56
300.099	4.57
300.555	4.56
301.011	4.56
301.467	4.57
301.923	4.56
302.379	4.56
302.835	4.56
303.291	4.56
303.746	4.56
304.202	4.57
304.658	4.58
305.113	4.58
305.569	4.58
306.024	4.59
306.479	4.58
306.935	4.58
307.39	4.59
307.845	4.59
308.301	4.6
308.756	4.6
309.211	4.6
309.666	4.61
310.121	4.62
310.576	4.61
311.031	4.62
311.486	4.63
311.94	4.63
312.395	4.63
312.85	4.64
313.305	4.63
313.759	4.64
314.214	4.64
314.668	4.63
315.123	4.62
315.577	4.62
316.032	4.61
316.486	4.6
316.94	4.6
317.394	4.6
317.849	4.58
318.303	4.57
318.757	4.55
319.211	4.54
319.665	4.52
320.119	4.51
320.572	4.49
321.026	4.49
321.48	4.48
321.934	4.46
322.387	4.46
322.841	4.46
323.295	4.46
323.748	4.45
324.202	4.46
324.655	4.46
325.108	4.47
325.562	4.48
326.015	4.49
326.468	4.49
326.921	4.5
327.374	4.49
327.827	4.49
328.28	4.49
328.733	4.49
329.186	4.49
329.639	4.5
330.092	4.5
330.545	4.51
330.997	4.5
331.45	4.52
331.903	4.53
332.355	4.54
332.808	4.55
333.26	4.55
333.713	4.56
334.165	4.56
334.617	4.56
335.069	4.56
335.522	4.56
335.974	4.57
336.426	4.55
336.878	4.54
337.33	4.53
337.782	4.54
338.234	4.55
338.686	4.55
339.137	4.55
339.589	4.53
340.041	4.53
340.493	4.51
340.944	4.49
341.396	4.49
341.847	4.48
342.299	4.46
342.75	4.44
343.201	4.41
343.653	4.39
344.104	4.36
344.555	4.35
345.006	4.33
345.457	4.32
345.908	4.31
346.359	4.31
346.81	4.3
347.261	4.29
347.712	4.28
348.163	4.27
348.613	4.28
349.064	4.29
349.515	4.29
349.965	4.29
350.416	4.29
350.866	4.28
351.317	4.27
351.767	4.28
352.217	4.28
352.668	4.29
353.118	4.29
353.568	4.28
354.018	4.29
354.468	4.29
354.918	4.31
355.368	4.31
355.818	4.33
356.268	4.32
356.718	4.32
357.168	4.32
357.617	4.32
358.067	4.32
358.517	4.34
358.966	4.33
359.416	4.33
359.865	4.32
360.315	4.33
360.764	4.33
361.213	4.33
361.663	4.33
362.112	4.34
362.561	4.34
363.01	4.34
363.459	4.33
363.908	4.32
364.357	4.34
364.806	4.34
365.255	4.34
365.703	4.36
366.152	4.37
366.601	4.38
367.05	4.38
367.498	4.39
367.947	4.4
368.395	4.41
368.844	4.42
369.292	4.42
369.74	4.42
370.189	4.42
370.637	4.41
371.085	4.42
371.533	4.42
371.981	4.42
372.429	4.43
372.877	4.43
373.325	4.43
373.773	4.43
374.221	4.43
374.669	4.44
375.116	4.44
375.564	4.45
376.012	4.46
376.459	4.46
376.907	4.48
377.354	4.49
377.801	4.51
378.249	4.53
378.696	4.55
379.143	4.57
379.591	4.59
380.038	4.61
380.485	4.64
380.932	4.66
381.379	4.69
381.826	4.7
382.273	4.72
382.72	4.72
383.166	4.73
383.613	4.75
384.06	4.76
384.506	4.78
384.953	4.79
385.4	4.8
385.846	4.84
386.292	4.85
386.739	4.87
387.185	4.9
387.631	4.93
388.078	4.96
388.524	4.99
388.97	5.02
389.416	5.06
389.862	5.1
390.308	5.14
390.754	5.17
391.2	5.21
391.645	5.25
392.091	5.29
392.537	5.33
392.983	5.37
393.428	5.41
393.874	5.45
394.319	5.48
394.765	5.5
395.21	5.52
395.655	5.55
396.101	5.59
396.546	5.63
396.991	5.67
397.436	5.71
397.881	5.75
398.326	5.8
398.771	5.85
399.216	5.89
399.661	5.93
400.106	5.97
400.551	6
400.995	6.02
401.44	6.06
401.885	6.09
402.329	6.13
402.774	6.17
403.218	6.23
403.663	6.25
404.107	6.29
404.551	6.34
404.995	6.37
405.44	6.41
405.884	6.46
406.328	6.5
406.772	6.54
407.216	6.58
407.66	6.61
408.104	6.62
408.547	6.65
408.991	6.67
409.435	6.71
409.879	6.74
410.322	6.78
410.766	6.82
411.209	6.85
411.653	6.89
412.096	6.93
412.54	6.95
412.983	7
413.426	7.07
413.869	7.11
414.312	7.17
414.756	7.22
415.199	7.24
415.642	7.28
416.085	7.3
416.527	7.31
416.97	7.31
417.413	7.32
417.856	7.32
418.298	7.32
418.741	7.33
419.184	7.32
419.626	7.33
420.069	7.35
420.511	7.36
420.953	7.39
421.396	7.42
421.838	7.44
422.28	7.48
422.722	7.53
423.164	7.54
423.606	7.57
424.048	7.6
424.49	7.6
424.932	7.6
425.374	7.58
425.816	7.56
426.258	7.55
426.699	7.55
427.141	7.55
427.582	7.55
428.024	7.58
428.465	7.58
428.907	7.57
429.348	7.55
429.789	7.56
430.231	7.61
430.672	7.65
431.113	7.67
431.554	7.7
431.995	7.7
432.436	7.71
432.877	7.71
433.318	7.75
433.759	7.78
434.2	7.83
434.64	7.85
435.081	7.87
435.522	7.88
435.962	7.89
436.403	7.9
436.843	7.92
437.284	7.91
437.724	7.91
438.164	7.9
438.604	7.91
439.045	7.91
439.485	7.91
439.925	7.9
440.365	7.91
440.805	7.91
441.245	7.92
441.685	7.96
442.125	7.98
442.564	7.98
443.004	7.99
443.444	7.99
443.883	7.99
444.323	7.98
444.762	7.99
445.202	7.99
445.641	8
446.081	8
446.52	7.99
446.959	8
447.398	8.01
447.837	8.01
448.276	8
448.716	8
449.154	8.01
449.593	8.02
450.032	8
450.471	7.96
450.91	7.92
451.349	7.9
451.787	7.87
452.226	7.83
452.664	7.82
453.103	7.79
453.541	7.77
453.98	7.76
454.418	7.71
454.856	7.69
455.295	7.67
455.733	7.65
456.171	7.62
456.609	7.61
457.047	7.58
457.485	7.56
457.923	7.56
458.361	7.53
458.798	7.54
459.236	7.53
459.674	7.52
460.111	7.52
460.549	7.54
460.987	7.53
461.424	7.53
461.862	7.55
462.299	7.57
462.736	7.57
463.173	7.57
463.611	7.56
464.048	7.57
464.485	7.58
464.922	7.57
465.359	7.57
465.796	7.6
466.233	7.62
466.67	7.63
467.106	7.64
467.543	7.63
467.98	7.63
468.416	7.62
468.853	7.63
469.29	7.63
469.726	7.63
470.162	7.62
470.599	7.59
471.035	7.56
471.471	7.54
471.907	7.51
472.344	7.5
472.78	7.5
473.216	7.47
473.652	7.45
474.088	7.42
474.523	7.4
474.959	7.38
475.395	7.35
475.831	7.33
476.266	7.31
476.702	7.29
477.138	7.26
477.573	7.24
478.008	7.24
478.444	7.21
478.879	7.21
479.314	7.2
479.75	7.19
480.185	7.18
480.62	7.16
481.055	7.13
481.49	7.11
481.925	7.09
482.36	7.07
482.795	7.05
483.229	7.04
483.664	7.02
484.099	6.99
484.534	6.97
484.968	6.97
485.403	6.95
485.837	6.95
486.271	6.95
486.706	6.95
487.14	6.94
487.574	6.93
488.009	6.93
488.443	6.93
488.877	6.94
489.311	6.94
489.745	6.94
490.179	6.95
490.613	6.97
491.046	6.97
491.48	6.97
491.914	6.98
492.348	6.99
492.781	7
493.215	7.02
493.648	7.02
494.082	7.03
494.515	7.04
494.948	7.05
495.382	7.05
495.815	7.06
496.248	7.07
496.681	7.08
497.114	7.09
497.547	7.09
497.98	7.1
498.413	7.12
498.846	7.14
499.279	7.15
499.711	7.15
500.144	7.16
500.577	7.19
501.009	7.21
501.442	7.23
501.874	7.26
502.306	7.27
502.739	7.31
503.171	7.34
503.603	7.36
504.036	7.4
504.468	7.43
504.9	7.45
505.332	7.48
505.764	7.51
506.196	7.53
506.627	7.58
507.059	7.63
507.491	7.66
507.923	7.71
508.354	7.77
508.786	7.81
509.217	7.88
509.649	7.95
510.08	8.01
510.512	8.08
510.943	8.15
511.374	8.21
511.805	8.29
512.237	8.35
512.668	8.42
513.099	8.5
513.53	8.58
513.961	8.66
514.391	8.74
514.822	8.84
515.253	8.93
515.684	9.02
516.114	9.12
516.545	9.22
516.975	9.32
517.406	9.43
517.836	9.54
518.267	9.65
518.697	9.75
519.127	9.86
519.558	9.96
519.988	10.08
520.418	10.2
520.848	10.3
521.278	10.41
521.708	10.74
522.138	10.85
522.567	10.95
522.997	11.05
523.427	11.16
523.857	11.28
524.286	11.38
524.716	11.49
525.145	11.6
525.575	11.71
526.004	11.81
526.433	11.69
526.863	11.79
527.292	11.9
527.721	11.99
528.15	12.09
528.579	12.16
529.008	12.24
529.437	12.33
529.866	12.4
530.295	12.49
530.724	12.55
531.152	12.64
531.581	12.69
532.01	12.76
532.438	12.82
532.867	12.88
533.295	12.94
533.723	13
534.152	13.04
534.58	13.09
535.008	13.13
535.436	13.19
535.865	13.23
536.293	13.27
536.721	13.3
537.149	13.34
537.576	13.37
538.004	13.41
538.432	13.44
538.86	13.49
539.287	13.51
539.715	13.54
540.143	13.55
540.57	13.57
540.998	13.59
541.425	13.62
541.852	13.65
542.28	13.68
542.707	13.69
543.134	13.71
543.561	13.73
543.988	13.75
544.415	13.76
544.842	13.78
545.269	13.8
545.696	13.82
546.123	13.84
546.549	13.86
546.976	13.88
547.403	13.9
547.829	13.92
548.256	13.93
548.682	13.95
549.108	13.98
549.535	13.99
549.961	14
550.387	14.01
550.813	14.01
551.24	14
551.666	13.99
552.092	14
552.518	13.99
552.943	13.98
553.369	13.96
553.795	13.93
554.221	13.92
554.646	13.9
555.072	13.88
555.498	13.84
555.923	13.8
556.349	13.76
556.774	13.71
557.199	13.67
557.625	13.63
558.05	13.58
558.475	13.54
558.9	13.47
559.325	13.42
559.75	13.36
560.175	13.31
560.6	13.25
561.025	13.2
561.449	13.13
561.874	13.06
562.299	12.99
562.723	12.92
563.148	12.83
563.572	12.76
563.997	12.68
564.421	12.58
564.846	12.49
565.27	12.4
565.694	12.33
566.118	12.24
566.542	12.16
566.966	12.07
567.39	11.98
567.814	11.9
568.238	11.81
568.662	11.73
569.086	11.65
569.509	11.58
569.933	11.5
570.357	11.42
570.78	11.34
571.204	11.27
571.627	11.21
572.05	11.13
572.474	11.08
572.897	11.02
573.32	10.97
573.743	10.92
574.166	10.85
574.589	10.78
575.012	10.74
575.435	10.68
575.858	10.63
576.281	10.58
576.704	10.54
577.126	10.5
577.549	10.46
577.972	10.41
578.394	10.36
578.817	10.34
579.239	10.3
579.661	10.26
580.084	10.24
580.506	10.21
580.928	10.17
581.35	10.14
581.772	10.09
582.194	10.05
582.616	10.02
583.038	10
583.46	9.95
583.882	9.93
584.303	9.89
584.725	9.86
585.147	9.84
585.568	9.82
585.99	9.8
586.411	9.79
586.833	9.77
587.254	9.74
587.675	9.72
588.096	9.69
588.518	9.67
588.939	9.66
589.36	9.65
589.781	9.62
590.202	9.61
590.623	9.58
591.043	9.55
591.464	9.53
591.885	9.51
592.305	9.49
592.726	9.49
593.147	9.48
593.567	9.44
593.987	9.41
594.408	9.39
594.828	9.36
595.248	9.34
595.669	9.34
596.089	9.33
596.509	9.31
596.929	9.28
597.349	9.26
597.769	9.23
598.189	9.21
598.608	9.21
599.028	9.21
599.448	9.18
599.867	9.16
600.287	9.13
600.706	9.11
601.126	9.09
601.545	9.08
601.965	9.06
602.384	9.05
602.803	9.03
603.222	9.01
603.641	8.97
604.061	8.95
604.48	8.92
604.898	8.89
605.317	8.87
605.736	8.85
606.155	8.83
606.574	8.8
606.992	8.77
607.411	8.75
607.829	8.68
608.248	8.65
608.666	8.62
609.085	8.6
609.503	8.58
609.921	8.56
610.339	8.53
610.758	8.51
611.176	8.48
611.594	8.46
612.012	8.43
612.43	8.44
612.847	8.42
613.265	8.4
613.683	8.38
614.101	8.36
614.518	8.33
614.936	8.31
615.353	8.27
615.771	8.26
616.188	8.23
616.606	8.22
617.023	8.19
617.44	8.18
617.857	8.16
618.274	8.14
618.691	8.12
619.108	8.11
619.525	8.1
619.942	8.09
620.359	8.08
620.776	8.07
621.192	8.06
621.609	8.05
622.026	8.04
622.442	8.03
622.859	8.03
623.275	8.03
623.691	8.03
624.108	8.01
624.524	8.01
624.94	8.01
625.356	8.01
625.772	8.01
626.188	8
626.604	8.01
627.02	8
627.436	7.99
627.852	7.99
628.268	7.99
628.683	7.99
629.099	7.98
629.514	7.98
629.93	7.98
630.345	7.98
630.761	7.98
631.176	7.97
631.591	7.97
632.007	7.96
632.422	7.95
632.837	7.94
633.252	7.94
633.667	7.94
634.082	7.92
634.497	7.91
634.911	7.9
635.326	7.89
635.741	7.87
636.155	7.86
636.57	7.86
636.984	7.85
637.399	7.84
637.813	7.81
638.228	7.8
638.642	7.78
639.056	7.75
639.47	7.72
639.884	7.71
640.298	7.68
640.712	7.64
641.126	7.61
641.54	7.58
641.954	7.55
642.368	7.53
642.781	7.51
643.195	7.49
643.609	7.48
644.022	7.45
644.436	7.42
644.849	7.4
645.262	7.39
645.676	7.38
646.089	7.37
646.502	7.37
646.915	7.37
647.328	7.35
647.741	7.34
648.154	7.32
648.567	7.33
648.98	7.32
649.393	7.31
649.805	7.31
650.218	7.3
650.631	7.3
651.043	7.28
651.456	7.27
651.868	7.25
652.28	7.24
652.693	7.24
653.105	7.24
653.517	7.23
653.929	7.23
654.341	7.21
654.753	7.2
655.165	7.18
655.577	7.17
655.989	7.16
656.401	7.15
656.813	7.14
657.224	7.12
657.636	7.09
658.047	7.09
658.459	7.07
658.87	7.06
659.282	7.04
659.693	7.03
660.104	7.02
660.515	7
660.926	6.99
661.338	6.97
661.749	6.96
662.159	6.96
662.57	6.95
662.981	6.94
663.392	6.93
663.803	6.93
664.213	6.91
664.624	6.9
665.035	6.9
665.445	6.9
665.855	6.89
666.266	6.9
666.676	6.91
667.086	6.9
667.497	6.9
667.907	6.89
668.317	6.89
668.727	6.9
669.137	6.9
669.547	6.91
669.956	6.91
670.366	6.91
670.776	6.91
671.186	6.9
671.595	6.9
672.005	6.91
672.414	6.92
672.824	6.93
673.233	6.92
673.642	6.93
674.052	6.95
674.461	6.96
674.87	6.98
675.279	7.01
675.688	7.03
676.097	7.05
676.506	7.08
676.915	7.11
677.323	7.13
677.732	7.14
678.141	7.17
678.549	7.17
678.958	7.19
679.366	7.22
679.775	7.23
680.183	7.26
680.592	7.29
681	7.31
681.408	7.32
681.816	7.36
682.224	7.41
682.632	7.45
683.04	7.49
683.448	7.52
683.856	7.54
684.264	7.59
684.671	7.62
685.079	7.65
685.487	7.7
685.894	7.77
686.302	7.82
686.709	7.88
687.116	7.94
687.524	8.01
687.931	8.1
688.338	8.2
688.745	8.28
689.152	8.39
689.559	8.52
689.966	8.65
690.373	8.79
690.78	8.94
691.187	9.1
691.593	9.27
692	9.47
692.407	9.66
692.813	9.88
693.22	10.12
693.626	10.36
694.032	10.61
694.439	10.88
694.845	11.16
695.251	11.45
695.657	11.75
696.063	12.06
696.469	12.37
696.875	12.71
697.281	13.05
697.687	13.4
698.093	13.76
698.498	14.11
698.904	14.48
699.31	14.85
699.715	15.24
700.12	15.64
700.526	16.03
700.931	16.45
701.337	16.86
701.742	17.27
702.147	17.68
702.552	18.1
702.957	18.51
703.362	18.93
703.767	19.33
704.172	19.74
704.577	20.15
704.981	20.58
705.386	21
705.791	21.41
706.195	21.82
706.6	22.24
707.004	22.66
707.408	23.11
707.813	23.53
708.217	23.97
708.621	24.39
709.025	24.81
709.43	25.19
709.834	25.6
710.237	26.01
710.641	26.43
711.045	26.84
711.449	27.24
711.853	27.66
712.256	28.07
712.66	28.49
713.064	28.89
713.467	29.3
713.87	29.73
714.274	30.14
714.677	30.57
715.08	30.97
715.484	31.38
715.887	31.78
716.29	32.15
716.693	32.54
717.096	32.93
717.499	33.33
717.901	33.71
718.304	34.09
718.707	34.46
719.109	34.82
719.512	35.17
719.915	35.53
720.317	35.88
720.719	36.2
721.122	36.54
721.524	36.86
721.926	37.19
722.328	37.5
722.731	37.79
723.133	38.11
723.535	38.43
723.937	38.72
724.338	39.01
724.74	39.31
725.142	39.75
725.544	40.01
725.945	40.32
726.347	40.57
726.748	40.85
727.15	41.09
727.551	41.34
727.952	41.56
728.354	41.79
728.755	42.01
729.156	42.2
729.557	42.26
729.958	42.46
730.359	42.63
730.76	42.84
731.161	43.01
731.562	43.23
731.962	43.38
732.363	43.56
732.763	43.71
733.164	43.88
733.564	44.08
733.965	44.24
734.365	44.38
734.766	44.51
735.166	44.66
735.566	44.82
735.966	44.94
736.366	45.08
736.766	45.2
737.166	45.34
737.566	45.44
737.966	45.53
738.365	45.65
738.765	45.77
739.165	45.87
739.564	45.97
739.964	46.06
740.363	46.14
740.763	46.23
741.162	46.32
741.561	46.39
741.96	46.47
742.36	46.54
742.759	46.6
743.158	46.67
743.557	46.75
743.955	46.8
744.354	46.84
744.753	46.9
745.152	46.99
745.55	47.02
745.949	47.07
746.348	47.15
746.746	47.2
747.144	47.26
747.543	47.31
747.941	47.34
748.339	47.37
748.737	47.41
749.136	47.44
749.534	47.43
749.932	47.48
750.33	47.5
750.727	47.53
751.125	47.55
751.523	47.57
751.921	47.61
752.318	47.61
752.716	47.66
753.113	47.7
753.511	47.74
753.908	47.79
754.305	47.83
754.703	47.86
755.1	47.88
755.497	47.92
755.894	47.92
756.291	47.92
756.688	47.96
757.085	47.97
757.482	47.98
757.878	48.01
758.275	48.02
758.672	48.01
759.068	48.06
759.465	48.09
759.861	48.12
760.258	48.14
760.654	48.18
761.05	48.22
761.447	48.24
761.843	48.24
762.239	48.24
762.635	48.27
763.031	48.31
763.427	48.28
763.822	48.29
764.218	48.29
764.614	48.32
765.01	48.32
765.405	48.32
765.801	48.31
766.196	48.33
766.592	48.33
766.987	48.31
767.382	48.31
767.778	48.33
768.173	48.34
768.568	48.33
768.963	48.32
769.358	48.33
769.753	48.32
770.148	48.34
770.542	48.34
770.937	48.35
771.332	48.38
771.726	48.39
772.121	48.39
772.515	48.41
772.91	48.42
773.304	48.45
773.699	48.45
774.093	48.45
774.487	48.47
774.881	48.49
775.275	48.48
775.669	48.48
776.063	48.47
776.457	48.5
776.851	48.47
777.245	48.45
777.638	48.43
778.032	48.45
778.425	48.48
778.819	48.48
779.212	48.5
779.606	48.53
779.999	48.52
780.392	48.56
780.786	48.54
781.179	48.59
781.572	48.65
781.965	48.67
782.358	48.66
782.751	48.66
783.143	48.66
783.536	48.65
783.929	48.65
784.322	48.67
784.714	48.65
785.107	48.67
785.499	48.65
785.891	48.65
786.284	48.68
786.676	48.69
787.068	48.69
787.46	48.69
