Data from N_2_HIR_WI_4N_Splice17_13-33-55-305.txt Node
Date: Sat Mar 07 13:33:55 EST 2020
User: sa697716
Spectrometer: NQ5500242
Trigger mode: 0
Integration Time (sec): 1.450000E-1
Scans to average: 20
Nonlinearity correction enabled: false
Boxcar width: 5
Storing dark spectrum: false
XAxis mode: Wavelengths
Number of Pixels in Spectrum: 512
>>>>>Begin Spectral Data<<<<<
187.83	119.61
188.298	141.67
188.766	125.04
189.233	113.93
189.701	109.83
190.169	136.66
190.636	136.43
191.104	140.38
191.571	40.91
192.039	-33.43
192.506	93.64
192.974	-35.54
193.441	71.32
193.908	65.95
194.375	87.42
194.842	20.32
195.31	48.54
195.777	116.94
196.244	85.69
196.711	84.71
197.177	86.68
197.644	86.48
198.111	86.05
198.578	85.68
199.045	85.67
199.511	85.39
199.978	85.55
200.445	86.04
200.911	86.05
201.378	86.05
201.844	86.01
202.31	85.7
202.777	85.44
203.243	85.54
203.709	85.05
204.176	84.51
204.642	84.3
205.108	84.14
205.574	83.38
206.04	82.59
206.506	81.69
206.972	80.96
207.438	80.24
207.903	79.34
208.369	77.59
208.835	76.18
209.301	74.27
209.766	71.78
210.232	69.5
210.697	67.51
211.163	65.5
211.628	63.99
212.094	62.38
212.559	60.85
213.024	59.23
213.49	58.03
213.955	56.59
214.42	55.21
214.885	53.69
215.35	51.6
215.815	48.76
216.28	45.41
216.745	41.61
217.21	37.73
217.675	33.99
218.14	31.03
218.604	28.33
219.069	26.08
219.534	24.26
219.998	22.74
220.463	21.45
220.927	20.34
221.392	19.44
221.856	18.7
222.32	18.06
222.785	17.55
223.249	17
223.713	16.51
224.177	16.15
224.642	15.77
225.106	15.38
225.57	15.04
226.034	14.74
226.497	14.45
226.961	14.17
227.425	13.93
227.889	13.68
228.353	13.44
228.816	13.21
229.28	12.95
229.744	12.72
230.207	12.51
230.671	12.29
231.134	12.08
231.597	11.9
232.061	11.72
232.524	11.53
232.987	11.36
233.45	11.21
233.914	11.05
234.377	10.9
234.84	10.76
235.303	10.64
235.766	10.53
236.229	10.42
236.691	10.3
237.154	10.18
237.617	10.08
238.08	9.97
238.542	9.85
239.005	9.76
239.468	9.66
239.93	9.56
240.393	9.47
240.855	9.35
241.317	9.23
241.78	9.14
242.242	9.04
242.704	8.94
243.166	8.85
243.629	8.77
244.091	8.68
244.553	8.61
245.015	8.52
245.477	8.44
245.939	8.37
246.4	8.3
246.862	8.22
247.324	8.15
247.786	8.08
248.247	8
248.709	7.91
249.17	7.83
249.632	7.77
250.093	7.7
250.555	7.63
251.016	7.57
251.477	7.51
251.939	7.45
252.4	7.4
252.861	7.34
253.322	7.3
253.783	7.25
254.244	7.22
254.705	7.16
255.166	7.1
255.627	7.06
256.088	7.01
256.549	6.96
257.009	6.91
257.47	6.84
257.931	6.78
258.391	6.71
258.852	6.66
259.312	6.6
259.773	6.55
260.233	6.5
260.694	6.44
261.154	6.4
261.614	6.35
262.074	6.29
262.534	6.26
262.994	6.22
263.455	6.18
263.915	6.14
264.374	6.11
264.834	6.07
265.294	6.03
265.754	6.01
266.214	5.97
266.673	5.95
267.133	5.93
267.593	5.9
268.052	5.88
268.512	5.86
268.971	5.84
269.431	5.81
269.89	5.79
270.349	5.77
270.809	5.75
271.268	5.73
271.727	5.71
272.186	5.69
272.645	5.67
273.104	5.65
273.563	5.63
274.022	5.62
274.481	5.61
274.94	5.59
275.399	5.57
275.857	5.56
276.316	5.54
276.775	5.51
277.233	5.5
277.692	5.49
278.15	5.48
278.609	5.46
279.067	5.45
279.525	5.44
279.984	5.42
280.442	5.41
280.9	5.4
281.358	5.39
281.816	5.38
282.274	5.37
282.732	5.36
283.19	5.35
283.648	5.33
284.106	5.31
284.564	5.29
285.021	5.28
285.479	5.27
285.937	5.26
286.394	5.24
286.852	5.22
287.309	5.21
287.767	5.19
288.224	5.17
288.682	5.14
289.139	5.13
289.596	5.1
290.053	5.07
290.511	5.04
290.968	5.02
291.425	4.99
291.882	4.97
292.339	4.94
292.796	4.92
293.252	4.89
293.709	4.88
294.166	4.86
294.623	4.84
295.079	4.82
295.536	4.81
295.992	4.8
296.449	4.78
296.905	4.77
297.362	4.76
297.818	4.74
298.274	4.74
298.731	4.72
299.187	4.71
299.643	4.69
300.099	4.69
300.555	4.67
301.011	4.65
301.467	4.64
301.923	4.62
302.379	4.62
302.835	4.62
303.291	4.61
303.746	4.6
304.202	4.6
304.658	4.6
305.113	4.58
305.569	4.58
306.024	4.58
306.479	4.57
306.935	4.56
307.39	4.56
307.845	4.55
308.301	4.54
308.756	4.54
309.211	4.53
309.666	4.54
310.121	4.54
310.576	4.53
311.031	4.53
311.486	4.53
311.94	4.53
312.395	4.53
312.85	4.53
313.305	4.52
313.759	4.51
314.214	4.51
314.668	4.49
315.123	4.49
315.577	4.48
316.032	4.47
316.486	4.45
316.94	4.44
317.394	4.43
317.849	4.4
318.303	4.39
318.757	4.37
319.211	4.35
319.665	4.34
320.119	4.31
320.572	4.29
321.026	4.28
321.48	4.26
321.934	4.24
322.387	4.23
322.841	4.22
323.295	4.22
323.748	4.21
324.202	4.2
324.655	4.19
325.108	4.19
325.562	4.19
326.015	4.18
326.468	4.19
326.921	4.19
327.374	4.18
327.827	4.18
328.28	4.17
328.733	4.18
329.186	4.18
329.639	4.18
330.092	4.18
330.545	4.18
330.997	4.17
331.45	4.17
331.903	4.18
332.355	4.19
332.808	4.19
333.26	4.19
333.713	4.18
334.165	4.18
334.617	4.18
335.069	4.19
335.522	4.19
335.974	4.19
336.426	4.17
336.878	4.16
337.33	4.15
337.782	4.15
338.234	4.15
338.686	4.14
339.137	4.14
339.589	4.11
340.041	4.1
340.493	4.08
340.944	4.07
341.396	4.06
341.847	4.06
342.299	4.03
342.75	4.01
343.201	3.99
343.653	3.97
344.104	3.95
344.555	3.93
345.006	3.92
345.457	3.91
345.908	3.9
346.359	3.89
346.81	3.88
347.261	3.87
347.712	3.86
348.163	3.85
348.613	3.85
349.064	3.85
349.515	3.84
349.965	3.84
350.416	3.83
350.866	3.82
351.317	3.8
351.767	3.81
352.217	3.8
352.668	3.8
353.118	3.8
353.568	3.79
354.018	3.79
354.468	3.81
354.918	3.8
355.368	3.8
355.818	3.79
356.268	3.8
356.718	3.79
357.168	3.78
357.617	3.78
358.067	3.78
358.517	3.8
358.966	3.8
359.416	3.79
359.865	3.79
360.315	3.8
360.764	3.8
361.213	3.79
361.663	3.79
362.112	3.79
362.561	3.79
363.01	3.78
363.459	3.75
363.908	3.74
364.357	3.74
364.806	3.74
365.255	3.74
365.703	3.74
366.152	3.73
366.601	3.73
367.05	3.74
367.498	3.73
367.947	3.74
368.395	3.74
368.844	3.74
369.292	3.72
369.74	3.71
370.189	3.7
370.637	3.7
371.085	3.69
371.533	3.69
371.981	3.68
372.429	3.68
372.877	3.67
373.325	3.68
373.773	3.66
374.221	3.66
374.669	3.65
375.116	3.64
375.564	3.63
376.012	3.63
376.459	3.62
376.907	3.61
377.354	3.6
377.801	3.6
378.249	3.59
378.696	3.59
379.143	3.59
379.591	3.59
380.038	3.59
380.485	3.58
380.932	3.58
381.379	3.58
381.826	3.57
382.273	3.56
382.72	3.55
383.166	3.54
383.613	3.53
384.06	3.52
384.506	3.5
384.953	3.5
385.4	3.5
385.846	3.5
386.292	3.5
386.739	3.49
387.185	3.48
387.631	3.49
388.078	3.49
388.524	3.48
388.97	3.48
389.416	3.48
389.862	3.48
390.308	3.49
390.754	3.5
391.2	3.51
391.645	3.51
392.091	3.53
392.537	3.54
392.983	3.54
393.428	3.55
393.874	3.55
394.319	3.56
394.765	3.56
395.21	3.55
395.655	3.55
396.101	3.56
396.546	3.56
396.991	3.58
397.436	3.58
397.881	3.6
398.326	3.62
398.771	3.64
399.216	3.65
399.661	3.67
400.106	3.69
400.551	3.7
400.995	3.7
401.44	3.7
401.885	3.71
402.329	3.73
402.774	3.74
403.218	3.77
403.663	3.78
404.107	3.8
404.551	3.81
404.995	3.82
405.44	3.83
405.884	3.85
406.328	3.88
406.772	3.88
407.216	3.89
407.66	3.9
408.104	3.89
408.547	3.89
408.991	3.9
409.435	3.91
409.879	3.93
410.322	3.96
410.766	3.98
411.209	4
411.653	4.03
412.096	4.06
412.54	4.09
412.983	4.11
413.426	4.17
413.869	4.19
414.312	4.23
414.756	4.25
415.199	4.25
415.642	4.26
416.085	4.28
416.527	4.28
416.97	4.29
417.413	4.29
417.856	4.3
418.298	4.28
418.741	4.3
419.184	4.28
419.626	4.29
420.069	4.31
420.511	4.33
420.953	4.34
421.396	4.36
421.838	4.37
422.28	4.39
422.722	4.42
423.164	4.43
423.606	4.44
424.048	4.46
424.49	4.46
424.932	4.45
425.374	4.43
425.816	4.41
426.258	4.4
426.699	4.39
427.141	4.38
427.582	4.37
428.024	4.39
428.465	4.4
428.907	4.39
429.348	4.38
429.789	4.39
430.231	4.44
430.672	4.47
431.113	4.5
431.554	4.52
431.995	4.54
432.436	4.56
432.877	4.57
433.318	4.59
433.759	4.63
434.2	4.68
434.64	4.7
435.081	4.7
435.522	4.72
435.962	4.74
436.403	4.77
436.843	4.8
437.284	4.8
437.724	4.81
438.164	4.81
438.604	4.81
439.045	4.82
439.485	4.84
439.925	4.84
440.365	4.84
440.805	4.84
441.245	4.85
441.685	4.86
442.125	4.88
442.564	4.9
443.004	4.92
443.444	4.94
443.883	4.96
444.323	4.95
444.762	4.96
445.202	4.97
445.641	4.99
446.081	5.01
446.52	5.01
446.959	5.02
447.398	5.04
447.837	5.05
448.276	5.06
448.716	5.07
449.154	5.09
449.593	5.13
450.032	5.13
450.471	5.13
450.91	5.14
451.349	5.16
451.787	5.16
452.226	5.15
452.664	5.14
453.103	5.13
453.541	5.13
453.98	5.12
454.418	5.08
454.856	5.08
455.295	5.06
455.733	5.02
456.171	5.01
456.609	4.99
457.047	4.97
457.485	4.94
457.923	4.93
458.361	4.91
458.798	4.9
459.236	4.89
459.674	4.87
460.111	4.87
460.549	4.89
460.987	4.89
461.424	4.89
461.862	4.89
462.299	4.91
462.736	4.92
463.173	4.93
463.611	4.94
464.048	4.95
464.485	4.96
464.922	4.98
465.359	4.97
465.796	4.99
466.233	5
466.67	5.02
467.106	5.03
467.543	5.02
467.98	5.03
468.416	5.02
468.853	5.02
469.29	5.02
469.726	5.02
470.162	5.03
470.599	5
471.035	4.99
471.471	4.97
471.907	4.96
472.344	4.96
472.78	4.94
473.216	4.92
473.652	4.93
474.088	4.9
474.523	4.89
474.959	4.87
475.395	4.86
475.831	4.84
476.266	4.84
476.702	4.81
477.138	4.8
477.573	4.79
478.008	4.79
478.444	4.76
478.879	4.77
479.314	4.75
479.75	4.74
480.185	4.72
480.62	4.72
481.055	4.7
481.49	4.7
481.925	4.7
482.36	4.69
482.795	4.67
483.229	4.66
483.664	4.67
484.099	4.67
484.534	4.66
484.968	4.67
485.403	4.67
485.837	4.68
486.271	4.68
486.706	4.69
487.14	4.7
487.574	4.72
488.009	4.74
488.443	4.73
488.877	4.76
489.311	4.78
489.745	4.8
490.179	4.83
490.613	4.85
491.046	4.88
491.48	4.92
491.914	4.96
492.348	5
492.781	5.04
493.215	5.09
493.648	5.14
494.082	5.18
494.515	5.23
494.948	5.28
495.382	5.34
495.815	5.39
496.248	5.47
496.681	5.54
497.114	5.61
497.547	5.67
497.98	5.75
498.413	5.83
498.846	5.92
499.279	6.01
499.711	6.1
500.144	6.2
500.577	6.3
501.009	6.39
501.442	6.49
501.874	6.61
502.306	6.73
502.739	6.86
503.171	6.99
503.603	7.12
504.036	7.26
504.468	7.39
504.9	7.53
505.332	7.68
505.764	7.84
506.196	8
506.627	8.17
507.059	8.35
507.491	8.52
507.923	8.7
508.354	8.9
508.786	9.09
509.217	9.3
509.649	9.51
510.08	9.71
510.512	9.93
510.943	10.15
511.374	10.36
511.805	10.58
512.237	10.81
512.668	11.04
513.099	11.26
513.53	11.5
513.961	11.73
514.391	11.99
514.822	12.22
515.253	12.47
515.684	12.7
516.114	12.95
516.545	13.2
516.975	13.45
517.406	13.71
517.836	13.96
518.267	14.22
518.697	14.46
519.127	14.68
519.558	14.91
519.988	15.15
520.418	15.39
520.848	15.62
521.278	15.84
521.708	16.23
522.138	16.44
522.567	16.65
522.997	16.85
523.427	17.04
523.857	17.25
524.286	17.45
524.716	17.63
525.145	17.81
525.575	17.99
526.004	18.17
526.433	18.16
526.863	18.32
527.292	18.49
527.721	18.64
528.15	18.78
528.579	18.93
529.008	19.06
529.437	19.19
529.866	19.31
530.295	19.43
530.724	19.53
531.152	19.64
531.581	19.73
532.01	19.82
532.438	19.91
532.867	19.99
533.295	20.06
533.723	20.14
534.152	20.21
534.58	20.29
535.008	20.33
535.436	20.4
535.865	20.46
536.293	20.5
536.721	20.56
537.149	20.62
537.576	20.68
538.004	20.73
538.432	20.76
538.86	20.8
539.287	20.83
539.715	20.87
540.143	20.9
540.57	20.92
540.998	20.94
541.425	20.96
541.852	20.97
542.28	20.99
542.707	21
543.134	21.02
543.561	21.07
543.988	21.09
544.415	21.1
544.842	21.11
545.269	21.14
545.696	21.16
546.123	21.19
546.549	21.23
546.976	21.26
547.403	21.29
547.829	21.3
548.256	21.3
548.682	21.31
549.108	21.34
549.535	21.38
549.961	21.39
550.387	21.41
550.813	21.4
551.24	21.38
551.666	21.38
552.092	21.38
552.518	21.37
552.943	21.37
553.369	21.36
553.795	21.34
554.221	21.31
554.646	21.29
555.072	21.26
555.498	21.24
555.923	21.2
556.349	21.16
556.774	21.1
557.199	21.04
557.625	20.98
558.05	20.93
558.475	20.87
558.9	20.8
559.325	20.74
559.75	20.67
560.175	20.58
560.6	20.5
561.025	20.43
561.449	20.34
561.874	20.26
562.299	20.17
562.723	20.08
563.148	19.96
563.572	19.85
563.997	19.74
564.421	19.62
564.846	19.51
565.27	19.4
565.694	19.29
566.118	19.18
566.542	19.07
566.966	18.95
567.39	18.83
567.814	18.7
568.238	18.57
568.662	18.46
569.086	18.35
569.509	18.23
569.933	18.12
570.357	17.99
570.78	17.85
571.204	17.72
571.627	17.6
572.05	17.48
572.474	17.39
572.897	17.3
573.32	17.19
573.743	17.08
574.166	16.97
574.589	16.86
575.012	16.76
575.435	16.67
575.858	16.59
576.281	16.51
576.704	16.42
577.126	16.33
577.549	16.24
577.972	16.14
578.394	16.07
578.817	16
579.239	15.91
579.661	15.84
580.084	15.78
580.506	15.71
580.928	15.64
581.35	15.57
581.772	15.5
582.194	15.44
582.616	15.39
583.038	15.32
583.46	15.27
583.882	15.23
584.303	15.17
584.725	15.1
585.147	15.05
585.568	14.99
585.99	14.94
586.411	14.88
586.833	14.83
587.254	14.78
587.675	14.72
588.096	14.67
588.518	14.62
588.939	14.58
589.36	14.54
589.781	14.49
590.202	14.47
590.623	14.44
591.043	14.4
591.464	14.37
591.885	14.34
592.305	14.3
592.726	14.28
593.147	14.25
593.567	14.2
593.987	14.17
594.408	14.14
594.828	14.09
595.248	14.06
595.669	14.04
596.089	14.01
596.509	13.97
596.929	13.95
597.349	13.92
597.769	13.88
598.189	13.84
598.608	13.82
599.028	13.79
599.448	13.76
599.867	13.72
600.287	13.69
600.706	13.66
601.126	13.62
601.545	13.58
601.965	13.54
602.384	13.5
602.803	13.46
603.222	13.41
603.641	13.36
604.061	13.31
604.48	13.26
604.898	13.19
605.317	13.14
605.736	13.09
606.155	13.04
606.574	12.97
606.992	12.91
607.411	12.85
607.829	12.76
608.248	12.68
608.666	12.62
609.085	12.55
609.503	12.5
609.921	12.43
610.339	12.37
610.758	12.29
611.176	12.22
611.594	12.15
612.012	12.09
612.43	12.04
612.847	11.98
613.265	11.92
613.683	11.86
614.101	11.8
614.518	11.71
614.936	11.64
615.353	11.58
615.771	11.52
616.188	11.47
616.606	11.42
617.023	11.36
617.44	11.32
617.857	11.26
618.274	11.21
618.691	11.15
619.108	11.12
619.525	11.08
619.942	11.04
620.359	11
620.776	10.97
621.192	10.94
621.609	10.9
622.026	10.88
622.442	10.85
622.859	10.83
623.275	10.81
623.691	10.8
624.108	10.79
624.524	10.78
624.94	10.77
625.356	10.76
625.772	10.75
626.188	10.75
626.604	10.74
627.02	10.73
627.436	10.73
627.852	10.73
628.268	10.72
628.683	10.72
629.099	10.71
629.514	10.7
629.93	10.69
630.345	10.67
630.761	10.64
631.176	10.63
631.591	10.61
632.007	10.58
632.422	10.53
632.837	10.49
633.252	10.44
633.667	10.38
634.082	10.33
634.497	10.28
634.911	10.23
635.326	10.16
635.741	10.1
636.155	10.02
636.57	9.95
636.984	9.88
637.399	9.8
637.813	9.71
638.228	9.63
638.642	9.53
639.056	9.43
639.47	9.32
639.884	9.23
640.298	9.12
640.712	9.02
641.126	8.91
641.54	8.81
641.954	8.7
642.368	8.59
642.781	8.5
643.195	8.4
643.609	8.3
644.022	8.21
644.436	8.12
644.849	8.03
645.262	7.94
645.676	7.86
646.089	7.78
646.502	7.72
646.915	7.65
647.328	7.59
647.741	7.53
648.154	7.47
648.567	7.43
648.98	7.37
649.393	7.32
649.805	7.29
650.218	7.25
650.631	7.21
651.043	7.17
651.456	7.13
651.868	7.08
652.28	7.04
652.693	7.01
653.105	6.96
653.517	6.93
653.929	6.89
654.341	6.84
654.753	6.78
655.165	6.72
655.577	6.67
655.989	6.61
656.401	6.53
656.813	6.48
657.224	6.41
657.636	6.33
658.047	6.26
658.459	6.18
658.87	6.1
659.282	6.02
659.693	5.95
660.104	5.87
660.515	5.79
660.926	5.73
661.338	5.64
661.749	5.57
662.159	5.51
662.57	5.44
662.981	5.39
663.392	5.32
663.803	5.27
664.213	5.21
664.624	5.16
665.035	5.11
665.445	5.07
665.855	5.03
666.266	5
666.676	4.97
667.086	4.92
667.497	4.89
667.907	4.85
668.317	4.83
668.727	4.81
669.137	4.79
669.547	4.78
669.956	4.76
670.366	4.75
670.776	4.73
671.186	4.73
671.595	4.73
672.005	4.72
672.414	4.73
672.824	4.73
673.233	4.73
673.642	4.74
674.052	4.75
674.461	4.77
674.87	4.78
675.279	4.8
675.688	4.82
676.097	4.84
676.506	4.87
676.915	4.9
677.323	4.93
677.732	4.94
678.141	4.98
678.549	5.01
678.958	5.05
679.366	5.1
679.775	5.15
680.183	5.21
680.592	5.28
681	5.36
681.408	5.43
681.816	5.52
682.224	5.63
682.632	5.74
683.04	5.86
683.448	6
683.856	6.14
684.264	6.31
684.671	6.46
685.079	6.64
685.487	6.85
685.894	7.08
686.302	7.33
686.709	7.59
687.116	7.89
687.524	8.19
687.931	8.51
688.338	8.87
688.745	9.24
689.152	9.62
689.559	10.02
689.966	10.43
690.373	10.86
690.78	11.3
691.187	11.75
691.593	12.21
692	12.68
692.407	13.14
692.813	13.62
693.22	14.07
693.626	14.55
694.032	15.04
694.439	15.52
694.845	15.99
695.251	16.47
695.657	16.93
696.063	17.41
696.469	17.88
696.875	18.34
697.281	18.79
697.687	19.26
698.093	19.7
698.498	20.12
698.904	20.53
699.31	20.96
699.715	21.38
700.12	21.79
700.526	22.18
700.931	22.58
701.337	22.97
701.742	23.34
702.147	23.7
702.552	24.06
702.957	24.41
703.362	24.77
703.767	25.1
704.172	25.43
704.577	25.74
704.981	26.05
705.386	26.34
705.791	26.64
706.195	26.96
706.6	27.28
707.004	27.57
707.408	27.87
707.813	28.16
708.217	28.44
708.621	28.7
709.025	28.97
709.43	29.23
709.834	29.49
710.237	29.75
710.641	29.97
711.045	30.2
711.449	30.44
711.853	30.69
712.256	30.91
712.66	31.14
713.064	31.37
713.467	31.6
713.87	31.83
714.274	32.05
714.677	32.24
715.08	32.44
715.484	32.64
715.887	32.86
716.29	33.02
716.693	33.21
717.096	33.38
717.499	33.58
717.901	33.75
718.304	33.9
718.707	34.06
719.109	34.24
719.512	34.4
719.915	34.55
720.317	34.65
720.719	34.79
721.122	34.94
721.524	35.07
721.926	35.18
722.328	35.31
722.731	35.43
723.133	35.57
723.535	35.67
723.937	35.79
724.338	35.9
724.74	36.04
725.142	36.25
725.544	36.32
725.945	36.44
726.347	36.53
726.748	36.62
727.15	36.69
727.551	36.76
727.952	36.82
728.354	36.9
728.755	36.95
729.156	37.01
729.557	36.98
729.958	37.07
730.359	37.11
730.76	37.2
731.161	37.27
731.562	37.35
731.962	37.4
732.363	37.5
732.763	37.56
733.164	37.6
733.564	37.65
733.965	37.71
734.365	37.76
734.766	37.79
735.166	37.84
735.566	37.88
735.966	37.94
736.366	37.98
736.766	37.99
737.166	38.01
737.566	38.06
737.966	38.09
738.365	38.12
738.765	38.16
739.165	38.21
739.564	38.23
739.964	38.25
740.363	38.23
740.763	38.26
741.162	38.29
741.561	38.3
741.96	38.31
742.36	38.34
742.759	38.36
743.158	38.35
743.557	38.34
743.955	38.37
744.354	38.39
744.753	38.41
745.152	38.45
745.55	38.48
745.949	38.5
746.348	38.55
746.746	38.57
747.144	38.59
747.543	38.61
747.941	38.65
748.339	38.6
748.737	38.6
749.136	38.62
749.534	38.6
749.932	38.6
750.33	38.6
750.727	38.58
751.125	38.58
751.523	38.56
751.921	38.54
752.318	38.52
752.716	38.55
753.113	38.55
753.511	38.55
753.908	38.55
754.305	38.56
754.703	38.54
755.1	38.55
755.497	38.55
755.894	38.56
756.291	38.56
756.688	38.55
757.085	38.56
757.482	38.56
757.878	38.58
758.275	38.57
758.672	38.57
759.068	38.62
759.465	38.62
759.861	38.61
760.258	38.63
760.654	38.67
761.05	38.69
761.447	38.69
761.843	38.7
762.239	38.69
762.635	38.7
763.031	38.7
763.427	38.66
763.822	38.67
764.218	38.69
764.614	38.68
765.01	38.66
765.405	38.64
765.801	38.63
766.196	38.61
766.592	38.61
766.987	38.61
767.382	38.59
767.778	38.61
768.173	38.61
768.568	38.59
768.963	38.58
769.358	38.6
769.753	38.6
770.148	38.61
770.542	38.65
770.937	38.66
771.332	38.65
771.726	38.69
772.121	38.68
772.515	38.68
772.91	38.68
773.304	38.7
773.699	38.7
774.093	38.7
774.487	38.68
774.881	38.68
775.275	38.67
775.669	38.66
776.063	38.64
776.457	38.65
776.851	38.64
777.245	38.62
777.638	38.62
778.032	38.61
778.425	38.64
778.819	38.64
779.212	38.65
779.606	38.65
779.999	38.67
780.392	38.7
780.786	38.69
781.179	38.71
781.572	38.76
781.965	38.75
782.358	38.76
782.751	38.74
783.143	38.72
