Data from N_2_DEC_ON_6N_Splice17_13-14-58-532.txt Node
Date: Sat Mar 07 13:14:58 EST 2020
User: sa697716
Spectrometer: NQ5500242
Trigger mode: 0
Integration Time (sec): 1.450000E-1
Scans to average: 20
Nonlinearity correction enabled: false
Boxcar width: 5
Storing dark spectrum: false
XAxis mode: Wavelengths
Number of Pixels in Spectrum: 512
>>>>>Begin Spectral Data<<<<<
187.83	200.8
188.298	208.92
188.766	181.15
189.233	150.71
189.701	152.03
190.169	182.62
190.636	184.96
191.104	248.59
191.571	50.37
192.039	-72.37
192.506	-173.29
192.974	249.99
193.441	237.1
193.908	57.83
194.375	75.58
194.842	29.26
195.31	117.95
195.777	88.5
196.244	59.88
196.711	52.08
197.177	54.93
197.644	54.42
198.111	53.85
198.578	53.94
199.045	54.36
199.511	54.04
199.978	54.23
200.445	53.94
200.911	53.69
201.378	53.62
201.844	53.69
202.31	53.22
202.777	53.56
203.243	53.34
203.709	53.11
204.176	52.72
204.642	52.5
205.108	52.23
205.574	51.87
206.04	51.7
206.506	51.28
206.972	51.27
207.438	50.82
207.903	50.03
208.369	49.24
208.835	48.73
209.301	47.81
209.766	46.81
210.232	45.82
210.697	45.08
211.163	44.5
211.628	43.71
212.094	42.88
212.559	42.23
213.024	41.59
213.49	41.23
213.955	40.57
214.42	40.22
214.885	39.52
215.35	38.68
215.815	37.58
216.28	35.86
216.745	34.2
217.21	32.4
217.675	30.79
218.14	29.53
218.604	28.3
219.069	27.34
219.534	26.54
219.998	25.9
220.463	25.34
220.927	24.75
221.392	24.37
221.856	24.01
222.32	23.7
222.785	23.44
223.249	23.13
223.713	22.86
224.177	22.6
224.642	22.36
225.106	22.07
225.57	21.81
226.034	21.6
226.497	21.36
226.961	21.12
227.425	20.9
227.889	20.67
228.353	20.45
228.816	20.21
229.28	19.98
229.744	19.74
230.207	19.54
230.671	19.31
231.134	19.11
231.597	18.93
232.061	18.72
232.524	18.53
232.987	18.33
233.45	18.16
233.914	17.99
234.377	17.82
234.84	17.65
235.303	17.49
235.766	17.35
236.229	17.17
236.691	16.99
237.154	16.84
237.617	16.68
238.08	16.55
238.542	16.39
239.005	16.25
239.468	16.1
239.93	15.95
240.393	15.81
240.855	15.65
241.317	15.51
241.78	15.38
242.242	15.23
242.704	15.11
243.166	14.97
243.629	14.85
244.091	14.7
244.553	14.58
245.015	14.45
245.477	14.31
245.939	14.2
246.4	14.09
246.862	13.97
247.324	13.87
247.786	13.75
248.247	13.65
248.709	13.53
249.17	13.43
249.632	13.35
250.093	13.26
250.555	13.17
251.016	13.09
251.477	13.01
251.939	12.93
252.4	12.84
252.861	12.75
253.322	12.68
253.783	12.6
254.244	12.52
254.705	12.45
255.166	12.37
255.627	12.29
256.088	12.21
256.549	12.14
257.009	12.05
257.47	11.97
257.931	11.88
258.391	11.79
258.852	11.71
259.312	11.64
259.773	11.55
260.233	11.48
260.694	11.41
261.154	11.32
261.614	11.25
262.074	11.18
262.534	11.11
262.994	11.05
263.455	11
263.915	10.95
264.374	10.9
264.834	10.86
265.294	10.81
265.754	10.77
266.214	10.74
266.673	10.7
267.133	10.68
267.593	10.64
268.052	10.61
268.512	10.58
268.971	10.54
269.431	10.5
269.89	10.46
270.349	10.44
270.809	10.4
271.268	10.37
271.727	10.33
272.186	10.29
272.645	10.27
273.104	10.24
273.563	10.22
274.022	10.19
274.481	10.17
274.94	10.15
275.399	10.11
275.857	10.09
276.316	10.06
276.775	10.03
277.233	10.01
277.692	9.98
278.15	9.95
278.609	9.92
279.067	9.88
279.525	9.85
279.984	9.82
280.442	9.8
280.9	9.77
281.358	9.73
281.816	9.71
282.274	9.69
282.732	9.66
283.19	9.63
283.648	9.59
284.106	9.56
284.564	9.52
285.021	9.49
285.479	9.45
285.937	9.41
286.394	9.37
286.852	9.33
287.309	9.29
287.767	9.25
288.224	9.21
288.682	9.17
289.139	9.14
289.596	9.1
290.053	9.06
290.511	9.02
290.968	8.99
291.425	8.97
291.882	8.95
292.339	8.93
292.796	8.9
293.252	8.88
293.709	8.87
294.166	8.85
294.623	8.84
295.079	8.82
295.536	8.82
295.992	8.81
296.449	8.8
296.905	8.78
297.362	8.78
297.818	8.77
298.274	8.76
298.731	8.75
299.187	8.74
299.643	8.73
300.099	8.73
300.555	8.72
301.011	8.7
301.467	8.7
301.923	8.68
302.379	8.67
302.835	8.66
303.291	8.65
303.746	8.64
304.202	8.64
304.658	8.64
305.113	8.62
305.569	8.62
306.024	8.6
306.479	8.6
306.935	8.59
307.39	8.59
307.845	8.58
308.301	8.58
308.756	8.58
309.211	8.57
309.666	8.56
310.121	8.56
310.576	8.56
311.031	8.56
311.486	8.56
311.94	8.55
312.395	8.55
312.85	8.55
313.305	8.54
313.759	8.54
314.214	8.53
314.668	8.52
315.123	8.51
315.577	8.49
316.032	8.48
316.486	8.46
316.94	8.45
317.394	8.42
317.849	8.4
318.303	8.38
318.757	8.36
319.211	8.34
319.665	8.33
320.119	8.31
320.572	8.3
321.026	8.29
321.48	8.28
321.934	8.26
322.387	8.25
322.841	8.25
323.295	8.24
323.748	8.24
324.202	8.24
324.655	8.24
325.108	8.24
325.562	8.24
326.015	8.23
326.468	8.23
326.921	8.23
327.374	8.22
327.827	8.22
328.28	8.21
328.733	8.2
329.186	8.19
329.639	8.19
330.092	8.18
330.545	8.17
330.997	8.17
331.45	8.17
331.903	8.17
332.355	8.17
332.808	8.16
333.26	8.16
333.713	8.15
334.165	8.14
334.617	8.14
335.069	8.12
335.522	8.12
335.974	8.12
336.426	8.1
336.878	8.09
337.33	8.08
337.782	8.07
338.234	8.05
338.686	8.04
339.137	8.05
339.589	8.03
340.041	8.01
340.493	7.99
340.944	7.97
341.396	7.96
341.847	7.95
342.299	7.92
342.75	7.91
343.201	7.89
343.653	7.87
344.104	7.84
344.555	7.83
345.006	7.82
345.457	7.82
345.908	7.81
346.359	7.81
346.81	7.8
347.261	7.79
347.712	7.78
348.163	7.78
348.613	7.78
349.064	7.79
349.515	7.79
349.965	7.8
350.416	7.79
350.866	7.79
351.317	7.79
351.767	7.8
352.217	7.8
352.668	7.81
353.118	7.82
353.568	7.82
354.018	7.83
354.468	7.84
354.918	7.82
355.368	7.83
355.818	7.83
356.268	7.83
356.718	7.82
357.168	7.81
357.617	7.81
358.067	7.8
358.517	7.81
358.966	7.81
359.416	7.81
359.865	7.82
360.315	7.83
360.764	7.82
361.213	7.83
361.663	7.83
362.112	7.84
362.561	7.84
363.01	7.85
363.459	7.84
363.908	7.83
364.357	7.83
364.806	7.83
365.255	7.83
365.703	7.85
366.152	7.85
366.601	7.86
367.05	7.86
367.498	7.87
367.947	7.88
368.395	7.89
368.844	7.9
369.292	7.89
369.74	7.9
370.189	7.91
370.637	7.91
371.085	7.9
371.533	7.91
371.981	7.91
372.429	7.91
372.877	7.92
373.325	7.92
373.773	7.92
374.221	7.94
374.669	7.95
375.116	7.95
375.564	7.96
376.012	7.97
376.459	7.98
376.907	8
377.354	8.01
377.801	8.02
378.249	8.04
378.696	8.04
379.143	8.04
379.591	8.06
380.038	8.07
380.485	8.08
380.932	8.1
381.379	8.11
381.826	8.12
382.273	8.13
382.72	8.12
383.166	8.12
383.613	8.13
384.06	8.15
384.506	8.15
384.953	8.18
385.4	8.21
385.846	8.24
386.292	8.24
386.739	8.27
387.185	8.3
387.631	8.34
388.078	8.36
388.524	8.39
388.97	8.42
389.416	8.45
389.862	8.48
390.308	8.51
390.754	8.53
391.2	8.57
391.645	8.59
392.091	8.64
392.537	8.67
392.983	8.7
393.428	8.72
393.874	8.74
394.319	8.75
394.765	8.77
395.21	8.78
395.655	8.79
396.101	8.82
396.546	8.83
396.991	8.83
397.436	8.85
397.881	8.88
398.326	8.92
398.771	8.95
399.216	8.97
399.661	8.99
400.106	9.01
400.551	9.02
400.995	9.01
401.44	9.02
401.885	9.03
402.329	9.04
402.774	9.04
403.218	9.06
403.663	9.06
404.107	9.08
404.551	9.09
404.995	9.09
405.44	9.1
405.884	9.11
406.328	9.13
406.772	9.13
407.216	9.13
407.66	9.13
408.104	9.11
408.547	9.1
408.991	9.11
409.435	9.1
409.879	9.11
410.322	9.13
410.766	9.14
411.209	9.16
411.653	9.17
412.096	9.18
412.54	9.17
412.983	9.19
413.426	9.23
413.869	9.23
414.312	9.24
414.756	9.24
415.199	9.22
415.642	9.21
416.085	9.2
416.527	9.2
416.97	9.18
417.413	9.18
417.856	9.16
418.298	9.13
418.741	9.13
419.184	9.12
419.626	9.12
420.069	9.11
420.511	9.12
420.953	9.11
421.396	9.11
421.838	9.13
422.28	9.14
422.722	9.15
423.164	9.14
423.606	9.14
424.048	9.13
424.49	9.14
424.932	9.13
425.374	9.11
425.816	9.09
426.258	9.07
426.699	9.05
427.141	9.05
427.582	9.06
428.024	9.07
428.465	9.07
428.907	9.07
429.348	9.04
429.789	9.04
430.231	9.07
430.672	9.1
431.113	9.13
431.554	9.14
431.995	9.13
432.436	9.12
432.877	9.13
433.318	9.14
433.759	9.15
434.2	9.18
434.64	9.19
435.081	9.18
435.522	9.18
435.962	9.18
436.403	9.19
436.843	9.2
437.284	9.2
437.724	9.18
438.164	9.16
438.604	9.17
439.045	9.17
439.485	9.17
439.925	9.17
440.365	9.16
440.805	9.16
441.245	9.17
441.685	9.2
442.125	9.22
442.564	9.23
443.004	9.25
443.444	9.26
443.883	9.28
444.323	9.29
444.762	9.31
445.202	9.33
445.641	9.35
446.081	9.36
446.52	9.35
446.959	9.38
447.398	9.39
447.837	9.41
448.276	9.42
448.716	9.44
449.154	9.46
449.593	9.5
450.032	9.49
450.471	9.5
450.91	9.49
451.349	9.5
451.787	9.48
452.226	9.47
452.664	9.47
453.103	9.46
453.541	9.45
453.98	9.44
454.418	9.4
454.856	9.39
455.295	9.38
455.733	9.37
456.171	9.36
456.609	9.37
457.047	9.35
457.485	9.34
457.923	9.33
458.361	9.32
458.798	9.32
459.236	9.33
459.674	9.33
460.111	9.32
460.549	9.33
460.987	9.33
461.424	9.33
461.862	9.34
462.299	9.35
462.736	9.35
463.173	9.35
463.611	9.36
464.048	9.36
464.485	9.36
464.922	9.37
465.359	9.37
465.796	9.39
466.233	9.38
466.67	9.38
467.106	9.39
467.543	9.39
467.98	9.39
468.416	9.38
468.853	9.38
469.29	9.38
469.726	9.38
470.162	9.36
470.599	9.37
471.035	9.35
471.471	9.36
471.907	9.34
472.344	9.34
472.78	9.34
473.216	9.34
473.652	9.34
474.088	9.32
474.523	9.31
474.959	9.3
475.395	9.29
475.831	9.28
476.266	9.27
476.702	9.26
477.138	9.24
477.573	9.25
478.008	9.23
478.444	9.22
478.879	9.23
479.314	9.22
479.75	9.22
480.185	9.21
480.62	9.2
481.055	9.19
481.49	9.18
481.925	9.19
482.36	9.19
482.795	9.2
483.229	9.2
483.664	9.21
484.099	9.2
484.534	9.2
484.968	9.22
485.403	9.23
485.837	9.26
486.271	9.28
486.706	9.3
487.14	9.32
487.574	9.33
488.009	9.35
488.443	9.38
488.877	9.41
489.311	9.46
489.745	9.49
490.179	9.53
490.613	9.57
491.046	9.62
491.48	9.66
491.914	9.71
492.348	9.78
492.781	9.84
493.215	9.92
493.648	9.98
494.082	10.05
494.515	10.11
494.948	10.19
495.382	10.27
495.815	10.36
496.248	10.45
496.681	10.55
497.114	10.63
497.547	10.73
497.98	10.84
498.413	10.95
498.846	11.07
499.279	11.19
499.711	11.32
500.144	11.46
500.577	11.59
501.009	11.72
501.442	11.87
501.874	12.04
502.306	12.2
502.739	12.37
503.171	12.55
503.603	12.73
504.036	12.94
504.468	13.14
504.9	13.35
505.332	13.57
505.764	13.8
506.196	14.03
506.627	14.27
507.059	14.52
507.491	14.76
507.923	15.02
508.354	15.31
508.786	15.57
509.217	15.86
509.649	16.15
510.08	16.44
510.512	16.74
510.943	17.05
511.374	17.35
511.805	17.67
512.237	18.01
512.668	18.34
513.099	18.66
513.53	18.99
513.961	19.34
514.391	19.7
514.822	20.06
515.253	20.43
515.684	20.79
516.114	21.17
516.545	21.54
516.975	21.91
517.406	22.27
517.836	22.64
518.267	23.01
518.697	23.36
519.127	23.69
519.558	24.05
519.988	24.39
520.418	24.72
520.848	25.05
521.278	25.37
521.708	25.75
522.138	26.07
522.567	26.37
522.997	26.68
523.427	26.98
523.857	27.29
524.286	27.55
524.716	27.82
525.145	28.09
525.575	28.35
526.004	28.59
526.433	28.76
526.863	28.99
527.292	29.22
527.721	29.41
528.15	29.61
528.579	29.79
529.008	29.98
529.437	30.14
529.866	30.31
530.295	30.47
530.724	30.65
531.152	30.8
531.581	30.94
532.01	31.07
532.438	31.21
532.867	31.33
533.295	31.44
533.723	31.56
534.152	31.67
534.58	31.78
535.008	31.83
535.436	31.9
535.865	31.98
536.293	32.05
536.721	32.1
537.149	32.16
537.576	32.22
538.004	32.28
538.432	32.33
538.86	32.38
539.287	32.39
539.715	32.46
540.143	32.49
540.57	32.53
540.998	32.56
541.425	32.61
541.852	32.63
542.28	32.67
542.707	32.69
543.134	32.72
543.561	32.75
543.988	32.8
544.415	32.81
544.842	32.85
545.269	32.87
545.696	32.92
546.123	32.93
546.549	32.97
546.976	33
547.403	33.03
547.829	33.04
548.256	33.07
548.682	33.07
549.108	33.11
549.535	33.12
549.961	33.13
550.387	33.14
550.813	33.13
551.24	33.13
551.666	33.1
552.092	33.1
552.518	33.08
552.943	33.06
553.369	33.04
553.795	32.98
554.221	32.96
554.646	32.89
555.072	32.85
555.498	32.78
555.923	32.73
556.349	32.67
556.774	32.58
557.199	32.5
557.625	32.41
558.05	32.32
558.475	32.22
558.9	32.13
559.325	32.05
559.75	31.92
560.175	31.82
560.6	31.69
561.025	31.57
561.449	31.44
561.874	31.31
562.299	31.17
562.723	31.05
563.148	30.9
563.572	30.72
563.997	30.56
564.421	30.39
564.846	30.21
565.27	30.05
565.694	29.87
566.118	29.7
566.542	29.52
566.966	29.34
567.39	29.15
567.814	28.98
568.238	28.81
568.662	28.63
569.086	28.47
569.509	28.3
569.933	28.14
570.357	27.97
570.78	27.78
571.204	27.6
571.627	27.43
572.05	27.26
572.474	27.08
572.897	26.92
573.32	26.76
573.743	26.58
574.166	26.41
574.589	26.24
575.012	26.08
575.435	25.94
575.858	25.79
576.281	25.65
576.704	25.51
577.126	25.38
577.549	25.24
577.972	25.1
578.394	24.97
578.817	24.87
579.239	24.77
579.661	24.66
580.084	24.55
580.506	24.46
580.928	24.35
581.35	24.25
581.772	24.14
582.194	24.05
582.616	23.97
583.038	23.87
583.46	23.75
583.882	23.64
584.303	23.55
584.725	23.46
585.147	23.37
585.568	23.28
585.99	23.21
586.411	23.13
586.833	23.03
587.254	22.93
587.675	22.85
588.096	22.8
588.518	22.72
588.939	22.66
589.36	22.58
589.781	22.51
590.202	22.46
590.623	22.4
591.043	22.34
591.464	22.29
591.885	22.25
592.305	22.21
592.726	22.16
593.147	22.12
593.567	22.07
593.987	22.03
594.408	21.98
594.828	21.93
595.248	21.9
595.669	21.86
596.089	21.83
596.509	21.78
596.929	21.74
597.349	21.71
597.769	21.67
598.189	21.63
598.608	21.6
599.028	21.56
599.448	21.51
599.867	21.44
600.287	21.4
600.706	21.35
601.126	21.29
601.545	21.24
601.965	21.19
602.384	21.12
602.803	21.05
603.222	20.99
603.641	20.92
604.061	20.84
604.48	20.78
604.898	20.69
605.317	20.61
605.736	20.53
606.155	20.46
606.574	20.36
606.992	20.26
607.411	20.17
607.829	20.05
608.248	19.96
608.666	19.86
609.085	19.76
609.503	19.66
609.921	19.55
610.339	19.45
610.758	19.33
611.176	19.22
611.594	19.12
612.012	19.01
612.43	18.94
612.847	18.84
613.265	18.75
613.683	18.65
614.101	18.56
614.518	18.46
614.936	18.36
615.353	18.25
615.771	18.18
616.188	18.09
616.606	18.02
617.023	17.93
617.44	17.87
617.857	17.79
618.274	17.71
618.691	17.64
619.108	17.58
619.525	17.52
619.942	17.48
620.359	17.43
620.776	17.38
621.192	17.32
621.609	17.29
622.026	17.25
622.442	17.22
622.859	17.19
623.275	17.17
623.691	17.15
624.108	17.14
624.524	17.12
624.94	17.1
625.356	17.1
625.772	17.09
626.188	17.07
626.604	17.05
627.02	17.03
627.436	17.02
627.852	17.02
628.268	17
628.683	16.98
629.099	16.96
629.514	16.93
629.93	16.91
630.345	16.87
630.761	16.83
631.176	16.79
631.591	16.73
632.007	16.67
632.422	16.6
632.837	16.53
633.252	16.47
633.667	16.4
634.082	16.32
634.497	16.23
634.911	16.14
635.326	16.05
635.741	15.95
636.155	15.85
636.57	15.74
636.984	15.63
637.399	15.5
637.813	15.36
638.228	15.24
638.642	15.09
639.056	14.95
639.47	14.81
639.884	14.68
640.298	14.54
640.712	14.4
641.126	14.25
641.54	14.1
641.954	13.96
642.368	13.82
642.781	13.68
643.195	13.56
643.609	13.42
644.022	13.29
644.436	13.15
644.849	13.03
645.262	12.91
645.676	12.81
646.089	12.71
646.502	12.63
646.915	12.54
647.328	12.46
647.741	12.37
648.154	12.29
648.567	12.23
648.98	12.17
649.393	12.1
649.805	12.06
650.218	12
650.631	11.94
651.043	11.88
651.456	11.84
651.868	11.77
652.28	11.71
652.693	11.67
653.105	11.62
653.517	11.56
653.929	11.5
654.341	11.43
654.753	11.35
655.165	11.27
655.577	11.19
655.989	11.1
656.401	11.02
656.813	10.93
657.224	10.81
657.636	10.71
658.047	10.6
658.459	10.49
658.87	10.38
659.282	10.27
659.693	10.18
660.104	10.07
660.515	9.96
660.926	9.85
661.338	9.75
661.749	9.65
662.159	9.56
662.57	9.48
662.981	9.4
663.392	9.31
663.803	9.23
664.213	9.14
664.624	9.05
665.035	9
665.445	8.93
665.855	8.87
666.266	8.83
666.676	8.8
667.086	8.74
667.497	8.69
667.907	8.67
668.317	8.63
668.727	8.61
669.137	8.6
669.547	8.57
669.956	8.55
670.366	8.55
670.776	8.53
671.186	8.51
671.595	8.51
672.005	8.5
672.414	8.49
672.824	8.5
673.233	8.51
673.642	8.52
674.052	8.54
674.461	8.56
674.87	8.56
675.279	8.59
675.688	8.61
676.097	8.65
676.506	8.68
676.915	8.72
677.323	8.76
677.732	8.79
678.141	8.84
678.549	8.87
678.958	8.93
679.366	9
679.775	9.07
680.183	9.15
680.592	9.24
681	9.34
681.408	9.45
681.816	9.56
682.224	9.71
682.632	9.85
683.04	10.02
683.448	10.18
683.856	10.35
684.264	10.57
684.671	10.8
685.079	11.06
685.487	11.33
685.894	11.63
686.302	11.96
686.709	12.31
687.116	12.7
687.524	13.14
687.931	13.6
688.338	14.08
688.745	14.58
689.152	15.1
689.559	15.65
689.966	16.24
690.373	16.84
690.78	17.47
691.187	18.1
691.593	18.76
692	19.39
692.407	20.05
692.813	20.75
693.22	21.44
693.626	22.14
694.032	22.86
694.439	23.58
694.845	24.3
695.251	25.02
695.657	25.74
696.063	26.44
696.469	27.15
696.875	27.86
697.281	28.56
697.687	29.25
698.093	29.92
698.498	30.57
698.904	31.21
699.31	31.84
699.715	32.47
700.12	33.08
700.526	33.71
700.931	34.31
701.337	34.9
701.742	35.46
702.147	36.03
702.552	36.59
702.957	37.1
703.362	37.62
703.767	38.12
704.172	38.61
704.577	39.11
704.981	39.6
705.386	40.08
705.791	40.56
706.195	41.04
706.6	41.5
707.004	41.95
707.408	42.41
707.813	42.87
708.217	43.31
708.621	43.73
709.025	44.12
709.43	44.49
709.834	44.91
710.237	45.27
710.641	45.65
711.045	46.01
711.449	46.39
711.853	46.77
712.256	47.1
712.66	47.43
713.064	47.78
713.467	48.12
713.87	48.49
714.274	48.78
714.677	49.13
715.08	49.43
715.484	49.72
715.887	50.02
716.29	50.29
716.693	50.59
717.096	50.9
717.499	51.19
717.901	51.47
718.304	51.71
718.707	51.99
719.109	52.23
719.512	52.49
719.915	52.78
720.317	52.99
720.719	53.19
721.122	53.42
721.524	53.65
721.926	53.87
722.328	54.08
722.731	54.28
723.133	54.49
723.535	54.69
723.937	54.85
724.338	55.01
724.74	55.22
725.142	55.52
725.544	55.66
725.945	55.82
726.347	55.93
726.748	56.07
727.15	56.19
727.551	56.32
727.952	56.44
728.354	56.58
728.755	56.65
729.156	56.74
729.557	56.73
729.958	56.86
730.359	56.94
730.76	57.07
731.161	57.17
731.562	57.3
731.962	57.35
732.363	57.44
732.763	57.54
733.164	57.68
733.564	57.77
733.965	57.85
734.365	57.94
734.766	58.01
735.166	58.08
735.566	58.13
735.966	58.18
736.366	58.27
736.766	58.34
737.166	58.37
737.566	58.4
737.966	58.45
738.365	58.5
738.765	58.53
739.165	58.6
739.564	58.63
739.964	58.68
740.363	58.73
740.763	58.78
741.162	58.81
741.561	58.86
741.96	58.9
742.36	58.96
742.759	58.98
743.158	59.01
743.557	59
743.955	59.05
744.354	59.08
744.753	59.1
745.152	59.12
745.55	59.14
745.949	59.16
746.348	59.2
746.746	59.16
747.144	59.2
747.543	59.2
747.941	59.26
748.339	59.24
748.737	59.26
749.136	59.28
749.534	59.26
749.932	59.27
750.33	59.26
750.727	59.28
751.125	59.31
751.523	59.32
751.921	59.33
752.318	59.32
752.716	59.33
753.113	59.34
753.511	59.34
753.908	59.4
754.305	59.42
754.703	59.44
755.1	59.43
755.497	59.44
755.894	59.44
756.291	59.46
756.688	59.45
757.085	59.47
757.482	59.47
757.878	59.49
758.275	59.45
758.672	59.45
759.068	59.49
759.465	59.48
759.861	59.5
760.258	59.52
760.654	59.56
761.05	59.56
761.447	59.58
761.843	59.57
762.239	59.57
762.635	59.56
763.031	59.57
763.427	59.54
763.822	59.54
764.218	59.53
764.614	59.53
765.01	59.49
765.405	59.47
765.801	59.43
766.196	59.43
766.592	59.42
766.987	59.44
767.382	59.4
767.778	59.4
768.173	59.4
768.568	59.39
768.963	59.36
769.358	59.36
769.753	59.36
770.148	59.36
770.542	59.38
770.937	59.39
771.332	59.39
771.726	59.4
772.121	59.39
772.515	59.38
772.91	59.37
773.304	59.4
773.699	59.38
774.093	59.36
774.487	59.35
774.881	59.35
775.275	59.32
775.669	59.28
776.063	59.26
776.457	59.27
776.851	59.25
