Data from N_2_DIV_OH_2N_Splice17_13-23-52-790.txt Node
Date: Sat Mar 07 13:23:52 EST 2020
User: sa697716
Spectrometer: NQ5500242
Trigger mode: 0
Integration Time (sec): 1.450000E-1
Scans to average: 20
Nonlinearity correction enabled: false
Boxcar width: 5
Storing dark spectrum: false
XAxis mode: Wavelengths
Number of Pixels in Spectrum: 512
>>>>>Begin Spectral Data<<<<<
187.83	127.97
188.298	159.24
188.766	137.43
189.233	110.89
189.701	104.37
190.169	124.09
190.636	121.57
191.104	115.71
191.571	-26.29
192.039	-108.02
192.506	-179.01
192.974	100.94
193.441	271.15
193.908	115.49
194.375	100.04
194.842	25.4
195.31	53.26
195.777	-43.31
196.244	25.5
196.711	37.19
197.177	41.01
197.644	40.76
198.111	41
198.578	41.53
199.045	42.29
199.511	41.99
199.978	42.21
200.445	42.38
200.911	42.88
201.378	43.16
201.844	43.31
202.31	42.98
202.777	43.27
203.243	43.49
203.709	42.92
204.176	42.55
204.642	42.23
205.108	42.28
205.574	41.82
206.04	41
206.506	40.41
206.972	40.08
207.438	39.86
207.903	39.08
208.369	38.14
208.835	37.57
209.301	36.38
209.766	35.41
210.232	34.31
210.697	33.37
211.163	32.49
211.628	31.62
212.094	30.66
212.559	29.89
213.024	29.2
213.49	28.43
213.955	27.72
214.42	27.13
214.885	26.57
215.35	25.47
215.815	24.28
216.28	22.6
216.745	20.72
217.21	18.79
217.675	17.06
218.14	15.55
218.604	14.3
219.069	13.19
219.534	12.32
219.998	11.52
220.463	10.94
220.927	10.34
221.392	9.92
221.856	9.62
222.32	9.38
222.785	9.13
223.249	8.88
223.713	8.64
224.177	8.47
224.642	8.3
225.106	8.1
225.57	7.93
226.034	7.8
226.497	7.69
226.961	7.53
227.425	7.39
227.889	7.25
228.353	7.14
228.816	7.03
229.28	6.92
229.744	6.8
230.207	6.7
230.671	6.6
231.134	6.5
231.597	6.41
232.061	6.33
232.524	6.25
232.987	6.16
233.45	6.11
233.914	6.04
234.377	5.95
234.84	5.89
235.303	5.84
235.766	5.79
236.229	5.73
236.691	5.67
237.154	5.62
237.617	5.56
238.08	5.52
238.542	5.46
239.005	5.42
239.468	5.37
239.93	5.33
240.393	5.28
240.855	5.22
241.317	5.16
241.78	5.11
242.242	5.06
242.704	5.02
243.166	4.97
243.629	4.93
244.091	4.87
244.553	4.83
245.015	4.78
245.477	4.74
245.939	4.7
246.4	4.66
246.862	4.62
247.324	4.58
247.786	4.53
248.247	4.49
248.709	4.44
249.17	4.4
249.632	4.37
250.093	4.33
250.555	4.3
251.016	4.27
251.477	4.22
251.939	4.19
252.4	4.17
252.861	4.14
253.322	4.11
253.783	4.08
254.244	4.06
254.705	4.03
255.166	4
255.627	3.97
256.088	3.95
256.549	3.93
257.009	3.89
257.47	3.86
257.931	3.83
258.391	3.79
258.852	3.76
259.312	3.73
259.773	3.7
260.233	3.67
260.694	3.64
261.154	3.6
261.614	3.58
262.074	3.55
262.534	3.52
262.994	3.49
263.455	3.47
263.915	3.45
264.374	3.43
264.834	3.41
265.294	3.39
265.754	3.37
266.214	3.36
266.673	3.34
267.133	3.32
267.593	3.31
268.052	3.29
268.512	3.28
268.971	3.27
269.431	3.26
269.89	3.24
270.349	3.23
270.809	3.22
271.268	3.21
271.727	3.2
272.186	3.19
272.645	3.18
273.104	3.17
273.563	3.16
274.022	3.15
274.481	3.14
274.94	3.13
275.399	3.11
275.857	3.1
276.316	3.09
276.775	3.08
277.233	3.07
277.692	3.07
278.15	3.06
278.609	3.05
279.067	3.04
279.525	3.03
279.984	3.03
280.442	3.03
280.9	3.03
281.358	3.03
281.816	3.03
282.274	3.02
282.732	3.01
283.19	3
283.648	3
284.106	2.99
284.564	2.99
285.021	2.99
285.479	2.98
285.937	2.98
286.394	2.97
286.852	2.96
287.309	2.95
287.767	2.93
288.224	2.92
288.682	2.91
289.139	2.89
289.596	2.88
290.053	2.86
290.511	2.84
290.968	2.83
291.425	2.81
291.882	2.8
292.339	2.79
292.796	2.78
293.252	2.77
293.709	2.77
294.166	2.76
294.623	2.75
295.079	2.75
295.536	2.74
295.992	2.74
296.449	2.73
296.905	2.73
297.362	2.72
297.818	2.71
298.274	2.71
298.731	2.7
299.187	2.69
299.643	2.69
300.099	2.68
300.555	2.67
301.011	2.66
301.467	2.66
301.923	2.65
302.379	2.65
302.835	2.65
303.291	2.65
303.746	2.65
304.202	2.65
304.658	2.65
305.113	2.65
305.569	2.65
306.024	2.65
306.479	2.64
306.935	2.64
307.39	2.64
307.845	2.64
308.301	2.64
308.756	2.63
309.211	2.63
309.666	2.63
310.121	2.64
310.576	2.64
311.031	2.63
311.486	2.64
311.94	2.65
312.395	2.65
312.85	2.65
313.305	2.65
313.759	2.66
314.214	2.65
314.668	2.65
315.123	2.64
315.577	2.64
316.032	2.65
316.486	2.63
316.94	2.63
317.394	2.62
317.849	2.61
318.303	2.6
318.757	2.59
319.211	2.59
319.665	2.58
320.119	2.57
320.572	2.56
321.026	2.55
321.48	2.54
321.934	2.52
322.387	2.52
322.841	2.52
323.295	2.52
323.748	2.51
324.202	2.51
324.655	2.51
325.108	2.52
325.562	2.52
326.015	2.53
326.468	2.54
326.921	2.54
327.374	2.53
327.827	2.54
328.28	2.53
328.733	2.54
329.186	2.54
329.639	2.54
330.092	2.54
330.545	2.52
330.997	2.52
331.45	2.52
331.903	2.53
332.355	2.54
332.808	2.54
333.26	2.54
333.713	2.54
334.165	2.55
334.617	2.55
335.069	2.54
335.522	2.56
335.974	2.57
336.426	2.56
336.878	2.55
337.33	2.55
337.782	2.54
338.234	2.55
338.686	2.55
339.137	2.55
339.589	2.55
340.041	2.55
340.493	2.54
340.944	2.53
341.396	2.52
341.847	2.51
342.299	2.5
342.75	2.5
343.201	2.49
343.653	2.48
344.104	2.46
344.555	2.46
345.006	2.45
345.457	2.45
345.908	2.44
346.359	2.45
346.81	2.45
347.261	2.45
347.712	2.44
348.163	2.43
348.613	2.44
349.064	2.44
349.515	2.44
349.965	2.44
350.416	2.44
350.866	2.44
351.317	2.43
351.767	2.44
352.217	2.44
352.668	2.45
353.118	2.45
353.568	2.45
354.018	2.46
354.468	2.46
354.918	2.46
355.368	2.47
355.818	2.48
356.268	2.48
356.718	2.48
357.168	2.47
357.617	2.47
358.067	2.48
358.517	2.48
358.966	2.49
359.416	2.49
359.865	2.49
360.315	2.5
360.764	2.51
361.213	2.52
361.663	2.51
362.112	2.53
362.561	2.54
363.01	2.55
363.459	2.54
363.908	2.53
364.357	2.54
364.806	2.54
365.255	2.54
365.703	2.55
366.152	2.56
366.601	2.57
367.05	2.58
367.498	2.57
367.947	2.58
368.395	2.59
368.844	2.61
369.292	2.62
369.74	2.63
370.189	2.65
370.637	2.66
371.085	2.66
371.533	2.67
371.981	2.68
372.429	2.69
372.877	2.71
373.325	2.72
373.773	2.72
374.221	2.73
374.669	2.75
375.116	2.75
375.564	2.76
376.012	2.78
376.459	2.79
376.907	2.81
377.354	2.82
377.801	2.85
378.249	2.87
378.696	2.9
379.143	2.91
379.591	2.92
380.038	2.95
380.485	2.97
380.932	2.99
381.379	3.01
381.826	3.03
382.273	3.06
382.72	3.06
383.166	3.08
383.613	3.1
384.06	3.12
384.506	3.15
384.953	3.17
385.4	3.19
385.846	3.22
386.292	3.24
386.739	3.25
387.185	3.27
387.631	3.31
388.078	3.34
388.524	3.36
388.97	3.38
389.416	3.42
389.862	3.44
390.308	3.47
390.754	3.49
391.2	3.52
391.645	3.54
392.091	3.58
392.537	3.6
392.983	3.62
393.428	3.65
393.874	3.67
394.319	3.69
394.765	3.7
395.21	3.73
395.655	3.75
396.101	3.78
396.546	3.8
396.991	3.81
397.436	3.84
397.881	3.87
398.326	3.89
398.771	3.92
399.216	3.94
399.661	3.97
400.106	3.98
400.551	3.99
400.995	4
401.44	4.01
401.885	4.02
402.329	4.03
402.774	4.04
403.218	4.06
403.663	4.07
404.107	4.07
404.551	4.08
404.995	4.09
405.44	4.09
405.884	4.11
406.328	4.12
406.772	4.13
407.216	4.13
407.66	4.13
408.104	4.12
408.547	4.13
408.991	4.14
409.435	4.15
409.879	4.15
410.322	4.17
410.766	4.18
411.209	4.2
411.653	4.23
412.096	4.24
412.54	4.26
412.983	4.26
413.426	4.29
413.869	4.31
414.312	4.34
414.756	4.37
415.199	4.37
415.642	4.37
416.085	4.37
416.527	4.36
416.97	4.35
417.413	4.35
417.856	4.35
418.298	4.34
418.741	4.33
419.184	4.33
419.626	4.32
420.069	4.33
420.511	4.33
420.953	4.34
421.396	4.34
421.838	4.35
422.28	4.35
422.722	4.38
423.164	4.38
423.606	4.38
424.048	4.38
424.49	4.38
424.932	4.37
425.374	4.35
425.816	4.33
426.258	4.32
426.699	4.31
427.141	4.31
427.582	4.3
428.024	4.3
428.465	4.3
428.907	4.3
429.348	4.29
429.789	4.29
430.231	4.31
430.672	4.34
431.113	4.37
431.554	4.38
431.995	4.39
432.436	4.41
432.877	4.43
433.318	4.46
433.759	4.47
434.2	4.5
434.64	4.52
435.081	4.52
435.522	4.54
435.962	4.55
436.403	4.58
436.843	4.59
437.284	4.59
437.724	4.58
438.164	4.58
438.604	4.59
439.045	4.59
439.485	4.62
439.925	4.62
440.365	4.62
440.805	4.62
441.245	4.63
441.685	4.66
442.125	4.68
442.564	4.68
443.004	4.69
443.444	4.69
443.883	4.71
444.323	4.71
444.762	4.73
445.202	4.74
445.641	4.76
446.081	4.77
446.52	4.77
446.959	4.79
447.398	4.81
447.837	4.82
448.276	4.84
448.716	4.86
449.154	4.88
449.593	4.89
450.032	4.89
450.471	4.88
450.91	4.87
451.349	4.89
451.787	4.89
452.226	4.88
452.664	4.89
453.103	4.89
453.541	4.87
453.98	4.88
454.418	4.86
454.856	4.87
455.295	4.86
455.733	4.85
456.171	4.83
456.609	4.82
457.047	4.8
457.485	4.78
457.923	4.78
458.361	4.77
458.798	4.76
459.236	4.76
459.674	4.76
460.111	4.76
460.549	4.78
460.987	4.79
461.424	4.8
461.862	4.81
462.299	4.82
462.736	4.82
463.173	4.82
463.611	4.82
464.048	4.83
464.485	4.84
464.922	4.82
465.359	4.82
465.796	4.84
466.233	4.83
466.67	4.84
467.106	4.85
467.543	4.84
467.98	4.84
468.416	4.82
468.853	4.83
469.29	4.82
469.726	4.82
470.162	4.8
470.599	4.79
471.035	4.79
471.471	4.78
471.907	4.77
472.344	4.78
472.78	4.78
473.216	4.79
473.652	4.79
474.088	4.78
474.523	4.78
474.959	4.78
475.395	4.77
475.831	4.76
476.266	4.75
476.702	4.74
477.138	4.74
477.573	4.73
478.008	4.72
478.444	4.7
478.879	4.71
479.314	4.71
479.75	4.71
480.185	4.7
480.62	4.69
481.055	4.68
481.49	4.69
481.925	4.69
482.36	4.69
482.795	4.69
483.229	4.69
483.664	4.69
484.099	4.67
484.534	4.67
484.968	4.68
485.403	4.69
485.837	4.71
486.271	4.72
486.706	4.72
487.14	4.73
487.574	4.75
488.009	4.77
488.443	4.79
488.877	4.81
489.311	4.83
489.745	4.85
490.179	4.88
490.613	4.91
491.046	4.93
491.48	4.97
491.914	5
492.348	5.04
492.781	5.08
493.215	5.12
493.648	5.16
494.082	5.21
494.515	5.25
494.948	5.29
495.382	5.34
495.815	5.39
496.248	5.45
496.681	5.51
497.114	5.56
497.547	5.62
497.98	5.68
498.413	5.75
498.846	5.82
499.279	5.89
499.711	5.97
500.144	6.05
500.577	6.13
501.009	6.21
501.442	6.3
501.874	6.4
502.306	6.49
502.739	6.6
503.171	6.71
503.603	6.82
504.036	6.94
504.468	7.06
504.9	7.17
505.332	7.29
505.764	7.42
506.196	7.56
506.627	7.69
507.059	7.84
507.491	7.98
507.923	8.14
508.354	8.31
508.786	8.49
509.217	8.66
509.649	8.83
510.08	9.02
510.512	9.2
510.943	9.39
511.374	9.58
511.805	9.78
512.237	9.97
512.668	10.16
513.099	10.35
513.53	10.54
513.961	10.75
514.391	10.98
514.822	11.2
515.253	11.4
515.684	11.62
516.114	11.83
516.545	12.05
516.975	12.28
517.406	12.51
517.836	12.73
518.267	12.96
518.697	13.18
519.127	13.37
519.558	13.59
519.988	13.8
520.418	14.02
520.848	14.23
521.278	14.43
521.708	14.79
522.138	14.98
522.567	15.16
522.997	15.34
523.427	15.53
523.857	15.72
524.286	15.87
524.716	16.05
525.145	16.21
525.575	16.37
526.004	16.54
526.433	16.51
526.863	16.66
527.292	16.82
527.721	16.95
528.15	17.07
528.579	17.2
529.008	17.33
529.437	17.43
529.866	17.54
530.295	17.65
530.724	17.74
531.152	17.85
531.581	17.95
532.01	18.04
532.438	18.14
532.867	18.22
533.295	18.31
533.723	18.38
534.152	18.46
534.58	18.52
535.008	18.57
535.436	18.63
535.865	18.68
536.293	18.72
536.721	18.77
537.149	18.8
537.576	18.84
538.004	18.88
538.432	18.92
538.86	18.96
539.287	18.99
539.715	19.05
540.143	19.07
540.57	19.09
540.998	19.13
541.425	19.15
541.852	19.18
542.28	19.2
542.707	19.22
543.134	19.25
543.561	19.27
543.988	19.29
544.415	19.28
544.842	19.29
545.269	19.32
545.696	19.33
546.123	19.35
546.549	19.36
546.976	19.39
547.403	19.4
547.829	19.4
548.256	19.41
548.682	19.42
549.108	19.44
549.535	19.48
549.961	19.47
550.387	19.48
550.813	19.48
551.24	19.48
551.666	19.47
552.092	19.47
552.518	19.47
552.943	19.46
553.369	19.46
553.795	19.44
554.221	19.4
554.646	19.37
555.072	19.35
555.498	19.31
555.923	19.28
556.349	19.23
556.774	19.18
557.199	19.14
557.625	19.08
558.05	19.03
558.475	18.98
558.9	18.94
559.325	18.89
559.75	18.83
560.175	18.78
560.6	18.7
561.025	18.64
561.449	18.56
561.874	18.48
562.299	18.4
562.723	18.31
563.148	18.22
563.572	18.11
563.997	18
564.421	17.9
564.846	17.79
565.27	17.7
565.694	17.6
566.118	17.49
566.542	17.4
566.966	17.29
567.39	17.19
567.814	17.09
568.238	16.99
568.662	16.9
569.086	16.79
569.509	16.7
569.933	16.6
570.357	16.49
570.78	16.39
571.204	16.28
571.627	16.18
572.05	16.07
572.474	15.98
572.897	15.9
573.32	15.8
573.743	15.71
574.166	15.61
574.589	15.52
575.012	15.43
575.435	15.35
575.858	15.29
576.281	15.2
576.704	15.13
577.126	15.05
577.549	14.98
577.972	14.91
578.394	14.83
578.817	14.76
579.239	14.7
579.661	14.64
580.084	14.57
580.506	14.51
580.928	14.45
581.35	14.39
581.772	14.33
582.194	14.27
582.616	14.23
583.038	14.17
583.46	14.12
583.882	14.07
584.303	13.99
584.725	13.94
585.147	13.89
585.568	13.84
585.99	13.78
586.411	13.73
586.833	13.67
587.254	13.62
587.675	13.58
588.096	13.52
588.518	13.46
588.939	13.45
589.36	13.4
589.781	13.35
590.202	13.32
590.623	13.28
591.043	13.25
591.464	13.21
591.885	13.17
592.305	13.14
592.726	13.11
593.147	13.09
593.567	13.06
593.987	13.04
594.408	13.02
594.828	12.98
595.248	12.96
595.669	12.94
596.089	12.91
596.509	12.88
596.929	12.85
597.349	12.83
597.769	12.8
598.189	12.76
598.608	12.75
599.028	12.71
599.448	12.68
599.867	12.65
600.287	12.62
600.706	12.59
601.126	12.56
601.545	12.53
601.965	12.49
602.384	12.46
602.803	12.44
603.222	12.39
603.641	12.35
604.061	12.32
604.48	12.28
604.898	12.23
605.317	12.2
605.736	12.15
606.155	12.11
606.574	12.07
606.992	12.01
607.411	11.95
607.829	11.88
608.248	11.82
608.666	11.77
609.085	11.73
609.503	11.68
609.921	11.63
610.339	11.57
610.758	11.52
611.176	11.45
611.594	11.41
612.012	11.36
612.43	11.33
612.847	11.29
613.265	11.24
613.683	11.18
614.101	11.13
614.518	11.08
614.936	11.03
615.353	10.97
615.771	10.92
616.188	10.87
616.606	10.83
617.023	10.78
617.44	10.74
617.857	10.69
618.274	10.65
618.691	10.61
619.108	10.57
619.525	10.54
619.942	10.52
620.359	10.5
620.776	10.47
621.192	10.45
621.609	10.42
622.026	10.4
622.442	10.38
622.859	10.36
623.275	10.34
623.691	10.32
624.108	10.3
624.524	10.28
624.94	10.27
625.356	10.26
625.772	10.25
626.188	10.24
626.604	10.24
627.02	10.24
627.436	10.22
627.852	10.23
628.268	10.22
628.683	10.22
629.099	10.22
629.514	10.21
629.93	10.19
630.345	10.18
630.761	10.15
631.176	10.12
631.591	10.09
632.007	10.07
632.422	10.02
632.837	9.97
633.252	9.93
633.667	9.87
634.082	9.81
634.497	9.74
634.911	9.67
635.326	9.61
635.741	9.54
636.155	9.46
636.57	9.38
636.984	9.3
637.399	9.21
637.813	9.12
638.228	9.01
638.642	8.92
639.056	8.82
639.47	8.72
639.884	8.61
640.298	8.5
640.712	8.39
641.126	8.29
641.54	8.18
641.954	8.09
642.368	7.99
642.781	7.9
643.195	7.81
643.609	7.72
644.022	7.63
644.436	7.57
644.849	7.49
645.262	7.42
645.676	7.34
646.089	7.29
646.502	7.23
646.915	7.18
647.328	7.14
647.741	7.08
648.154	7.04
648.567	7.01
648.98	6.96
649.393	6.92
649.805	6.9
650.218	6.87
650.631	6.84
651.043	6.8
651.456	6.78
651.868	6.75
652.28	6.72
652.693	6.7
653.105	6.67
653.517	6.64
653.929	6.62
654.341	6.58
654.753	6.55
655.165	6.51
655.577	6.48
655.989	6.43
656.401	6.39
656.813	6.35
657.224	6.29
657.636	6.23
658.047	6.17
658.459	6.11
658.87	6.05
659.282	5.99
659.693	5.92
660.104	5.84
660.515	5.78
660.926	5.72
661.338	5.64
661.749	5.59
662.159	5.53
662.57	5.49
662.981	5.44
663.392	5.37
663.803	5.33
664.213	5.29
664.624	5.25
665.035	5.21
665.445	5.18
665.855	5.15
666.266	5.12
666.676	5.09
667.086	5.05
667.497	5.02
667.907	5
668.317	4.97
668.727	4.96
669.137	4.95
669.547	4.93
669.956	4.92
670.366	4.9
670.776	4.9
671.186	4.9
671.595	4.89
672.005	4.89
672.414	4.91
672.824	4.91
673.233	4.92
673.642	4.92
674.052	4.95
674.461	4.96
674.87	4.98
675.279	5.01
675.688	5.03
676.097	5.07
676.506	5.1
676.915	5.13
677.323	5.16
677.732	5.19
678.141	5.25
678.549	5.28
678.958	5.32
679.366	5.39
679.775	5.44
680.183	5.5
680.592	5.58
681	5.66
681.408	5.74
681.816	5.84
682.224	5.94
682.632	6.04
683.04	6.16
683.448	6.28
683.856	6.41
684.264	6.57
684.671	6.73
685.079	6.9
685.487	7.1
685.894	7.32
686.302	7.54
686.709	7.8
687.116	8.07
687.524	8.35
687.931	8.67
688.338	8.98
688.745	9.31
689.152	9.67
689.559	10.04
689.966	10.42
690.373	10.8
690.78	11.2
691.187	11.6
691.593	12.02
692	12.46
692.407	12.87
692.813	13.32
693.22	13.76
693.626	14.2
694.032	14.63
694.439	15.08
694.845	15.54
695.251	15.99
695.657	16.44
696.063	16.87
696.469	17.29
696.875	17.73
697.281	18.15
697.687	18.6
698.093	19.01
698.498	19.43
698.904	19.83
699.31	20.2
699.715	20.61
700.12	21.02
700.526	21.4
700.931	21.78
701.337	22.15
701.742	22.52
702.147	22.87
702.552	23.22
702.957	23.52
703.362	23.85
703.767	24.17
704.172	24.46
704.577	24.76
704.981	25.07
705.386	25.36
705.791	25.65
706.195	25.93
706.6	26.21
707.004	26.49
707.408	26.79
707.813	27.08
708.217	27.37
708.621	27.65
709.025	27.9
709.43	28.14
709.834	28.41
710.237	28.66
710.641	28.88
711.045	29.1
711.449	29.35
711.853	29.6
712.256	29.82
712.66	30.01
713.064	30.19
713.467	30.39
713.87	30.6
714.274	30.79
714.677	30.99
715.08	31.19
715.484	31.4
715.887	31.6
716.29	31.76
716.693	31.93
717.096	32.13
717.499	32.33
717.901	32.52
718.304	32.7
718.707	32.88
719.109	33.04
719.512	33.21
719.915	33.37
720.317	33.5
720.719	33.63
721.122	33.77
721.524	33.91
721.926	34.04
722.328	34.18
722.731	34.3
723.133	34.41
723.535	34.53
723.937	34.64
724.338	34.74
724.74	34.84
725.142	35.04
725.544	35.15
725.945	35.28
726.347	35.35
726.748	35.44
727.15	35.51
727.551	35.63
727.952	35.71
728.354	35.79
728.755	35.87
729.156	35.93
729.557	35.9
729.958	35.97
730.359	36
730.76	36.07
731.161	36.14
731.562	36.2
731.962	36.23
732.363	36.27
732.763	36.32
733.164	36.38
733.564	36.45
733.965	36.5
734.365	36.55
734.766	36.6
735.166	36.64
735.566	36.68
735.966	36.73
736.366	36.76
736.766	36.79
737.166	36.84
737.566	36.86
737.966	36.89
738.365	36.92
738.765	36.95
739.165	36.96
739.564	37
739.964	37.02
740.363	37.04
740.763	37.07
741.162	37.09
741.561	37.11
741.96	37.12
742.36	37.13
742.759	37.13
743.158	37.12
743.557	37.13
743.955	37.15
744.354	37.16
744.753	37.18
745.152	37.22
745.55	37.23
745.949	37.25
746.348	37.29
746.746	37.29
747.144	37.33
747.543	37.36
747.941	37.4
748.339	37.37
748.737	37.37
749.136	37.37
749.534	37.34
749.932	37.36
750.33	37.36
750.727	37.35
751.125	37.37
751.523	37.37
751.921	37.38
752.318	37.39
752.716	37.4
753.113	37.41
753.511	37.42
753.908	37.45
754.305	37.46
754.703	37.48
755.1	37.49
755.497	37.47
755.894	37.48
756.291	37.48
756.688	37.46
757.085	37.47
757.482	37.47
757.878	37.46
758.275	37.45
758.672	37.45
759.068	37.43
759.465	37.41
759.861	37.45
760.258	37.44
760.654	37.43
761.05	37.44
761.447	37.47
761.843	37.47
762.239	37.45
762.635	37.45
763.031	37.44
763.427	37.42
763.822	37.44
764.218	37.42
764.614	37.42
765.01	37.43
765.405	37.42
765.801	37.37
766.196	37.36
766.592	37.38
766.987	37.38
767.382	37.37
767.778	37.39
768.173	37.4
768.568	37.4
768.963	37.4
769.358	37.4
769.753	37.4
770.148	37.43
770.542	37.43
770.937	37.43
771.332	37.41
771.726	37.4
772.121	37.38
772.515	37.36
772.91	37.34
773.304	37.33
773.699	37.32
774.093	37.3
774.487	37.31
774.881	37.32
775.275	37.28
775.669	37.25
776.063	37.25
776.457	37.26
776.851	37.26
777.245	37.25
777.638	37.22
778.032	37.22
778.425	37.23
778.819	37.21
779.212	37.22
779.606	37.26
779.999	37.28
780.392	37.3
780.786	37.29
781.179	37.3
781.572	37.32
781.965	37.35
782.358	37.32
782.751	37.32
783.143	37.33
