Data from N_2_DIV_IL_4N_Splice17_13-37-23-066.txt Node
Date: Sat Mar 07 13:37:23 EST 2020
User: sa697716
Spectrometer: NQ5500242
Trigger mode: 0
Integration Time (sec): 1.450000E-1
Scans to average: 20
Nonlinearity correction enabled: false
Boxcar width: 5
Storing dark spectrum: false
XAxis mode: Wavelengths
Number of Pixels in Spectrum: 512
>>>>>Begin Spectral Data<<<<<
187.83	136.49
188.298	137.53
188.766	120.52
189.233	95.45
189.701	94.07
190.169	118.8
190.636	106.34
191.104	66.3
191.571	-122.82
192.039	-442.84
192.506	-457.82
192.974	140.93
193.441	139.28
193.908	65.38
194.375	9.92
194.842	-37.42
195.31	2.25
195.777	-21.89
196.244	74.96
196.711	85.24
197.177	85.08
197.644	86.5
198.111	85.85
198.578	86.05
199.045	86.54
199.511	86.36
199.978	86.32
200.445	86.59
200.911	86.74
201.378	86.6
201.844	86.5
202.31	86.25
202.777	86
203.243	86.05
203.709	85.82
204.176	84.93
204.642	84.47
205.108	84
205.574	82.97
206.04	82.16
206.506	81.4
206.972	80.72
207.438	79.92
207.903	78.69
208.369	76.9
208.835	75.3
209.301	73.72
209.766	71.59
210.232	69.57
210.697	67.6
211.163	65.67
211.628	64.09
212.094	62.22
212.559	60.65
213.024	59.04
213.49	57.77
213.955	56.19
214.42	54.68
214.885	53.11
215.35	50.94
215.815	48.13
216.28	44.51
216.745	40.47
217.21	36.5
217.675	32.77
218.14	29.68
218.604	26.87
219.069	24.58
219.534	22.69
219.998	21.15
220.463	19.84
220.927	18.71
221.392	17.84
221.856	17.14
222.32	16.53
222.785	16.05
223.249	15.55
223.713	15.11
224.177	14.73
224.642	14.35
225.106	13.98
225.57	13.65
226.034	13.37
226.497	13.1
226.961	12.84
227.425	12.59
227.889	12.33
228.353	12.09
228.816	11.88
229.28	11.68
229.744	11.49
230.207	11.31
230.671	11.14
231.134	10.96
231.597	10.81
232.061	10.65
232.524	10.49
232.987	10.35
233.45	10.25
233.914	10.1
234.377	9.96
234.84	9.84
235.303	9.74
235.766	9.65
236.229	9.54
236.691	9.43
237.154	9.35
237.617	9.26
238.08	9.17
238.542	9.06
239.005	9
239.468	8.92
239.93	8.85
240.393	8.76
240.855	8.67
241.317	8.57
241.78	8.49
242.242	8.39
242.704	8.32
243.166	8.24
243.629	8.18
244.091	8.08
244.553	8
245.015	7.91
245.477	7.84
245.939	7.76
246.4	7.7
246.862	7.63
247.324	7.56
247.786	7.48
248.247	7.41
248.709	7.32
249.17	7.25
249.632	7.2
250.093	7.15
250.555	7.1
251.016	7.05
251.477	6.98
251.939	6.94
252.4	6.89
252.861	6.85
253.322	6.81
253.783	6.77
254.244	6.74
254.705	6.69
255.166	6.64
255.627	6.59
256.088	6.55
256.549	6.51
257.009	6.46
257.47	6.41
257.931	6.36
258.391	6.3
258.852	6.24
259.312	6.19
259.773	6.15
260.233	6.1
260.694	6.06
261.154	6.01
261.614	5.97
262.074	5.92
262.534	5.88
262.994	5.84
263.455	5.81
263.915	5.78
264.374	5.75
264.834	5.72
265.294	5.69
265.754	5.68
266.214	5.65
266.673	5.63
267.133	5.61
267.593	5.59
268.052	5.58
268.512	5.56
268.971	5.55
269.431	5.53
269.89	5.51
270.349	5.5
270.809	5.48
271.268	5.46
271.727	5.44
272.186	5.43
272.645	5.42
273.104	5.4
273.563	5.39
274.022	5.37
274.481	5.36
274.94	5.35
275.399	5.33
275.857	5.32
276.316	5.32
276.775	5.31
277.233	5.3
277.692	5.3
278.15	5.29
278.609	5.29
279.067	5.28
279.525	5.27
279.984	5.27
280.442	5.27
280.9	5.27
281.358	5.26
281.816	5.25
282.274	5.25
282.732	5.24
283.19	5.24
283.648	5.22
284.106	5.22
284.564	5.2
285.021	5.2
285.479	5.19
285.937	5.17
286.394	5.16
286.852	5.13
287.309	5.12
287.767	5.1
288.224	5.08
288.682	5.07
289.139	5.05
289.596	5.03
290.053	5
290.511	4.97
290.968	4.96
291.425	4.93
291.882	4.92
292.339	4.91
292.796	4.89
293.252	4.87
293.709	4.85
294.166	4.84
294.623	4.83
295.079	4.81
295.536	4.82
295.992	4.79
296.449	4.78
296.905	4.77
297.362	4.76
297.818	4.75
298.274	4.74
298.731	4.73
299.187	4.71
299.643	4.7
300.099	4.7
300.555	4.68
301.011	4.67
301.467	4.67
301.923	4.66
302.379	4.65
302.835	4.65
303.291	4.65
303.746	4.65
304.202	4.65
304.658	4.65
305.113	4.64
305.569	4.64
306.024	4.64
306.479	4.64
306.935	4.64
307.39	4.64
307.845	4.64
308.301	4.64
308.756	4.63
309.211	4.64
309.666	4.64
310.121	4.64
310.576	4.65
311.031	4.66
311.486	4.65
311.94	4.66
312.395	4.66
312.85	4.65
313.305	4.64
313.759	4.66
314.214	4.65
314.668	4.65
315.123	4.64
315.577	4.63
316.032	4.62
316.486	4.61
316.94	4.6
317.394	4.58
317.849	4.58
318.303	4.56
318.757	4.53
319.211	4.52
319.665	4.5
320.119	4.49
320.572	4.48
321.026	4.46
321.48	4.45
321.934	4.43
322.387	4.42
322.841	4.41
323.295	4.42
323.748	4.41
324.202	4.41
324.655	4.41
325.108	4.42
325.562	4.42
326.015	4.42
326.468	4.42
326.921	4.42
327.374	4.42
327.827	4.43
328.28	4.42
328.733	4.42
329.186	4.42
329.639	4.41
330.092	4.4
330.545	4.41
330.997	4.41
331.45	4.42
331.903	4.44
332.355	4.45
332.808	4.45
333.26	4.45
333.713	4.46
334.165	4.46
334.617	4.47
335.069	4.47
335.522	4.48
335.974	4.49
336.426	4.47
336.878	4.47
337.33	4.45
337.782	4.45
338.234	4.46
338.686	4.46
339.137	4.46
339.589	4.44
340.041	4.44
340.493	4.43
340.944	4.4
341.396	4.39
341.847	4.38
342.299	4.36
342.75	4.34
343.201	4.32
343.653	4.3
344.104	4.28
344.555	4.25
345.006	4.23
345.457	4.23
345.908	4.22
346.359	4.21
346.81	4.2
347.261	4.2
347.712	4.19
348.163	4.18
348.613	4.19
349.064	4.19
349.515	4.2
349.965	4.2
350.416	4.18
350.866	4.19
351.317	4.18
351.767	4.18
352.217	4.19
352.668	4.19
353.118	4.19
353.568	4.19
354.018	4.19
354.468	4.2
354.918	4.2
355.368	4.21
355.818	4.22
356.268	4.22
356.718	4.22
357.168	4.22
357.617	4.21
358.067	4.22
358.517	4.23
358.966	4.24
359.416	4.25
359.865	4.25
360.315	4.25
360.764	4.25
361.213	4.25
361.663	4.24
362.112	4.24
362.561	4.25
363.01	4.24
363.459	4.22
363.908	4.21
364.357	4.2
364.806	4.2
365.255	4.2
365.703	4.21
366.152	4.22
366.601	4.22
367.05	4.23
367.498	4.21
367.947	4.21
368.395	4.22
368.844	4.22
369.292	4.21
369.74	4.21
370.189	4.2
370.637	4.19
371.085	4.18
371.533	4.17
371.981	4.16
372.429	4.17
372.877	4.16
373.325	4.15
373.773	4.14
374.221	4.13
374.669	4.13
375.116	4.12
375.564	4.12
376.012	4.11
376.459	4.12
376.907	4.12
377.354	4.11
377.801	4.12
378.249	4.12
378.696	4.12
379.143	4.12
379.591	4.12
380.038	4.12
380.485	4.12
380.932	4.12
381.379	4.12
381.826	4.11
382.273	4.1
382.72	4.09
383.166	4.08
383.613	4.08
384.06	4.07
384.506	4.06
384.953	4.07
385.4	4.07
385.846	4.06
386.292	4.06
386.739	4.06
387.185	4.06
387.631	4.07
388.078	4.07
388.524	4.06
388.97	4.07
389.416	4.09
389.862	4.09
390.308	4.1
390.754	4.12
391.2	4.14
391.645	4.15
392.091	4.18
392.537	4.2
392.983	4.22
393.428	4.25
393.874	4.27
394.319	4.29
394.765	4.32
395.21	4.35
395.655	4.38
396.101	4.42
396.546	4.47
396.991	4.51
397.436	4.56
397.881	4.62
398.326	4.68
398.771	4.73
399.216	4.78
399.661	4.83
400.106	4.88
400.551	4.91
400.995	4.93
401.44	4.96
401.885	4.98
402.329	5.03
402.774	5.06
403.218	5.12
403.663	5.17
404.107	5.22
404.551	5.26
404.995	5.3
405.44	5.34
405.884	5.39
406.328	5.45
406.772	5.51
407.216	5.56
407.66	5.61
408.104	5.63
408.547	5.67
408.991	5.71
409.435	5.76
409.879	5.82
410.322	5.89
410.766	5.95
411.209	6.01
411.653	6.08
412.096	6.13
412.54	6.19
412.983	6.25
413.426	6.33
413.869	6.4
414.312	6.47
414.756	6.53
415.199	6.56
415.642	6.61
416.085	6.64
416.527	6.66
416.97	6.67
417.413	6.67
417.856	6.67
418.298	6.67
418.741	6.68
419.184	6.69
419.626	6.7
420.069	6.73
420.511	6.77
420.953	6.8
421.396	6.84
421.838	6.88
422.28	6.94
422.722	7.01
423.164	7.05
423.606	7.08
424.048	7.1
424.49	7.13
424.932	7.11
425.374	7.06
425.816	6.99
426.258	6.94
426.699	6.91
427.141	6.91
427.582	6.91
428.024	6.95
428.465	6.99
428.907	7.02
429.348	7.03
429.789	7.08
430.231	7.19
430.672	7.31
431.113	7.46
431.554	7.58
431.995	7.67
432.436	7.73
432.877	7.8
433.318	7.86
433.759	7.95
434.2	8.05
434.64	8.13
435.081	8.2
435.522	8.26
435.962	8.3
436.403	8.36
436.843	8.4
437.284	8.44
437.724	8.48
438.164	8.51
438.604	8.56
439.045	8.61
439.485	8.67
439.925	8.7
440.365	8.76
440.805	8.79
441.245	8.83
441.685	8.88
442.125	8.94
442.564	8.99
443.004	9.05
443.444	9.09
443.883	9.14
444.323	9.19
444.762	9.24
445.202	9.29
445.641	9.36
446.081	9.45
446.52	9.52
446.959	9.6
447.398	9.68
447.837	9.72
448.276	9.74
448.716	9.77
449.154	9.8
449.593	9.83
450.032	9.83
450.471	9.82
450.91	9.77
451.349	9.78
451.787	9.74
452.226	9.72
452.664	9.71
453.103	9.7
453.541	9.69
453.98	9.68
454.418	9.64
454.856	9.63
455.295	9.6
455.733	9.57
456.171	9.54
456.609	9.53
457.047	9.5
457.485	9.48
457.923	9.5
458.361	9.49
458.798	9.5
459.236	9.52
459.674	9.54
460.111	9.56
460.549	9.6
460.987	9.62
461.424	9.64
461.862	9.68
462.299	9.71
462.736	9.72
463.173	9.76
463.611	9.79
464.048	9.83
464.485	9.88
464.922	9.94
465.359	9.97
465.796	10.03
466.233	10.09
466.67	10.14
467.106	10.2
467.543	10.27
467.98	10.32
468.416	10.35
468.853	10.4
469.29	10.42
469.726	10.47
470.162	10.52
470.599	10.52
471.035	10.54
471.471	10.56
471.907	10.56
472.344	10.58
472.78	10.57
473.216	10.57
473.652	10.59
474.088	10.59
474.523	10.6
474.959	10.6
475.395	10.6
475.831	10.58
476.266	10.59
476.702	10.57
477.138	10.57
477.573	10.55
478.008	10.54
478.444	10.51
478.879	10.49
479.314	10.44
479.75	10.41
480.185	10.36
480.62	10.3
481.055	10.21
481.49	10.11
481.925	10.01
482.36	9.92
482.795	9.84
483.229	9.78
483.664	9.74
484.099	9.69
484.534	9.65
484.968	9.63
485.403	9.63
485.837	9.67
486.271	9.72
486.706	9.78
487.14	9.81
487.574	9.84
488.009	9.86
488.443	9.88
488.877	9.92
489.311	9.95
489.745	10
490.179	10.04
490.613	10.08
491.046	10.12
491.48	10.18
491.914	10.24
492.348	10.32
492.781	10.41
493.215	10.49
493.648	10.56
494.082	10.64
494.515	10.7
494.948	10.77
495.382	10.83
495.815	10.9
496.248	10.98
496.681	11.06
497.114	11.13
497.547	11.2
497.98	11.29
498.413	11.39
498.846	11.51
499.279	11.63
499.711	11.75
500.144	11.87
500.577	12.02
501.009	12.16
501.442	12.33
501.874	12.51
502.306	12.69
502.739	12.88
503.171	13.06
503.603	13.23
504.036	13.42
504.468	13.63
504.9	13.83
505.332	14.03
505.764	14.25
506.196	14.46
506.627	14.69
507.059	14.93
507.491	15.16
507.923	15.42
508.354	15.69
508.786	15.95
509.217	16.21
509.649	16.47
510.08	16.73
510.512	17.01
510.943	17.3
511.374	17.58
511.805	17.85
512.237	18.09
512.668	18.33
513.099	18.56
513.53	18.82
513.961	19.09
514.391	19.38
514.822	19.69
515.253	20
515.684	20.3
516.114	20.65
516.545	21
516.975	21.39
517.406	21.79
517.836	22.18
518.267	22.59
518.697	22.97
519.127	23.32
519.558	23.7
519.988	24.06
520.418	24.42
520.848	24.74
521.278	25.06
521.708	25.53
522.138	25.79
522.567	26.05
522.997	26.29
523.427	26.55
523.857	26.83
524.286	27.06
524.716	27.32
525.145	27.57
525.575	27.8
526.004	28.04
526.433	28.1
526.863	28.38
527.292	28.65
527.721	28.89
528.15	29.09
528.579	29.25
529.008	29.4
529.437	29.53
529.866	29.64
530.295	29.77
530.724	29.91
531.152	30.02
531.581	30.14
532.01	30.24
532.438	30.34
532.867	30.46
533.295	30.57
533.723	30.68
534.152	30.79
534.58	30.89
535.008	30.94
535.436	30.99
535.865	31.03
536.293	31.03
536.721	31.05
537.149	31.09
537.576	31.13
538.004	31.19
538.432	31.2
538.86	31.24
539.287	31.28
539.715	31.35
540.143	31.43
540.57	31.5
540.998	31.6
541.425	31.68
541.852	31.75
542.28	31.83
542.707	31.89
543.134	31.97
543.561	32.02
543.988	32.09
544.415	32.14
544.842	32.18
545.269	32.25
545.696	32.31
546.123	32.38
546.549	32.43
546.976	32.48
547.403	32.53
547.829	32.58
548.256	32.62
548.682	32.65
549.108	32.69
549.535	32.74
549.961	32.76
550.387	32.78
550.813	32.79
551.24	32.8
551.666	32.81
552.092	32.82
552.518	32.8
552.943	32.79
553.369	32.76
553.795	32.73
554.221	32.66
554.646	32.59
555.072	32.5
555.498	32.41
555.923	32.33
556.349	32.24
556.774	32.16
557.199	32.08
557.625	32
558.05	31.92
558.475	31.85
558.9	31.78
559.325	31.7
559.75	31.62
560.175	31.54
560.6	31.43
561.025	31.3
561.449	31.17
561.874	31.01
562.299	30.88
562.723	30.73
563.148	30.56
563.572	30.4
563.997	30.25
564.421	30.06
564.846	29.89
565.27	29.72
565.694	29.56
566.118	29.38
566.542	29.23
566.966	29.04
567.39	28.86
567.814	28.69
568.238	28.52
568.662	28.36
569.086	28.23
569.509	28.08
569.933	27.96
570.357	27.8
570.78	27.66
571.204	27.52
571.627	27.4
572.05	27.26
572.474	27.14
572.897	27.02
573.32	26.89
573.743	26.74
574.166	26.61
574.589	26.47
575.012	26.35
575.435	26.24
575.858	26.14
576.281	26.03
576.704	25.95
577.126	25.85
577.549	25.75
577.972	25.66
578.394	25.59
578.817	25.53
579.239	25.46
579.661	25.41
580.084	25.35
580.506	25.28
580.928	25.21
581.35	25.12
581.772	25.05
582.194	24.98
582.616	24.91
583.038	24.83
583.46	24.75
583.882	24.65
584.303	24.54
584.725	24.43
585.147	24.34
585.568	24.25
585.99	24.18
586.411	24.1
586.833	24.03
587.254	23.97
587.675	23.91
588.096	23.85
588.518	23.8
588.939	23.77
589.36	23.75
589.781	23.73
590.202	23.71
590.623	23.67
591.043	23.62
591.464	23.58
591.885	23.53
592.305	23.5
592.726	23.47
593.147	23.44
593.567	23.4
593.987	23.37
594.408	23.33
594.828	23.29
595.248	23.28
595.669	23.26
596.089	23.23
596.509	23.17
596.929	23.13
597.349	23.07
597.769	23.02
598.189	22.97
598.608	22.94
599.028	22.9
599.448	22.85
599.867	22.79
600.287	22.77
600.706	22.74
601.126	22.72
601.545	22.68
601.965	22.66
602.384	22.62
602.803	22.58
603.222	22.53
603.641	22.46
604.061	22.41
604.48	22.34
604.898	22.25
605.317	22.16
605.736	22.07
606.155	21.97
606.574	21.88
606.992	21.78
607.411	21.68
607.829	21.56
608.248	21.46
608.666	21.35
609.085	21.24
609.503	21.14
609.921	21.03
610.339	20.92
610.758	20.83
611.176	20.71
611.594	20.6
612.012	20.48
612.43	20.39
612.847	20.28
613.265	20.17
613.683	20.09
614.101	20
614.518	19.91
614.936	19.84
615.353	19.73
615.771	19.67
616.188	19.59
616.606	19.54
617.023	19.48
617.44	19.43
617.857	19.36
618.274	19.28
618.691	19.21
619.108	19.15
619.525	19.06
619.942	19.01
620.359	18.94
620.776	18.88
621.192	18.81
621.609	18.73
622.026	18.66
622.442	18.62
622.859	18.58
623.275	18.53
623.691	18.49
624.108	18.45
624.524	18.42
624.94	18.39
625.356	18.35
625.772	18.31
626.188	18.3
626.604	18.28
627.02	18.25
627.436	18.22
627.852	18.2
628.268	18.18
628.683	18.16
629.099	18.14
629.514	18.14
629.93	18.11
630.345	18.09
630.761	18.05
631.176	18.02
631.591	17.99
632.007	17.94
632.422	17.9
632.837	17.86
633.252	17.82
633.667	17.76
634.082	17.68
634.497	17.63
634.911	17.55
635.326	17.48
635.741	17.4
636.155	17.31
636.57	17.22
636.984	17.11
637.399	16.98
637.813	16.86
638.228	16.73
638.642	16.59
639.056	16.45
639.47	16.32
639.884	16.19
640.298	16.05
640.712	15.9
641.126	15.77
641.54	15.64
641.954	15.51
642.368	15.37
642.781	15.25
643.195	15.12
643.609	14.99
644.022	14.86
644.436	14.72
644.849	14.6
645.262	14.48
645.676	14.35
646.089	14.24
646.502	14.14
646.915	14.05
647.328	13.95
647.741	13.86
648.154	13.78
648.567	13.71
648.98	13.65
649.393	13.59
649.805	13.53
650.218	13.48
650.631	13.42
651.043	13.34
651.456	13.26
651.868	13.16
652.28	13.05
652.693	12.95
653.105	12.86
653.517	12.77
653.929	12.69
654.341	12.6
654.753	12.51
655.165	12.44
655.577	12.36
655.989	12.29
656.401	12.23
656.813	12.17
657.224	12.1
657.636	12.02
658.047	11.93
658.459	11.82
658.87	11.7
659.282	11.59
659.693	11.47
660.104	11.33
660.515	11.21
660.926	11.09
661.338	10.96
661.749	10.85
662.159	10.73
662.57	10.61
662.981	10.5
663.392	10.4
663.803	10.28
664.213	10.18
664.624	10.09
665.035	10
665.445	9.92
665.855	9.83
666.266	9.75
666.676	9.67
667.086	9.59
667.497	9.52
667.907	9.44
668.317	9.39
668.727	9.34
669.137	9.28
669.547	9.23
669.956	9.18
670.366	9.13
670.776	9.1
671.186	9.07
671.595	9.03
672.005	9
672.414	8.99
672.824	8.97
673.233	8.95
673.642	8.95
674.052	8.94
674.461	8.93
674.87	8.95
675.279	8.95
675.688	8.96
676.097	8.98
676.506	9.01
676.915	9.04
677.323	9.07
677.732	9.11
678.141	9.15
678.549	9.19
678.958	9.25
679.366	9.31
679.775	9.37
680.183	9.46
680.592	9.55
681	9.65
681.408	9.75
681.816	9.87
682.224	9.99
682.632	10.12
683.04	10.25
683.448	10.39
683.856	10.54
684.264	10.73
684.671	10.94
685.079	11.17
685.487	11.43
685.894	11.73
686.302	12.05
686.709	12.4
687.116	12.81
687.524	13.24
687.931	13.72
688.338	14.21
688.745	14.71
689.152	15.22
689.559	15.78
689.966	16.33
690.373	16.88
690.78	17.42
691.187	17.99
691.593	18.56
692	19.13
692.407	19.68
692.813	20.27
693.22	20.85
693.626	21.41
694.032	21.96
694.439	22.51
694.845	23.06
695.251	23.63
695.657	24.15
696.063	24.66
696.469	25.18
696.875	25.68
697.281	26.15
697.687	26.62
698.093	27.09
698.498	27.53
698.904	27.98
699.31	28.42
699.715	28.86
700.12	29.32
700.526	29.74
700.931	30.15
701.337	30.56
701.742	30.94
702.147	31.35
702.552	31.74
702.957	32.11
703.362	32.46
703.767	32.8
704.172	33.13
704.577	33.44
704.981	33.77
705.386	34.09
705.791	34.39
706.195	34.71
706.6	35
707.004	35.26
707.408	35.55
707.813	35.84
708.217	36.1
708.621	36.37
709.025	36.62
709.43	36.84
709.834	37.09
710.237	37.32
710.641	37.54
711.045	37.75
711.449	37.98
711.853	38.22
712.256	38.39
712.66	38.58
713.064	38.73
713.467	38.89
713.87	39.03
714.274	39.13
714.677	39.25
715.08	39.35
715.484	39.48
715.887	39.59
716.29	39.67
716.693	39.82
717.096	39.97
717.499	40.15
717.901	40.33
718.304	40.52
718.707	40.72
719.109	40.89
719.512	41.07
719.915	41.22
720.317	41.36
720.719	41.49
721.122	41.61
721.524	41.71
721.926	41.82
722.328	41.92
722.731	42
723.133	42.1
723.535	42.23
723.937	42.34
724.338	42.44
724.74	42.56
725.142	42.76
725.544	42.82
725.945	42.96
726.347	43.01
726.748	43.09
727.15	43.17
727.551	43.26
727.952	43.31
728.354	43.39
728.755	43.46
729.156	43.53
729.557	43.52
729.958	43.64
730.359	43.69
730.76	43.79
731.161	43.85
731.562	43.93
731.962	43.96
732.363	44.04
732.763	44.11
733.164	44.16
733.564	44.22
733.965	44.24
734.365	44.28
734.766	44.3
735.166	44.32
735.566	44.34
735.966	44.38
736.366	44.4
736.766	44.4
737.166	44.39
737.566	44.4
737.966	44.43
738.365	44.45
738.765	44.47
739.165	44.47
739.564	44.5
739.964	44.53
740.363	44.53
740.763	44.56
741.162	44.62
741.561	44.63
741.96	44.66
742.36	44.66
742.759	44.67
743.158	44.68
743.557	44.69
743.955	44.7
744.354	44.71
744.753	44.74
745.152	44.76
745.55	44.72
745.949	44.74
746.348	44.75
746.746	44.73
747.144	44.73
747.543	44.69
747.941	44.68
748.339	44.63
748.737	44.62
749.136	44.59
749.534	44.54
749.932	44.53
750.33	44.51
750.727	44.5
751.125	44.51
751.523	44.5
751.921	44.52
752.318	44.53
752.716	44.54
753.113	44.53
753.511	44.54
753.908	44.57
754.305	44.56
754.703	44.5
755.1	44.39
755.497	44.21
755.894	43.95
756.291	43.66
756.688	43.32
757.085	43.03
757.482	42.71
757.878	42.43
758.275	42.15
758.672	41.86
759.068	41.66
759.465	41.48
759.861	41.39
760.258	41.4
760.654	41.47
761.05	41.61
761.447	41.72
761.843	41.86
762.239	42
762.635	42.13
763.031	42.33
763.427	42.48
763.822	42.71
764.218	42.9
764.614	43.09
765.01	43.24
765.405	43.38
765.801	43.5
766.196	43.63
766.592	43.73
766.987	43.8
767.382	43.84
767.778	43.91
768.173	43.94
768.568	43.95
768.963	43.96
769.358	44
769.753	44
770.148	44.01
770.542	44.02
770.937	44.02
771.332	44.02
771.726	44.02
772.121	43.98
772.515	43.96
772.91	43.95
773.304	43.95
773.699	43.93
774.093	43.91
774.487	43.92
774.881	43.92
775.275	43.91
775.669	43.89
776.063	43.87
776.457	43.9
776.851	43.87
777.245	43.85
777.638	43.84
778.032	43.81
778.425	43.84
