Data from N_2_HIR_WI_4N_Splice17_13-33-31-558.txt Node
Date: Sat Mar 07 13:33:31 EST 2020
User: sa697716
Spectrometer: NQ5500242
Trigger mode: 0
Integration Time (sec): 1.450000E-1
Scans to average: 20
Nonlinearity correction enabled: false
Boxcar width: 5
Storing dark spectrum: false
XAxis mode: Wavelengths
Number of Pixels in Spectrum: 512
>>>>>Begin Spectral Data<<<<<
187.83	129.68
188.298	138.59
188.766	116.72
189.233	106.02
189.701	110.85
190.169	143.15
190.636	164.94
191.104	206.24
191.571	141.01
192.039	59.26
192.506	-3.54
192.974	38.39
193.441	62.02
193.908	10.1
194.375	22.62
194.842	-10.33
195.31	34.46
195.777	235.83
196.244	99.22
196.711	90.63
197.177	90.4
197.644	88.99
198.111	87.97
198.578	87.48
199.045	88.32
199.511	88.19
199.978	88.19
200.445	88.52
200.911	88.31
201.378	88.26
201.844	87.95
202.31	87.43
202.777	87.06
203.243	86.84
203.709	86.74
204.176	86
204.642	85.36
205.108	84.86
205.574	84.16
206.04	83.19
206.506	82.15
206.972	81.58
207.438	80.72
207.903	79.83
208.369	78.39
208.835	76.5
209.301	74.52
209.766	72.4
210.232	70.31
210.697	68.08
211.163	66.33
211.628	64.88
212.094	63.17
212.559	61.54
213.024	59.9
213.49	58.5
213.955	57.06
214.42	55.71
214.885	54.05
215.35	51.85
215.815	49.12
216.28	45.58
216.745	41.52
217.21	37.47
217.675	33.8
218.14	30.66
218.604	27.88
219.069	25.65
219.534	23.69
219.998	22.11
220.463	20.77
220.927	19.61
221.392	18.7
221.856	17.97
222.32	17.35
222.785	16.82
223.249	16.32
223.713	15.87
224.177	15.44
224.642	15.06
225.106	14.69
225.57	14.36
226.034	14.06
226.497	13.77
226.961	13.49
227.425	13.23
227.889	12.95
228.353	12.69
228.816	12.43
229.28	12.2
229.744	12
230.207	11.78
230.671	11.57
231.134	11.37
231.597	11.2
232.061	11.03
232.524	10.87
232.987	10.71
233.45	10.58
233.914	10.43
234.377	10.29
234.84	10.15
235.303	10.05
235.766	9.94
236.229	9.82
236.691	9.7
237.154	9.59
237.617	9.49
238.08	9.39
238.542	9.28
239.005	9.2
239.468	9.11
239.93	9.03
240.393	8.95
240.855	8.83
241.317	8.75
241.78	8.67
242.242	8.57
242.704	8.49
243.166	8.41
243.629	8.33
244.091	8.24
244.553	8.14
245.015	8.06
245.477	7.96
245.939	7.89
246.4	7.81
246.862	7.73
247.324	7.66
247.786	7.58
248.247	7.5
248.709	7.42
249.17	7.34
249.632	7.3
250.093	7.24
250.555	7.18
251.016	7.13
251.477	7.08
251.939	7.03
252.4	6.98
252.861	6.93
253.322	6.88
253.783	6.84
254.244	6.8
254.705	6.75
255.166	6.69
255.627	6.64
256.088	6.6
256.549	6.55
257.009	6.49
257.47	6.44
257.931	6.39
258.391	6.34
258.852	6.28
259.312	6.24
259.773	6.19
260.233	6.15
260.694	6.09
261.154	6.04
261.614	6
262.074	5.95
262.534	5.91
262.994	5.87
263.455	5.83
263.915	5.79
264.374	5.75
264.834	5.72
265.294	5.68
265.754	5.66
266.214	5.63
266.673	5.6
267.133	5.58
267.593	5.56
268.052	5.55
268.512	5.53
268.971	5.52
269.431	5.5
269.89	5.48
270.349	5.47
270.809	5.44
271.268	5.42
271.727	5.41
272.186	5.39
272.645	5.38
273.104	5.35
273.563	5.34
274.022	5.32
274.481	5.31
274.94	5.3
275.399	5.27
275.857	5.26
276.316	5.25
276.775	5.23
277.233	5.22
277.692	5.21
278.15	5.2
278.609	5.18
279.067	5.18
279.525	5.16
279.984	5.15
280.442	5.14
280.9	5.13
281.358	5.12
281.816	5.12
282.274	5.1
282.732	5.09
283.19	5.07
283.648	5.06
284.106	5.04
284.564	5.03
285.021	5.02
285.479	5.01
285.937	4.99
286.394	4.98
286.852	4.96
287.309	4.95
287.767	4.93
288.224	4.91
288.682	4.9
289.139	4.87
289.596	4.85
290.053	4.83
290.511	4.8
290.968	4.78
291.425	4.75
291.882	4.73
292.339	4.71
292.796	4.69
293.252	4.67
293.709	4.65
294.166	4.64
294.623	4.62
295.079	4.6
295.536	4.6
295.992	4.58
296.449	4.57
296.905	4.56
297.362	4.55
297.818	4.53
298.274	4.52
298.731	4.51
299.187	4.49
299.643	4.48
300.099	4.48
300.555	4.47
301.011	4.45
301.467	4.45
301.923	4.43
302.379	4.43
302.835	4.42
303.291	4.41
303.746	4.41
304.202	4.4
304.658	4.4
305.113	4.4
305.569	4.39
306.024	4.39
306.479	4.38
306.935	4.38
307.39	4.38
307.845	4.38
308.301	4.38
308.756	4.38
309.211	4.37
309.666	4.38
310.121	4.38
310.576	4.38
311.031	4.39
311.486	4.4
311.94	4.4
312.395	4.4
312.85	4.4
313.305	4.4
313.759	4.41
314.214	4.4
314.668	4.38
315.123	4.37
315.577	4.36
316.032	4.35
316.486	4.33
316.94	4.31
317.394	4.29
317.849	4.27
318.303	4.25
318.757	4.22
319.211	4.21
319.665	4.2
320.119	4.18
320.572	4.17
321.026	4.16
321.48	4.14
321.934	4.13
322.387	4.12
322.841	4.11
323.295	4.1
323.748	4.1
324.202	4.09
324.655	4.08
325.108	4.08
325.562	4.08
326.015	4.07
326.468	4.07
326.921	4.07
327.374	4.07
327.827	4.07
328.28	4.06
328.733	4.06
329.186	4.06
329.639	4.06
330.092	4.06
330.545	4.06
330.997	4.06
331.45	4.06
331.903	4.07
332.355	4.09
332.808	4.09
333.26	4.09
333.713	4.09
334.165	4.09
334.617	4.09
335.069	4.08
335.522	4.08
335.974	4.09
336.426	4.08
336.878	4.07
337.33	4.07
337.782	4.07
338.234	4.07
338.686	4.06
339.137	4.06
339.589	4.05
340.041	4.05
340.493	4.03
340.944	4.02
341.396	4.01
341.847	3.99
342.299	3.97
342.75	3.95
343.201	3.92
343.653	3.9
344.104	3.88
344.555	3.87
345.006	3.85
345.457	3.84
345.908	3.82
346.359	3.81
346.81	3.8
347.261	3.79
347.712	3.79
348.163	3.78
348.613	3.77
349.064	3.78
349.515	3.77
349.965	3.77
350.416	3.76
350.866	3.77
351.317	3.76
351.767	3.75
352.217	3.75
352.668	3.75
353.118	3.75
353.568	3.75
354.018	3.75
354.468	3.75
354.918	3.75
355.368	3.75
355.818	3.74
356.268	3.75
356.718	3.76
357.168	3.75
357.617	3.75
358.067	3.75
358.517	3.76
358.966	3.76
359.416	3.76
359.865	3.75
360.315	3.76
360.764	3.76
361.213	3.74
361.663	3.73
362.112	3.74
362.561	3.73
363.01	3.72
363.459	3.7
363.908	3.69
364.357	3.69
364.806	3.68
365.255	3.69
365.703	3.69
366.152	3.69
366.601	3.69
367.05	3.69
367.498	3.69
367.947	3.69
368.395	3.7
368.844	3.7
369.292	3.69
369.74	3.69
370.189	3.67
370.637	3.67
371.085	3.66
371.533	3.65
371.981	3.65
372.429	3.64
372.877	3.63
373.325	3.62
373.773	3.61
374.221	3.6
374.669	3.59
375.116	3.59
375.564	3.57
376.012	3.57
376.459	3.56
376.907	3.56
377.354	3.56
377.801	3.56
378.249	3.56
378.696	3.55
379.143	3.55
379.591	3.55
380.038	3.55
380.485	3.55
380.932	3.55
381.379	3.55
381.826	3.54
382.273	3.53
382.72	3.51
383.166	3.5
383.613	3.5
384.06	3.48
384.506	3.47
384.953	3.46
385.4	3.45
385.846	3.45
386.292	3.45
386.739	3.44
387.185	3.44
387.631	3.45
388.078	3.44
388.524	3.44
388.97	3.45
389.416	3.46
389.862	3.46
390.308	3.47
390.754	3.48
391.2	3.49
391.645	3.51
392.091	3.52
392.537	3.53
392.983	3.54
393.428	3.55
393.874	3.55
394.319	3.55
394.765	3.55
395.21	3.55
395.655	3.55
396.101	3.56
396.546	3.55
396.991	3.56
397.436	3.57
397.881	3.59
398.326	3.61
398.771	3.63
399.216	3.65
399.661	3.66
400.106	3.69
400.551	3.7
400.995	3.71
401.44	3.73
401.885	3.73
402.329	3.75
402.774	3.76
403.218	3.78
403.663	3.8
404.107	3.83
404.551	3.84
404.995	3.85
405.44	3.86
405.884	3.87
406.328	3.89
406.772	3.91
407.216	3.92
407.66	3.93
408.104	3.93
408.547	3.93
408.991	3.95
409.435	3.96
409.879	3.99
410.322	4.02
410.766	4.05
411.209	4.08
411.653	4.11
412.096	4.13
412.54	4.15
412.983	4.18
413.426	4.23
413.869	4.26
414.312	4.3
414.756	4.32
415.199	4.33
415.642	4.34
416.085	4.35
416.527	4.36
416.97	4.36
417.413	4.37
417.856	4.37
418.298	4.36
418.741	4.36
419.184	4.36
419.626	4.36
420.069	4.38
420.511	4.4
420.953	4.41
421.396	4.44
421.838	4.47
422.28	4.49
422.722	4.52
423.164	4.54
423.606	4.56
424.048	4.58
424.49	4.6
424.932	4.58
425.374	4.56
425.816	4.55
426.258	4.54
426.699	4.54
427.141	4.53
427.582	4.54
428.024	4.54
428.465	4.56
428.907	4.55
429.348	4.55
429.789	4.56
430.231	4.6
430.672	4.63
431.113	4.65
431.554	4.66
431.995	4.69
432.436	4.7
432.877	4.73
433.318	4.75
433.759	4.78
434.2	4.82
434.64	4.86
435.081	4.87
435.522	4.9
435.962	4.92
436.403	4.96
436.843	4.98
437.284	4.99
437.724	5
438.164	4.99
438.604	5.01
439.045	5.01
439.485	5.01
439.925	5.01
440.365	5.01
440.805	5.01
441.245	5.01
441.685	5.03
442.125	5.05
442.564	5.06
443.004	5.07
443.444	5.09
443.883	5.12
444.323	5.11
444.762	5.13
445.202	5.15
445.641	5.19
446.081	5.21
446.52	5.23
446.959	5.26
447.398	5.28
447.837	5.3
448.276	5.31
448.716	5.32
449.154	5.34
449.593	5.35
450.032	5.36
450.471	5.34
450.91	5.33
451.349	5.34
451.787	5.32
452.226	5.3
452.664	5.29
453.103	5.28
453.541	5.26
453.98	5.26
454.418	5.24
454.856	5.22
455.295	5.22
455.733	5.19
456.171	5.15
456.609	5.15
457.047	5.12
457.485	5.12
457.923	5.12
458.361	5.12
458.798	5.11
459.236	5.11
459.674	5.1
460.111	5.1
460.549	5.12
460.987	5.14
461.424	5.14
461.862	5.15
462.299	5.16
462.736	5.16
463.173	5.16
463.611	5.17
464.048	5.18
464.485	5.2
464.922	5.21
465.359	5.21
465.796	5.23
466.233	5.24
466.67	5.26
467.106	5.26
467.543	5.26
467.98	5.26
468.416	5.25
468.853	5.25
469.29	5.23
469.726	5.22
470.162	5.22
470.599	5.2
471.035	5.18
471.471	5.17
471.907	5.16
472.344	5.16
472.78	5.16
473.216	5.16
473.652	5.16
474.088	5.14
474.523	5.14
474.959	5.14
475.395	5.12
475.831	5.11
476.266	5.1
476.702	5.09
477.138	5.08
477.573	5.07
478.008	5.07
478.444	5.05
478.879	5.05
479.314	5.03
479.75	5.02
480.185	5
480.62	4.98
481.055	4.97
481.49	4.95
481.925	4.94
482.36	4.93
482.795	4.92
483.229	4.9
483.664	4.9
484.099	4.89
484.534	4.89
484.968	4.91
485.403	4.9
485.837	4.92
486.271	4.94
486.706	4.95
487.14	4.95
487.574	4.97
488.009	4.99
488.443	5.01
488.877	5.04
489.311	5.06
489.745	5.08
490.179	5.12
490.613	5.15
491.046	5.17
491.48	5.21
491.914	5.26
492.348	5.3
492.781	5.35
493.215	5.4
493.648	5.45
494.082	5.5
494.515	5.55
494.948	5.61
495.382	5.67
495.815	5.74
496.248	5.82
496.681	5.89
497.114	5.96
497.547	6.04
497.98	6.12
498.413	6.2
498.846	6.3
499.279	6.4
499.711	6.49
500.144	6.6
500.577	6.71
501.009	6.82
501.442	6.93
501.874	7.06
502.306	7.2
502.739	7.34
503.171	7.48
503.603	7.63
504.036	7.78
504.468	7.93
504.9	8.08
505.332	8.24
505.764	8.42
506.196	8.59
506.627	8.78
507.059	8.95
507.491	9.13
507.923	9.32
508.354	9.53
508.786	9.75
509.217	9.97
509.649	10.2
510.08	10.43
510.512	10.66
510.943	10.9
511.374	11.13
511.805	11.38
512.237	11.64
512.668	11.89
513.099	12.14
513.53	12.4
513.961	12.66
514.391	12.91
514.822	13.19
515.253	13.45
515.684	13.7
516.114	13.97
516.545	14.24
516.975	14.52
517.406	14.79
517.836	15.06
518.267	15.34
518.697	15.58
519.127	15.84
519.558	16.08
519.988	16.34
520.418	16.6
520.848	16.84
521.278	17.09
521.708	17.49
522.138	17.73
522.567	17.95
522.997	18.17
523.427	18.42
523.857	18.64
524.286	18.84
524.716	19.04
525.145	19.24
525.575	19.43
526.004	19.63
526.433	19.63
526.863	19.8
527.292	19.96
527.721	20.13
528.15	20.25
528.579	20.41
529.008	20.57
529.437	20.7
529.866	20.83
530.295	20.95
530.724	21.08
531.152	21.2
531.581	21.32
532.01	21.43
532.438	21.54
532.867	21.65
533.295	21.73
533.723	21.82
534.152	21.9
534.58	21.98
535.008	22.04
535.436	22.1
535.865	22.15
536.293	22.2
536.721	22.25
537.149	22.3
537.576	22.35
538.004	22.4
538.432	22.43
538.86	22.47
539.287	22.51
539.715	22.56
540.143	22.6
540.57	22.63
540.998	22.65
541.425	22.68
541.852	22.71
542.28	22.75
542.707	22.77
543.134	22.78
543.561	22.83
543.988	22.84
544.415	22.86
544.842	22.88
545.269	22.91
545.696	22.94
546.123	22.96
546.549	22.97
546.976	22.99
547.403	23.01
547.829	23.03
548.256	23.03
548.682	23.06
549.108	23.08
549.535	23.09
549.961	23.09
550.387	23.1
550.813	23.11
551.24	23.11
551.666	23.12
552.092	23.12
552.518	23.12
552.943	23.12
553.369	23.11
553.795	23.09
554.221	23.08
554.646	23.05
555.072	23.02
555.498	22.98
555.923	22.94
556.349	22.86
556.774	22.81
557.199	22.76
557.625	22.69
558.05	22.63
558.475	22.56
558.9	22.5
559.325	22.43
559.75	22.36
560.175	22.28
560.6	22.2
561.025	22.14
561.449	22.06
561.874	21.98
562.299	21.89
562.723	21.78
563.148	21.67
563.572	21.54
563.997	21.43
564.421	21.32
564.846	21.19
565.27	21.07
565.694	20.95
566.118	20.81
566.542	20.68
566.966	20.55
567.39	20.42
567.814	20.29
568.238	20.16
568.662	20.04
569.086	19.91
569.509	19.78
569.933	19.66
570.357	19.52
570.78	19.39
571.204	19.27
571.627	19.15
572.05	19.03
572.474	18.92
572.897	18.8
573.32	18.69
573.743	18.58
574.166	18.49
574.589	18.38
575.012	18.28
575.435	18.18
575.858	18.09
576.281	18
576.704	17.9
577.126	17.8
577.549	17.71
577.972	17.62
578.394	17.53
578.817	17.44
579.239	17.36
579.661	17.28
580.084	17.21
580.506	17.13
580.928	17.06
581.35	17
581.772	16.93
582.194	16.87
582.616	16.82
583.038	16.75
583.46	16.67
583.882	16.6
584.303	16.52
584.725	16.47
585.147	16.41
585.568	16.36
585.99	16.3
586.411	16.24
586.833	16.17
587.254	16.1
587.675	16.04
588.096	15.99
588.518	15.96
588.939	15.92
589.36	15.87
589.781	15.83
590.202	15.79
590.623	15.75
591.043	15.71
591.464	15.69
591.885	15.65
592.305	15.62
592.726	15.6
593.147	15.55
593.567	15.52
593.987	15.48
594.408	15.44
594.828	15.39
595.248	15.36
595.669	15.33
596.089	15.3
596.509	15.27
596.929	15.24
597.349	15.2
597.769	15.18
598.189	15.13
598.608	15.11
599.028	15.08
599.448	15.05
599.867	15.01
600.287	14.96
600.706	14.92
601.126	14.86
601.545	14.82
601.965	14.78
602.384	14.73
602.803	14.69
603.222	14.63
603.641	14.58
604.061	14.52
604.48	14.45
604.898	14.39
605.317	14.33
605.736	14.28
606.155	14.23
606.574	14.15
606.992	14.07
607.411	14.01
607.829	13.91
608.248	13.83
608.666	13.76
609.085	13.68
609.503	13.62
609.921	13.54
610.339	13.46
610.758	13.39
611.176	13.31
611.594	13.24
612.012	13.17
612.43	13.12
612.847	13.06
613.265	12.99
613.683	12.93
614.101	12.86
614.518	12.78
614.936	12.72
615.353	12.64
615.771	12.58
616.188	12.52
616.606	12.46
617.023	12.41
617.44	12.35
617.857	12.29
618.274	12.25
618.691	12.2
619.108	12.16
619.525	12.11
619.942	12.07
620.359	12.03
620.776	12
621.192	11.97
621.609	11.94
622.026	11.91
622.442	11.89
622.859	11.87
623.275	11.85
623.691	11.83
624.108	11.81
624.524	11.79
624.94	11.79
625.356	11.77
625.772	11.76
626.188	11.75
626.604	11.75
627.02	11.74
627.436	11.73
627.852	11.72
628.268	11.71
628.683	11.71
629.099	11.71
629.514	11.69
629.93	11.68
630.345	11.66
630.761	11.63
631.176	11.61
631.591	11.57
632.007	11.54
632.422	11.5
632.837	11.46
633.252	11.41
633.667	11.35
634.082	11.29
634.497	11.24
634.911	11.17
635.326	11.09
635.741	11.02
636.155	10.94
636.57	10.85
636.984	10.77
637.399	10.68
637.813	10.58
638.228	10.48
638.642	10.38
639.056	10.26
639.47	10.16
639.884	10.07
640.298	9.95
640.712	9.85
641.126	9.73
641.54	9.62
641.954	9.5
642.368	9.4
642.781	9.3
643.195	9.19
643.609	9.09
644.022	8.98
644.436	8.88
644.849	8.78
645.262	8.69
645.676	8.61
646.089	8.52
646.502	8.44
646.915	8.36
647.328	8.3
647.741	8.23
648.154	8.17
648.567	8.12
648.98	8.06
649.393	8.02
649.805	7.97
650.218	7.93
650.631	7.89
651.043	7.85
651.456	7.8
651.868	7.75
652.28	7.71
652.693	7.67
653.105	7.62
653.517	7.56
653.929	7.51
654.341	7.44
654.753	7.38
655.165	7.31
655.577	7.25
655.989	7.18
656.401	7.12
656.813	7.05
657.224	6.97
657.636	6.87
658.047	6.8
658.459	6.71
658.87	6.63
659.282	6.53
659.693	6.45
660.104	6.35
660.515	6.27
660.926	6.18
661.338	6.09
661.749	6
662.159	5.92
662.57	5.85
662.981	5.79
663.392	5.72
663.803	5.67
664.213	5.6
664.624	5.53
665.035	5.47
665.445	5.43
665.855	5.38
666.266	5.34
666.676	5.31
667.086	5.26
667.497	5.23
667.907	5.2
668.317	5.17
668.727	5.15
669.137	5.13
669.547	5.12
669.956	5.1
670.366	5.09
670.776	5.08
671.186	5.08
671.595	5.07
672.005	5.05
672.414	5.05
672.824	5.06
673.233	5.05
673.642	5.06
674.052	5.06
674.461	5.08
674.87	5.08
675.279	5.11
675.688	5.12
676.097	5.15
676.506	5.17
676.915	5.2
677.323	5.22
677.732	5.24
678.141	5.28
678.549	5.31
678.958	5.34
679.366	5.4
679.775	5.45
680.183	5.52
680.592	5.6
681	5.69
681.408	5.77
681.816	5.87
682.224	5.99
682.632	6.13
683.04	6.26
683.448	6.42
683.856	6.57
684.264	6.76
684.671	6.96
685.079	7.17
685.487	7.4
685.894	7.67
686.302	7.95
686.709	8.24
687.116	8.57
687.524	8.91
687.931	9.29
688.338	9.68
688.745	10.07
689.152	10.48
689.559	10.93
689.966	11.4
690.373	11.86
690.78	12.34
691.187	12.83
691.593	13.33
692	13.84
692.407	14.33
692.813	14.85
693.22	15.36
693.626	15.9
694.032	16.41
694.439	16.92
694.845	17.44
695.251	17.97
695.657	18.48
696.063	18.99
696.469	19.48
696.875	19.99
697.281	20.47
697.687	20.97
698.093	21.43
698.498	21.89
698.904	22.34
699.31	22.79
699.715	23.21
700.12	23.64
700.526	24.06
700.931	24.5
701.337	24.9
701.742	25.29
702.147	25.67
702.552	26.06
702.957	26.42
703.362	26.79
703.767	27.14
704.172	27.49
704.577	27.83
704.981	28.18
705.386	28.5
705.791	28.81
706.195	29.13
706.6	29.45
707.004	29.75
707.408	30.05
707.813	30.36
708.217	30.65
708.621	30.93
709.025	31.21
709.43	31.46
709.834	31.72
710.237	31.98
710.641	32.23
711.045	32.47
711.449	32.73
711.853	32.99
712.256	33.21
712.66	33.43
713.064	33.65
713.467	33.88
713.87	34.11
714.274	34.32
714.677	34.55
715.08	34.76
715.484	34.98
715.887	35.19
716.29	35.38
716.693	35.59
717.096	35.8
717.499	36
717.901	36.2
718.304	36.37
718.707	36.55
719.109	36.72
719.512	36.88
719.915	37.03
720.317	37.17
720.719	37.3
721.122	37.42
721.524	37.55
721.926	37.69
722.328	37.82
722.731	37.94
723.133	38.09
723.535	38.21
723.937	38.34
724.338	38.44
724.74	38.54
725.142	38.75
725.544	38.85
725.945	38.99
726.347	39.06
726.748	39.15
727.15	39.24
727.551	39.29
727.952	39.37
728.354	39.45
728.755	39.53
729.156	39.62
729.557	39.61
729.958	39.68
730.359	39.72
730.76	39.79
731.161	39.84
731.562	39.91
731.962	39.97
732.363	40.03
732.763	40.08
733.164	40.12
733.564	40.17
733.965	40.2
734.365	40.26
734.766	40.32
735.166	40.37
735.566	40.42
735.966	40.47
736.366	40.51
736.766	40.54
737.166	40.57
737.566	40.61
737.966	40.64
738.365	40.66
738.765	40.7
739.165	40.72
739.564	40.75
739.964	40.78
740.363	40.77
740.763	40.81
741.162	40.84
741.561	40.87
741.96	40.9
742.36	40.93
742.759	40.98
743.158	40.99
743.557	41.01
743.955	41.02
744.354	41.03
744.753	41.07
745.152	41.09
745.55	41.1
745.949	41.11
746.348	41.1
746.746	41.12
747.144	41.12
747.543	41.16
747.941	41.15
748.339	41.14
748.737	41.14
749.136	41.13
749.534	41.11
749.932	41.1
750.33	41.1
750.727	41.12
751.125	41.1
751.523	41.06
751.921	41.04
752.318	41.04
752.716	41.05
753.113	41.07
753.511	41.06
753.908	41.08
754.305	41.1
754.703	41.08
755.1	41.08
755.497	41.09
755.894	41.11
756.291	41.11
756.688	41.09
757.085	41.1
757.482	41.1
757.878	41.12
758.275	41.1
758.672	41.1
759.068	41.12
759.465	41.11
759.861	41.13
760.258	41.14
760.654	41.16
761.05	41.21
761.447	41.2
761.843	41.21
762.239	41.23
762.635	41.26
763.031	41.27
763.427	41.26
763.822	41.29
764.218	41.28
764.614	41.29
765.01	41.28
765.405	41.26
765.801	41.27
766.196	41.26
766.592	41.23
766.987	41.22
767.382	41.21
767.778	41.23
768.173	41.22
768.568	41.19
768.963	41.2
769.358	41.22
769.753	41.21
770.148	41.23
770.542	41.22
770.937	41.25
771.332	41.26
771.726	41.26
772.121	41.25
772.515	41.24
772.91	41.25
773.304	41.25
773.699	41.25
774.093	41.23
774.487	41.24
774.881	41.27
775.275	41.24
775.669	41.22
776.063	41.24
776.457	41.25
776.851	41.25
777.245	41.25
777.638	41.25
778.032	41.26
778.425	41.3
778.819	41.29
779.212	41.28
779.606	41.31
779.999	41.31
780.392	41.33
780.786	41.33
781.179	41.33
781.572	41.37
781.965	41.37
782.358	41.36
