Data from N_2_DEC_VA_2N_Splice17_13-07-31-418.txt Node
Date: Sat Mar 07 13:07:31 EST 2020
User: sa697716
Spectrometer: NQ5500242
Trigger mode: 0
Integration Time (sec): 1.450000E-1
Scans to average: 20
Nonlinearity correction enabled: false
Boxcar width: 5
Storing dark spectrum: false
XAxis mode: Wavelengths
Number of Pixels in Spectrum: 512
>>>>>Begin Spectral Data<<<<<
187.83	146.87
188.298	153.54
188.766	130.19
189.233	116.76
189.701	114.58
190.169	140.12
190.636	152.02
191.104	205.27
191.571	56.36
192.039	83.49
192.506	533.64
192.974	34.87
193.441	46.54
193.908	23.6
194.375	80.28
194.842	15.87
195.31	39.12
195.777	79.62
196.244	43.31
196.711	39.37
197.177	42.17
197.644	40.11
198.111	39.98
198.578	40.25
199.045	40.22
199.511	39.78
199.978	39.87
200.445	40.26
200.911	40.2
201.378	40.14
201.844	39.97
202.31	39.57
202.777	39.99
203.243	39.72
203.709	39.31
204.176	38.9
204.642	39.04
205.108	39.14
205.574	38.52
206.04	38.08
206.506	37.63
206.972	37.66
207.438	37.14
207.903	36.84
208.369	36.09
208.835	35.54
209.301	34.75
209.766	33.41
210.232	32.43
210.697	31.76
211.163	31.06
211.628	30.51
212.094	29.53
212.559	29.08
213.024	28.2
213.49	27.71
213.955	26.92
214.42	26.57
214.885	26.01
215.35	25.11
215.815	23.99
216.28	22.39
216.745	20.66
217.21	19.06
217.675	17.36
218.14	15.97
218.604	14.76
219.069	13.84
219.534	12.93
219.998	12.23
220.463	11.64
220.927	11.03
221.392	10.62
221.856	10.29
222.32	9.97
222.785	9.75
223.249	9.52
223.713	9.31
224.177	9.12
224.642	8.95
225.106	8.73
225.57	8.51
226.034	8.4
226.497	8.25
226.961	8.1
227.425	7.97
227.889	7.85
228.353	7.73
228.816	7.6
229.28	7.47
229.744	7.36
230.207	7.26
230.671	7.18
231.134	7.08
231.597	7
232.061	6.91
232.524	6.82
232.987	6.72
233.45	6.64
233.914	6.57
234.377	6.48
234.84	6.41
235.303	6.35
235.766	6.28
236.229	6.21
236.691	6.13
237.154	6.07
237.617	6
238.08	5.94
238.542	5.88
239.005	5.83
239.468	5.78
239.93	5.72
240.393	5.67
240.855	5.6
241.317	5.54
241.78	5.48
242.242	5.43
242.704	5.39
243.166	5.34
243.629	5.28
244.091	5.22
244.553	5.17
245.015	5.11
245.477	5.07
245.939	5.03
246.4	4.98
246.862	4.94
247.324	4.9
247.786	4.86
248.247	4.81
248.709	4.76
249.17	4.72
249.632	4.69
250.093	4.66
250.555	4.63
251.016	4.6
251.477	4.56
251.939	4.54
252.4	4.51
252.861	4.48
253.322	4.46
253.783	4.44
254.244	4.42
254.705	4.39
255.166	4.35
255.627	4.32
256.088	4.3
256.549	4.28
257.009	4.24
257.47	4.21
257.931	4.18
258.391	4.15
258.852	4.11
259.312	4.09
259.773	4.05
260.233	4.03
260.694	4.01
261.154	3.98
261.614	3.95
262.074	3.93
262.534	3.91
262.994	3.89
263.455	3.87
263.915	3.86
264.374	3.84
264.834	3.83
265.294	3.81
265.754	3.79
266.214	3.78
266.673	3.76
267.133	3.75
267.593	3.74
268.052	3.73
268.512	3.72
268.971	3.71
269.431	3.7
269.89	3.69
270.349	3.69
270.809	3.68
271.268	3.68
271.727	3.67
272.186	3.66
272.645	3.65
273.104	3.64
273.563	3.63
274.022	3.62
274.481	3.62
274.94	3.62
275.399	3.6
275.857	3.6
276.316	3.58
276.775	3.57
277.233	3.57
277.692	3.57
278.15	3.56
278.609	3.56
279.067	3.55
279.525	3.54
279.984	3.53
280.442	3.52
280.9	3.51
281.358	3.51
281.816	3.52
282.274	3.51
282.732	3.5
283.19	3.49
283.648	3.48
284.106	3.47
284.564	3.47
285.021	3.47
285.479	3.46
285.937	3.44
286.394	3.44
286.852	3.42
287.309	3.41
287.767	3.39
288.224	3.38
288.682	3.37
289.139	3.36
289.596	3.34
290.053	3.33
290.511	3.31
290.968	3.31
291.425	3.28
291.882	3.27
292.339	3.26
292.796	3.25
293.252	3.24
293.709	3.24
294.166	3.23
294.623	3.22
295.079	3.21
295.536	3.21
295.992	3.2
296.449	3.2
296.905	3.19
297.362	3.19
297.818	3.18
298.274	3.18
298.731	3.16
299.187	3.15
299.643	3.14
300.099	3.13
300.555	3.13
301.011	3.12
301.467	3.11
301.923	3.1
302.379	3.09
302.835	3.1
303.291	3.09
303.746	3.09
304.202	3.1
304.658	3.1
305.113	3.1
305.569	3.1
306.024	3.1
306.479	3.09
306.935	3.09
307.39	3.08
307.845	3.07
308.301	3.07
308.756	3.07
309.211	3.06
309.666	3.07
310.121	3.06
310.576	3.06
311.031	3.05
311.486	3.06
311.94	3.06
312.395	3.06
312.85	3.07
313.305	3.07
313.759	3.07
314.214	3.07
314.668	3.06
315.123	3.05
315.577	3.04
316.032	3.04
316.486	3.03
316.94	3.03
317.394	3.02
317.849	2.99
318.303	2.98
318.757	2.97
319.211	2.96
319.665	2.95
320.119	2.95
320.572	2.94
321.026	2.94
321.48	2.92
321.934	2.91
322.387	2.9
322.841	2.9
323.295	2.9
323.748	2.9
324.202	2.89
324.655	2.89
325.108	2.89
325.562	2.89
326.015	2.88
326.468	2.88
326.921	2.88
327.374	2.87
327.827	2.87
328.28	2.87
328.733	2.88
329.186	2.87
329.639	2.87
330.092	2.86
330.545	2.86
330.997	2.86
331.45	2.86
331.903	2.87
332.355	2.87
332.808	2.88
333.26	2.87
333.713	2.87
334.165	2.87
334.617	2.87
335.069	2.86
335.522	2.87
335.974	2.86
336.426	2.86
336.878	2.85
337.33	2.84
337.782	2.84
338.234	2.84
338.686	2.85
339.137	2.85
339.589	2.84
340.041	2.84
340.493	2.83
340.944	2.82
341.396	2.82
341.847	2.81
342.299	2.8
342.75	2.79
343.201	2.78
343.653	2.77
344.104	2.75
344.555	2.73
345.006	2.73
345.457	2.72
345.908	2.72
346.359	2.72
346.81	2.72
347.261	2.71
347.712	2.71
348.163	2.7
348.613	2.71
349.064	2.72
349.515	2.72
349.965	2.72
350.416	2.71
350.866	2.71
351.317	2.7
351.767	2.7
352.217	2.7
352.668	2.7
353.118	2.7
353.568	2.69
354.018	2.69
354.468	2.7
354.918	2.7
355.368	2.71
355.818	2.71
356.268	2.71
356.718	2.71
357.168	2.71
357.617	2.7
358.067	2.7
358.517	2.71
358.966	2.71
359.416	2.72
359.865	2.72
360.315	2.72
360.764	2.73
361.213	2.72
361.663	2.72
362.112	2.73
362.561	2.73
363.01	2.73
363.459	2.72
363.908	2.71
364.357	2.71
364.806	2.7
365.255	2.7
365.703	2.72
366.152	2.73
366.601	2.73
367.05	2.74
367.498	2.74
367.947	2.74
368.395	2.75
368.844	2.76
369.292	2.76
369.74	2.78
370.189	2.78
370.637	2.78
371.085	2.78
371.533	2.78
371.981	2.79
372.429	2.81
372.877	2.84
373.325	2.84
373.773	2.86
374.221	2.89
374.669	2.9
375.116	2.91
375.564	2.93
376.012	2.97
376.459	3
376.907	3.04
377.354	3.07
377.801	3.1
378.249	3.14
378.696	3.18
379.143	3.22
379.591	3.27
380.038	3.32
380.485	3.38
380.932	3.43
381.379	3.48
381.826	3.53
382.273	3.59
382.72	3.64
383.166	3.7
383.613	3.77
384.06	3.84
384.506	3.9
384.953	3.97
385.4	4.04
385.846	4.11
386.292	4.18
386.739	4.25
387.185	4.33
387.631	4.41
388.078	4.49
388.524	4.56
388.97	4.64
389.416	4.72
389.862	4.8
390.308	4.88
390.754	4.97
391.2	5.04
391.645	5.12
392.091	5.2
392.537	5.28
392.983	5.35
393.428	5.44
393.874	5.51
394.319	5.57
394.765	5.63
395.21	5.69
395.655	5.75
396.101	5.8
396.546	5.85
396.991	5.89
397.436	5.93
397.881	5.99
398.326	6.04
398.771	6.08
399.216	6.11
399.661	6.14
400.106	6.17
400.551	6.19
400.995	6.2
401.44	6.21
401.885	6.21
402.329	6.22
402.774	6.21
403.218	6.22
403.663	6.22
404.107	6.23
404.551	6.22
404.995	6.21
405.44	6.19
405.884	6.19
406.328	6.19
406.772	6.17
407.216	6.16
407.66	6.14
408.104	6.1
408.547	6.08
408.991	6.06
409.435	6.04
409.879	6.03
410.322	6.02
410.766	6.02
411.209	6.01
411.653	6.01
412.096	6
412.54	5.99
412.983	5.98
413.426	6
413.869	5.99
414.312	5.99
414.756	5.99
415.199	5.97
415.642	5.96
416.085	5.95
416.527	5.91
416.97	5.88
417.413	5.87
417.856	5.85
418.298	5.82
418.741	5.8
419.184	5.78
419.626	5.76
420.069	5.74
420.511	5.72
420.953	5.71
421.396	5.72
421.838	5.7
422.28	5.69
422.722	5.68
423.164	5.67
423.606	5.66
424.048	5.63
424.49	5.6
424.932	5.57
425.374	5.52
425.816	5.47
426.258	5.44
426.699	5.41
427.141	5.39
427.582	5.36
428.024	5.34
428.465	5.31
428.907	5.28
429.348	5.26
429.789	5.25
430.231	5.26
430.672	5.26
431.113	5.26
431.554	5.26
431.995	5.24
432.436	5.24
432.877	5.24
433.318	5.25
433.759	5.26
434.2	5.29
434.64	5.3
435.081	5.31
435.522	5.34
435.962	5.35
436.403	5.39
436.843	5.41
437.284	5.44
437.724	5.46
438.164	5.47
438.604	5.51
439.045	5.53
439.485	5.56
439.925	5.58
440.365	5.62
440.805	5.66
441.245	5.69
441.685	5.76
442.125	5.82
442.564	5.87
443.004	5.94
443.444	5.99
443.883	6.06
444.323	6.13
444.762	6.21
445.202	6.27
445.641	6.35
446.081	6.43
446.52	6.5
446.959	6.59
447.398	6.67
447.837	6.75
448.276	6.82
448.716	6.91
449.154	6.99
449.593	7.06
450.032	7.14
450.471	7.19
450.91	7.24
451.349	7.29
451.787	7.32
452.226	7.36
452.664	7.41
453.103	7.44
453.541	7.47
453.98	7.51
454.418	7.52
454.856	7.53
455.295	7.56
455.733	7.56
456.171	7.59
456.609	7.61
457.047	7.62
457.485	7.61
457.923	7.62
458.361	7.63
458.798	7.62
459.236	7.63
459.674	7.64
460.111	7.64
460.549	7.65
460.987	7.65
461.424	7.66
461.862	7.66
462.299	7.68
462.736	7.69
463.173	7.68
463.611	7.68
464.048	7.69
464.485	7.7
464.922	7.71
465.359	7.71
465.796	7.74
466.233	7.74
466.67	7.74
467.106	7.75
467.543	7.74
467.98	7.74
468.416	7.74
468.853	7.75
469.29	7.75
469.726	7.75
470.162	7.75
470.599	7.74
471.035	7.73
471.471	7.73
471.907	7.74
472.344	7.75
472.78	7.76
473.216	7.77
473.652	7.8
474.088	7.79
474.523	7.8
474.959	7.81
475.395	7.8
475.831	7.82
476.266	7.84
476.702	7.84
477.138	7.87
477.573	7.87
478.008	7.88
478.444	7.88
478.879	7.91
479.314	7.92
479.75	7.94
480.185	7.96
480.62	7.97
481.055	7.98
481.49	8
481.925	8.02
482.36	8.05
482.795	8.07
483.229	8.11
483.664	8.14
484.099	8.17
484.534	8.21
484.968	8.27
485.403	8.32
485.837	8.38
486.271	8.46
486.706	8.52
487.14	8.59
487.574	8.67
488.009	8.75
488.443	8.84
488.877	8.95
489.311	9.05
489.745	9.16
490.179	9.29
490.613	9.41
491.046	9.53
491.48	9.67
491.914	9.8
492.348	9.96
492.781	10.11
493.215	10.27
493.648	10.42
494.082	10.58
494.515	10.75
494.948	10.93
495.382	11.12
495.815	11.31
496.248	11.5
496.681	11.71
497.114	11.92
497.547	12.14
497.98	12.37
498.413	12.61
498.846	12.86
499.279	13.1
499.711	13.34
500.144	13.6
500.577	13.86
501.009	14.13
501.442	14.41
501.874	14.69
502.306	14.97
502.739	15.28
503.171	15.58
503.603	15.87
504.036	16.19
504.468	16.51
504.9	16.83
505.332	17.16
505.764	17.49
506.196	17.83
506.627	18.18
507.059	18.53
507.491	18.86
507.923	19.21
508.354	19.59
508.786	19.96
509.217	20.34
509.649	20.71
510.08	21.09
510.512	21.47
510.943	21.85
511.374	22.23
511.805	22.6
512.237	22.98
512.668	23.37
513.099	23.73
513.53	24.1
513.961	24.46
514.391	24.83
514.822	25.2
515.253	25.53
515.684	25.88
516.114	26.24
516.545	26.59
516.975	26.93
517.406	27.25
517.836	27.58
518.267	27.91
518.697	28.21
519.127	28.51
519.558	28.81
519.988	29.12
520.418	29.39
520.848	29.66
521.278	29.93
521.708	30.28
522.138	30.54
522.567	30.78
522.997	31.02
523.427	31.25
523.857	31.46
524.286	31.67
524.716	31.89
525.145	32.09
525.575	32.28
526.004	32.47
526.433	32.58
526.863	32.74
527.292	32.9
527.721	33.05
528.15	33.2
528.579	33.36
529.008	33.49
529.437	33.6
529.866	33.73
530.295	33.84
530.724	33.95
531.152	34.06
531.581	34.17
532.01	34.27
532.438	34.37
532.867	34.46
533.295	34.54
533.723	34.62
534.152	34.71
534.58	34.79
535.008	34.84
535.436	34.91
535.865	34.97
536.293	35.01
536.721	35.07
537.149	35.12
537.576	35.17
538.004	35.24
538.432	35.27
538.86	35.3
539.287	35.32
539.715	35.36
540.143	35.37
540.57	35.39
540.998	35.42
541.425	35.44
541.852	35.46
542.28	35.46
542.707	35.47
543.134	35.48
543.561	35.51
543.988	35.54
544.415	35.55
544.842	35.56
545.269	35.58
545.696	35.6
546.123	35.61
546.549	35.62
546.976	35.64
547.403	35.63
547.829	35.65
548.256	35.64
548.682	35.65
549.108	35.67
549.535	35.69
549.961	35.68
550.387	35.67
550.813	35.66
551.24	35.66
551.666	35.65
552.092	35.68
552.518	35.66
552.943	35.64
553.369	35.61
553.795	35.59
554.221	35.57
554.646	35.55
555.072	35.53
555.498	35.49
555.923	35.45
556.349	35.4
556.774	35.35
557.199	35.3
557.625	35.26
558.05	35.23
558.475	35.18
558.9	35.12
559.325	35.05
559.75	34.98
560.175	34.91
560.6	34.84
561.025	34.77
561.449	34.69
561.874	34.59
562.299	34.49
562.723	34.38
563.148	34.27
563.572	34.16
563.997	34.05
564.421	33.94
564.846	33.84
565.27	33.72
565.694	33.62
566.118	33.51
566.542	33.4
566.966	33.27
567.39	33.15
567.814	33.05
568.238	32.94
568.662	32.85
569.086	32.74
569.509	32.61
569.933	32.51
570.357	32.37
570.78	32.26
571.204	32.14
571.627	32.04
572.05	31.93
572.474	31.82
572.897	31.72
573.32	31.58
573.743	31.47
574.166	31.36
574.589	31.24
575.012	31.13
575.435	31.02
575.858	30.92
576.281	30.82
576.704	30.71
577.126	30.6
577.549	30.49
577.972	30.4
578.394	30.3
578.817	30.21
579.239	30.12
579.661	30.04
580.084	29.95
580.506	29.88
580.928	29.79
581.35	29.71
581.772	29.62
582.194	29.52
582.616	29.43
583.038	29.36
583.46	29.26
583.882	29.18
584.303	29.09
584.725	29.01
585.147	28.92
585.568	28.85
585.99	28.78
586.411	28.71
586.833	28.65
587.254	28.58
587.675	28.51
588.096	28.46
588.518	28.41
588.939	28.37
589.36	28.31
589.781	28.25
590.202	28.2
590.623	28.15
591.043	28.1
591.464	28.06
591.885	28
592.305	27.97
592.726	27.94
593.147	27.89
593.567	27.83
593.987	27.79
594.408	27.75
594.828	27.7
595.248	27.67
595.669	27.63
596.089	27.6
596.509	27.57
596.929	27.52
597.349	27.46
597.769	27.43
598.189	27.38
598.608	27.35
599.028	27.32
599.448	27.29
599.867	27.23
600.287	27.19
600.706	27.15
601.126	27.1
601.545	27.05
601.965	27.02
602.384	26.97
602.803	26.91
603.222	26.85
603.641	26.78
604.061	26.72
604.48	26.66
604.898	26.57
605.317	26.5
605.736	26.44
606.155	26.37
606.574	26.27
606.992	26.18
607.411	26.1
607.829	26
608.248	25.9
608.666	25.81
609.085	25.72
609.503	25.65
609.921	25.54
610.339	25.44
610.758	25.35
611.176	25.25
611.594	25.18
612.012	25.08
612.43	25.01
612.847	24.91
613.265	24.82
613.683	24.71
614.101	24.62
614.518	24.53
614.936	24.42
615.353	24.34
615.771	24.25
616.188	24.15
616.606	24.08
617.023	24.01
617.44	23.95
617.857	23.88
618.274	23.82
618.691	23.75
619.108	23.7
619.525	23.64
619.942	23.58
620.359	23.53
620.776	23.48
621.192	23.42
621.609	23.39
622.026	23.34
622.442	23.3
622.859	23.26
623.275	23.23
623.691	23.2
624.108	23.18
624.524	23.15
624.94	23.13
625.356	23.11
625.772	23.1
626.188	23.08
626.604	23.07
627.02	23.07
627.436	23.05
627.852	23.03
628.268	23
628.683	23
629.099	22.98
629.514	22.96
629.93	22.94
630.345	22.9
630.761	22.84
631.176	22.79
631.591	22.74
632.007	22.68
632.422	22.62
632.837	22.55
633.252	22.46
633.667	22.37
634.082	22.26
634.497	22.16
634.911	22.06
635.326	21.94
635.741	21.8
636.155	21.65
636.57	21.5
636.984	21.34
637.399	21.17
637.813	20.99
638.228	20.82
638.642	20.63
639.056	20.43
639.47	20.24
639.884	20.04
640.298	19.84
640.712	19.64
641.126	19.44
641.54	19.23
641.954	19.01
642.368	18.81
642.781	18.59
643.195	18.4
643.609	18.2
644.022	17.99
644.436	17.8
644.849	17.62
645.262	17.44
645.676	17.28
646.089	17.13
646.502	16.98
646.915	16.85
647.328	16.72
647.741	16.6
648.154	16.48
648.567	16.38
648.98	16.27
649.393	16.18
649.805	16.09
650.218	15.99
650.631	15.91
651.043	15.82
651.456	15.73
651.868	15.64
652.28	15.54
652.693	15.46
653.105	15.38
653.517	15.28
653.929	15.16
654.341	15.04
654.753	14.92
655.165	14.78
655.577	14.65
655.989	14.49
656.401	14.34
656.813	14.2
657.224	14.01
657.636	13.8
658.047	13.62
658.459	13.43
658.87	13.23
659.282	13.02
659.693	12.82
660.104	12.59
660.515	12.37
660.926	12.16
661.338	11.92
661.749	11.71
662.159	11.5
662.57	11.28
662.981	11.07
663.392	10.88
663.803	10.69
664.213	10.49
664.624	10.3
665.035	10.13
665.445	9.96
665.855	9.79
666.266	9.63
666.676	9.49
667.086	9.36
667.497	9.22
667.907	9.09
668.317	8.98
668.727	8.88
669.137	8.78
669.547	8.7
669.956	8.62
670.366	8.55
670.776	8.48
671.186	8.42
671.595	8.36
672.005	8.32
672.414	8.29
672.824	8.26
673.233	8.24
673.642	8.23
674.052	8.22
674.461	8.22
674.87	8.22
675.279	8.25
675.688	8.26
676.097	8.29
676.506	8.33
676.915	8.38
677.323	8.44
677.732	8.51
678.141	8.59
678.549	8.68
678.958	8.81
679.366	8.96
679.775	9.12
680.183	9.31
680.592	9.52
681	9.77
681.408	10.02
681.816	10.32
682.224	10.64
682.632	11.01
683.04	11.38
683.448	11.78
683.856	12.21
684.264	12.67
684.671	13.17
685.079	13.7
685.487	14.26
685.894	14.86
686.302	15.47
686.709	16.11
687.116	16.77
687.524	17.44
687.931	18.14
688.338	18.85
688.745	19.57
689.152	20.28
689.559	21.02
689.966	21.75
690.373	22.47
690.78	23.19
691.187	23.9
691.593	24.62
692	25.32
692.407	26
692.813	26.68
693.22	27.35
693.626	28.01
694.032	28.64
694.439	29.24
694.845	29.84
695.251	30.43
695.657	30.98
696.063	31.52
696.469	32.06
696.875	32.57
697.281	33.05
697.687	33.52
698.093	33.98
698.498	34.41
698.904	34.84
699.31	35.25
699.715	35.66
700.12	36.05
700.526	36.43
700.931	36.79
701.337	37.14
701.742	37.47
702.147	37.8
702.552	38.1
702.957	38.4
703.362	38.69
703.767	38.95
704.172	39.22
704.577	39.48
704.981	39.72
705.386	39.96
705.791	40.19
706.195	40.43
706.6	40.68
707.004	40.89
707.408	41.13
707.813	41.36
708.217	41.57
708.621	41.76
709.025	41.96
709.43	42.15
709.834	42.34
710.237	42.51
710.641	42.69
711.045	42.84
711.449	43.03
711.853	43.2
712.256	43.33
712.66	43.48
713.064	43.64
713.467	43.77
713.87	43.92
714.274	44.08
714.677	44.23
715.08	44.35
715.484	44.49
715.887	44.64
716.29	44.73
716.693	44.86
717.096	45
717.499	45.12
717.901	45.23
718.304	45.32
718.707	45.42
719.109	45.52
719.512	45.62
719.915	45.72
720.317	45.78
720.719	45.87
721.122	45.95
721.524	46.01
721.926	46.1
722.328	46.19
722.731	46.27
723.133	46.36
723.535	46.45
723.937	46.51
724.338	46.56
724.74	46.61
725.142	46.8
725.544	46.86
725.945	46.95
726.347	46.97
726.748	47.02
727.15	47.06
727.551	47.11
727.952	47.13
728.354	47.17
728.755	47.21
729.156	47.27
729.557	47.18
729.958	47.21
730.359	47.21
730.76	47.27
731.161	47.31
731.562	47.37
731.962	47.35
732.363	47.39
732.763	47.44
733.164	47.48
733.564	47.53
733.965	47.57
734.365	47.63
734.766	47.65
735.166	47.67
735.566	47.7
735.966	47.7
736.366	47.75
736.766	47.77
737.166	47.78
737.566	47.81
737.966	47.8
738.365	47.82
738.765	47.83
739.165	47.87
739.564	47.87
739.964	47.88
740.363	47.92
740.763	47.94
741.162	47.94
741.561	47.94
741.96	47.92
742.36	47.91
742.759	47.9
743.158	47.87
743.557	47.85
743.955	47.87
744.354	47.87
744.753	47.86
745.152	47.86
745.55	47.86
745.949	47.88
746.348	47.91
746.746	47.93
747.144	47.96
747.543	47.96
747.941	47.97
748.339	47.94
748.737	47.95
749.136	47.95
749.534	47.93
749.932	47.93
750.33	47.92
750.727	47.92
751.125	47.92
751.523	47.91
751.921	47.94
752.318	47.97
752.716	47.99
753.113	48.01
753.511	48.03
753.908	48.06
754.305	48.1
754.703	48.1
755.1	48.09
755.497	48.09
755.894	48.11
756.291	48.1
756.688	48.06
757.085	48.06
757.482	48.06
757.878	48.06
758.275	48.05
758.672	48.04
759.068	48.07
759.465	48.1
759.861	48.12
760.258	48.13
760.654	48.13
761.05	48.16
761.447	48.17
761.843	48.15
762.239	48.13
762.635	48.13
763.031	48.1
763.427	48.09
763.822	48.09
764.218	48.07
764.614	48.06
765.01	48.04
765.405	48.04
765.801	48
766.196	47.99
766.592	47.97
766.987	47.97
767.382	47.97
767.778	47.99
768.173	47.98
768.568	47.95
768.963	47.97
769.358	47.98
769.753	47.97
770.148	47.99
770.542	48.01
770.937	48.02
771.332	48.01
771.726	48.01
772.121	47.99
772.515	47.98
772.91	48
773.304	48
773.699	48
774.093	48.01
774.487	48.02
774.881	48.02
775.275	48.03
775.669	48
776.063	48.01
776.457	48
776.851	47.99
777.245	47.95
777.638	47.92
778.032	47.94
778.425	47.97
778.819	47.94
779.212	47.97
779.606	47.98
779.999	48
780.392	48.03
