Data from N_2_DIV_WI_4N_Splice17_13-19-19-723.txt Node
Date: Sat Mar 07 13:19:19 EST 2020
User: sa697716
Spectrometer: NQ5500242
Trigger mode: 0
Integration Time (sec): 1.450000E-1
Scans to average: 20
Nonlinearity correction enabled: false
Boxcar width: 5
Storing dark spectrum: false
XAxis mode: Wavelengths
Number of Pixels in Spectrum: 512
>>>>>Begin Spectral Data<<<<<
187.83	170.33
188.298	168.54
188.766	155.99
189.233	138.61
189.701	145.33
190.169	172.31
190.636	178.54
191.104	290.6
191.571	298.47
192.039	100.48
192.506	252.25
192.974	14.18
193.441	-84.23
193.908	-14.66
194.375	85.59
194.842	44.48
195.31	105.54
195.777	269.6
196.244	67.57
196.711	47.96
197.177	46.74
197.644	45.65
198.111	44.61
198.578	45.29
199.045	45.15
199.511	44.62
199.978	44.7
200.445	44.6
200.911	44.56
201.378	44.52
201.844	44.37
202.31	44.18
202.777	44.36
203.243	44.7
203.709	44.2
204.176	43.93
204.642	43.67
205.108	43.63
205.574	43.37
206.04	42.65
206.506	42.18
206.972	42.31
207.438	42.02
207.903	41.62
208.369	40.53
208.835	39.65
209.301	38.88
209.766	37.89
210.232	36.76
210.697	35.97
211.163	35.21
211.628	34.42
212.094	33.5
212.559	32.76
213.024	31.85
213.49	31.47
213.955	30.92
214.42	30.29
214.885	29.52
215.35	28.7
215.815	27.5
216.28	25.98
216.745	24.29
217.21	22.55
217.675	21.06
218.14	19.8
218.604	18.6
219.069	17.67
219.534	16.87
219.998	16.19
220.463	15.68
220.927	15.16
221.392	14.79
221.856	14.48
222.32	14.2
222.785	13.93
223.249	13.68
223.713	13.45
224.177	13.3
224.642	13.09
225.106	12.88
225.57	12.68
226.034	12.55
226.497	12.39
226.961	12.22
227.425	12.08
227.889	11.92
228.353	11.77
228.816	11.64
229.28	11.48
229.744	11.35
230.207	11.23
230.671	11.09
231.134	10.92
231.597	10.8
232.061	10.68
232.524	10.56
232.987	10.47
233.45	10.37
233.914	10.25
234.377	10.13
234.84	10.03
235.303	9.93
235.766	9.85
236.229	9.78
236.691	9.68
237.154	9.6
237.617	9.51
238.08	9.42
238.542	9.34
239.005	9.27
239.468	9.18
239.93	9.1
240.393	9.04
240.855	8.94
241.317	8.85
241.78	8.77
242.242	8.69
242.704	8.63
243.166	8.55
243.629	8.49
244.091	8.42
244.553	8.35
245.015	8.27
245.477	8.2
245.939	8.13
246.4	8.07
246.862	8.01
247.324	7.95
247.786	7.88
248.247	7.81
248.709	7.74
249.17	7.66
249.632	7.62
250.093	7.57
250.555	7.52
251.016	7.47
251.477	7.41
251.939	7.37
252.4	7.31
252.861	7.26
253.322	7.23
253.783	7.19
254.244	7.15
254.705	7.09
255.166	7.05
255.627	7
256.088	6.97
256.549	6.93
257.009	6.88
257.47	6.84
257.931	6.79
258.391	6.73
258.852	6.68
259.312	6.64
259.773	6.59
260.233	6.55
260.694	6.5
261.154	6.45
261.614	6.41
262.074	6.36
262.534	6.32
262.994	6.29
263.455	6.25
263.915	6.22
264.374	6.19
264.834	6.15
265.294	6.12
265.754	6.1
266.214	6.07
266.673	6.04
267.133	6.02
267.593	6
268.052	5.98
268.512	5.96
268.971	5.94
269.431	5.91
269.89	5.9
270.349	5.88
270.809	5.86
271.268	5.83
271.727	5.81
272.186	5.8
272.645	5.77
273.104	5.75
273.563	5.73
274.022	5.71
274.481	5.69
274.94	5.67
275.399	5.65
275.857	5.63
276.316	5.61
276.775	5.59
277.233	5.58
277.692	5.56
278.15	5.54
278.609	5.52
279.067	5.5
279.525	5.48
279.984	5.46
280.442	5.44
280.9	5.42
281.358	5.41
281.816	5.39
282.274	5.37
282.732	5.35
283.19	5.33
283.648	5.31
284.106	5.29
284.564	5.27
285.021	5.25
285.479	5.23
285.937	5.21
286.394	5.19
286.852	5.16
287.309	5.14
287.767	5.12
288.224	5.09
288.682	5.07
289.139	5.05
289.596	5.03
290.053	5
290.511	4.97
290.968	4.95
291.425	4.91
291.882	4.9
292.339	4.88
292.796	4.86
293.252	4.85
293.709	4.83
294.166	4.82
294.623	4.8
295.079	4.78
295.536	4.77
295.992	4.76
296.449	4.75
296.905	4.73
297.362	4.72
297.818	4.7
298.274	4.69
298.731	4.68
299.187	4.66
299.643	4.65
300.099	4.64
300.555	4.63
301.011	4.61
301.467	4.61
301.923	4.59
302.379	4.58
302.835	4.57
303.291	4.56
303.746	4.55
304.202	4.54
304.658	4.54
305.113	4.53
305.569	4.52
306.024	4.51
306.479	4.49
306.935	4.49
307.39	4.48
307.845	4.48
308.301	4.47
308.756	4.46
309.211	4.45
309.666	4.45
310.121	4.45
310.576	4.44
311.031	4.44
311.486	4.44
311.94	4.44
312.395	4.43
312.85	4.43
313.305	4.42
313.759	4.42
314.214	4.4
314.668	4.38
315.123	4.37
315.577	4.36
316.032	4.35
316.486	4.35
316.94	4.34
317.394	4.33
317.849	4.31
318.303	4.3
318.757	4.28
319.211	4.28
319.665	4.26
320.119	4.24
320.572	4.23
321.026	4.22
321.48	4.2
321.934	4.19
322.387	4.17
322.841	4.17
323.295	4.17
323.748	4.16
324.202	4.16
324.655	4.15
325.108	4.15
325.562	4.15
326.015	4.14
326.468	4.13
326.921	4.13
327.374	4.12
327.827	4.12
328.28	4.11
328.733	4.1
329.186	4.09
329.639	4.1
330.092	4.09
330.545	4.09
330.997	4.09
331.45	4.09
331.903	4.1
332.355	4.11
332.808	4.1
333.26	4.09
333.713	4.09
334.165	4.08
334.617	4.08
335.069	4.07
335.522	4.07
335.974	4.07
336.426	4.06
336.878	4.05
337.33	4.04
337.782	4.03
338.234	4.04
338.686	4.04
339.137	4.04
339.589	4.03
340.041	4.02
340.493	4.01
340.944	3.99
341.396	3.98
341.847	3.96
342.299	3.95
342.75	3.94
343.201	3.91
343.653	3.9
344.104	3.88
344.555	3.87
345.006	3.86
345.457	3.85
345.908	3.84
346.359	3.84
346.81	3.85
347.261	3.83
347.712	3.83
348.163	3.82
348.613	3.82
349.064	3.81
349.515	3.81
349.965	3.8
350.416	3.8
350.866	3.8
351.317	3.78
351.767	3.78
352.217	3.77
352.668	3.77
353.118	3.77
353.568	3.76
354.018	3.76
354.468	3.76
354.918	3.76
355.368	3.77
355.818	3.76
356.268	3.76
356.718	3.76
357.168	3.75
357.617	3.74
358.067	3.74
358.517	3.75
358.966	3.74
359.416	3.75
359.865	3.74
360.315	3.74
360.764	3.75
361.213	3.74
361.663	3.74
362.112	3.74
362.561	3.75
363.01	3.74
363.459	3.73
363.908	3.73
364.357	3.73
364.806	3.72
365.255	3.72
365.703	3.72
366.152	3.72
366.601	3.72
367.05	3.71
367.498	3.71
367.947	3.71
368.395	3.71
368.844	3.7
369.292	3.69
369.74	3.69
370.189	3.68
370.637	3.67
371.085	3.65
371.533	3.65
371.981	3.65
372.429	3.65
372.877	3.64
373.325	3.63
373.773	3.62
374.221	3.6
374.669	3.59
375.116	3.58
375.564	3.57
376.012	3.57
376.459	3.56
376.907	3.56
377.354	3.55
377.801	3.55
378.249	3.55
378.696	3.55
379.143	3.55
379.591	3.56
380.038	3.55
380.485	3.54
380.932	3.54
381.379	3.54
381.826	3.53
382.273	3.52
382.72	3.5
383.166	3.5
383.613	3.49
384.06	3.48
384.506	3.47
384.953	3.47
385.4	3.46
385.846	3.46
386.292	3.45
386.739	3.45
387.185	3.44
387.631	3.45
388.078	3.44
388.524	3.43
388.97	3.43
389.416	3.43
389.862	3.43
390.308	3.43
390.754	3.44
391.2	3.45
391.645	3.45
392.091	3.46
392.537	3.46
392.983	3.46
393.428	3.47
393.874	3.47
394.319	3.47
394.765	3.46
395.21	3.47
395.655	3.46
396.101	3.46
396.546	3.47
396.991	3.48
397.436	3.49
397.881	3.49
398.326	3.5
398.771	3.51
399.216	3.52
399.661	3.53
400.106	3.54
400.551	3.54
400.995	3.55
401.44	3.54
401.885	3.54
402.329	3.54
402.774	3.55
403.218	3.56
403.663	3.57
404.107	3.58
404.551	3.59
404.995	3.58
405.44	3.58
405.884	3.59
406.328	3.6
406.772	3.61
407.216	3.61
407.66	3.61
408.104	3.61
408.547	3.62
408.991	3.62
409.435	3.63
409.879	3.64
410.322	3.67
410.766	3.68
411.209	3.7
411.653	3.72
412.096	3.73
412.54	3.75
412.983	3.75
413.426	3.78
413.869	3.79
414.312	3.82
414.756	3.83
415.199	3.83
415.642	3.83
416.085	3.83
416.527	3.82
416.97	3.83
417.413	3.82
417.856	3.82
418.298	3.81
418.741	3.81
419.184	3.8
419.626	3.8
420.069	3.8
420.511	3.8
420.953	3.81
421.396	3.83
421.838	3.83
422.28	3.85
422.722	3.87
423.164	3.88
423.606	3.89
424.048	3.9
424.49	3.9
424.932	3.9
425.374	3.89
425.816	3.88
426.258	3.86
426.699	3.85
427.141	3.83
427.582	3.84
428.024	3.84
428.465	3.84
428.907	3.84
429.348	3.83
429.789	3.83
430.231	3.85
430.672	3.87
431.113	3.89
431.554	3.9
431.995	3.91
432.436	3.9
432.877	3.92
433.318	3.92
433.759	3.94
434.2	3.97
434.64	3.98
435.081	3.98
435.522	4
435.962	4.01
436.403	4.03
436.843	4.05
437.284	4.06
437.724	4.05
438.164	4.05
438.604	4.05
439.045	4.06
439.485	4.05
439.925	4.05
440.365	4.05
440.805	4.04
441.245	4.04
441.685	4.05
442.125	4.07
442.564	4.06
443.004	4.06
443.444	4.05
443.883	4.04
444.323	4.04
444.762	4.04
445.202	4.05
445.641	4.07
446.081	4.05
446.52	4.04
446.959	4.04
447.398	4.06
447.837	4.07
448.276	4.08
448.716	4.09
449.154	4.09
449.593	4.11
450.032	4.11
450.471	4.09
450.91	4.1
451.349	4.1
451.787	4.08
452.226	4.06
452.664	4.05
453.103	4.03
453.541	4.02
453.98	4.02
454.418	4
454.856	3.98
455.295	3.97
455.733	3.95
456.171	3.93
456.609	3.93
457.047	3.92
457.485	3.91
457.923	3.91
458.361	3.9
458.798	3.9
459.236	3.9
459.674	3.89
460.111	3.89
460.549	3.92
460.987	3.93
461.424	3.93
461.862	3.94
462.299	3.95
462.736	3.96
463.173	3.96
463.611	3.97
464.048	3.98
464.485	3.99
464.922	3.99
465.359	3.98
465.796	3.99
466.233	3.99
466.67	4
467.106	4
467.543	4
467.98	3.98
468.416	3.97
468.853	3.98
469.29	3.96
469.726	3.96
470.162	3.94
470.599	3.93
471.035	3.93
471.471	3.93
471.907	3.91
472.344	3.91
472.78	3.91
473.216	3.89
473.652	3.89
474.088	3.88
474.523	3.89
474.959	3.89
475.395	3.87
475.831	3.85
476.266	3.85
476.702	3.83
477.138	3.82
477.573	3.82
478.008	3.82
478.444	3.8
478.879	3.8
479.314	3.79
479.75	3.77
480.185	3.76
480.62	3.75
481.055	3.74
481.49	3.73
481.925	3.72
482.36	3.72
482.795	3.7
483.229	3.7
483.664	3.69
484.099	3.68
484.534	3.68
484.968	3.68
485.403	3.68
485.837	3.68
486.271	3.69
486.706	3.69
487.14	3.69
487.574	3.71
488.009	3.72
488.443	3.72
488.877	3.74
489.311	3.75
489.745	3.76
490.179	3.79
490.613	3.81
491.046	3.82
491.48	3.84
491.914	3.87
492.348	3.9
492.781	3.92
493.215	3.95
493.648	3.99
494.082	4.02
494.515	4.05
494.948	4.08
495.382	4.12
495.815	4.16
496.248	4.21
496.681	4.25
497.114	4.3
497.547	4.35
497.98	4.4
498.413	4.46
498.846	4.53
499.279	4.59
499.711	4.66
500.144	4.74
500.577	4.82
501.009	4.9
501.442	4.99
501.874	5.08
502.306	5.17
502.739	5.28
503.171	5.38
503.603	5.48
504.036	5.6
504.468	5.71
504.9	5.83
505.332	5.96
505.764	6.09
506.196	6.22
506.627	6.37
507.059	6.53
507.491	6.68
507.923	6.85
508.354	7.02
508.786	7.21
509.217	7.39
509.649	7.59
510.08	7.79
510.512	8
510.943	8.21
511.374	8.41
511.805	8.63
512.237	8.84
512.668	9.07
513.099	9.3
513.53	9.53
513.961	9.77
514.391	10.01
514.822	10.25
515.253	10.5
515.684	10.75
516.114	11.01
516.545	11.26
516.975	11.52
517.406	11.77
517.836	12.04
518.267	12.32
518.697	12.59
519.127	12.85
519.558	13.11
519.988	13.38
520.418	13.62
520.848	13.88
521.278	14.15
521.708	14.46
522.138	14.72
522.567	14.96
522.997	15.18
523.427	15.41
523.857	15.63
524.286	15.84
524.716	16.05
525.145	16.27
525.575	16.47
526.004	16.67
526.433	16.79
526.863	16.99
527.292	17.18
527.721	17.35
528.15	17.52
528.579	17.68
529.008	17.84
529.437	17.98
529.866	18.12
530.295	18.26
530.724	18.38
531.152	18.51
531.581	18.62
532.01	18.72
532.438	18.83
532.867	18.93
533.295	19.04
533.723	19.13
534.152	19.21
534.58	19.29
535.008	19.35
535.436	19.44
535.865	19.5
536.293	19.56
536.721	19.61
537.149	19.66
537.576	19.7
538.004	19.74
538.432	19.78
538.86	19.82
539.287	19.86
539.715	19.91
540.143	19.93
540.57	19.96
540.998	19.98
541.425	20.01
541.852	20.05
542.28	20.08
542.707	20.1
543.134	20.12
543.561	20.15
543.988	20.18
544.415	20.21
544.842	20.23
545.269	20.25
545.696	20.28
546.123	20.3
546.549	20.32
546.976	20.34
547.403	20.37
547.829	20.39
548.256	20.4
548.682	20.42
549.108	20.43
549.535	20.45
549.961	20.46
550.387	20.46
550.813	20.46
551.24	20.46
551.666	20.44
552.092	20.43
552.518	20.43
552.943	20.41
553.369	20.39
553.795	20.37
554.221	20.34
554.646	20.3
555.072	20.26
555.498	20.22
555.923	20.17
556.349	20.12
556.774	20.05
557.199	19.99
557.625	19.92
558.05	19.83
558.475	19.74
558.9	19.66
559.325	19.59
559.75	19.5
560.175	19.41
560.6	19.31
561.025	19.21
561.449	19.1
561.874	18.98
562.299	18.87
562.723	18.76
563.148	18.63
563.572	18.49
563.997	18.34
564.421	18.19
564.846	18.05
565.27	17.9
565.694	17.78
566.118	17.64
566.542	17.5
566.966	17.34
567.39	17.19
567.814	17.04
568.238	16.91
568.662	16.77
569.086	16.62
569.509	16.48
569.933	16.34
570.357	16.17
570.78	16.02
571.204	15.88
571.627	15.75
572.05	15.61
572.474	15.5
572.897	15.36
573.32	15.23
573.743	15.1
574.166	14.99
574.589	14.86
575.012	14.75
575.435	14.64
575.858	14.54
576.281	14.43
576.704	14.33
577.126	14.23
577.549	14.13
577.972	14.04
578.394	13.95
578.817	13.86
579.239	13.78
579.661	13.69
580.084	13.61
580.506	13.53
580.928	13.44
581.35	13.37
581.772	13.29
582.194	13.22
582.616	13.15
583.038	13.09
583.46	13.01
583.882	12.93
584.303	12.87
584.725	12.79
585.147	12.74
585.568	12.7
585.99	12.63
586.411	12.57
586.833	12.5
587.254	12.42
587.675	12.36
588.096	12.31
588.518	12.27
588.939	12.23
589.36	12.18
589.781	12.12
590.202	12.08
590.623	12.04
591.043	12.01
591.464	11.98
591.885	11.95
592.305	11.92
592.726	11.9
593.147	11.86
593.567	11.82
593.987	11.79
594.408	11.75
594.828	11.71
595.248	11.68
595.669	11.66
596.089	11.63
596.509	11.6
596.929	11.58
597.349	11.54
597.769	11.51
598.189	11.48
598.608	11.47
599.028	11.44
599.448	11.4
599.867	11.36
600.287	11.32
600.706	11.29
601.126	11.25
601.545	11.21
601.965	11.17
602.384	11.13
602.803	11.08
603.222	11.03
603.641	10.97
604.061	10.93
604.48	10.88
604.898	10.83
605.317	10.76
605.736	10.71
606.155	10.64
606.574	10.57
606.992	10.51
607.411	10.44
607.829	10.34
608.248	10.27
608.666	10.2
609.085	10.12
609.503	10.06
609.921	9.99
610.339	9.92
610.758	9.86
611.176	9.79
611.594	9.72
612.012	9.65
612.43	9.61
612.847	9.55
613.265	9.47
613.683	9.42
614.101	9.35
614.518	9.29
614.936	9.22
615.353	9.15
615.771	9.09
616.188	9.03
616.606	8.97
617.023	8.91
617.44	8.87
617.857	8.82
618.274	8.76
618.691	8.72
619.108	8.67
619.525	8.64
619.942	8.61
620.359	8.59
620.776	8.56
621.192	8.53
621.609	8.52
622.026	8.48
622.442	8.45
622.859	8.43
623.275	8.4
623.691	8.39
624.108	8.36
624.524	8.34
624.94	8.32
625.356	8.31
625.772	8.3
626.188	8.29
626.604	8.28
627.02	8.28
627.436	8.28
627.852	8.27
628.268	8.26
628.683	8.26
629.099	8.25
629.514	8.24
629.93	8.23
630.345	8.21
630.761	8.18
631.176	8.16
631.591	8.13
632.007	8.09
632.422	8.06
632.837	8.01
633.252	7.96
633.667	7.91
634.082	7.85
634.497	7.79
634.911	7.73
635.326	7.67
635.741	7.6
636.155	7.53
636.57	7.47
636.984	7.39
637.399	7.32
637.813	7.24
638.228	7.14
638.642	7.06
639.056	6.96
639.47	6.88
639.884	6.79
640.298	6.69
640.712	6.61
641.126	6.51
641.54	6.42
641.954	6.32
642.368	6.23
642.781	6.16
643.195	6.08
643.609	6
644.022	5.92
644.436	5.85
644.849	5.78
645.262	5.71
645.676	5.63
646.089	5.58
646.502	5.52
646.915	5.47
647.328	5.41
647.741	5.36
648.154	5.32
648.567	5.28
648.98	5.23
649.393	5.2
649.805	5.17
650.218	5.14
650.631	5.11
651.043	5.08
651.456	5.06
651.868	5.02
652.28	4.99
652.693	4.98
653.105	4.94
653.517	4.91
653.929	4.88
654.341	4.84
654.753	4.81
655.165	4.78
655.577	4.74
655.989	4.7
656.401	4.66
656.813	4.62
657.224	4.56
657.636	4.51
658.047	4.45
658.459	4.4
658.87	4.34
659.282	4.28
659.693	4.23
660.104	4.17
660.515	4.11
660.926	4.05
661.338	4
661.749	3.96
662.159	3.92
662.57	3.87
662.981	3.83
663.392	3.79
663.803	3.75
664.213	3.72
664.624	3.68
665.035	3.66
665.445	3.64
665.855	3.61
666.266	3.59
666.676	3.59
667.086	3.58
667.497	3.57
667.907	3.57
668.317	3.57
668.727	3.56
669.137	3.56
669.547	3.56
669.956	3.56
670.366	3.56
670.776	3.56
671.186	3.55
671.595	3.56
672.005	3.55
672.414	3.55
672.824	3.56
673.233	3.56
673.642	3.58
674.052	3.59
674.461	3.59
674.87	3.61
675.279	3.63
675.688	3.65
676.097	3.67
676.506	3.7
676.915	3.73
677.323	3.76
677.732	3.79
678.141	3.82
678.549	3.84
678.958	3.89
679.366	3.93
679.775	3.96
680.183	4.01
680.592	4.06
681	4.11
681.408	4.16
681.816	4.21
682.224	4.29
682.632	4.36
683.04	4.43
683.448	4.52
683.856	4.61
684.264	4.72
684.671	4.84
685.079	4.97
685.487	5.12
685.894	5.28
686.302	5.47
686.709	5.68
687.116	5.9
687.524	6.15
687.931	6.43
688.338	6.73
688.745	7.04
689.152	7.38
689.559	7.74
689.966	8.13
690.373	8.54
690.78	8.97
691.187	9.42
691.593	9.88
692	10.36
692.407	10.84
692.813	11.35
693.22	11.87
693.626	12.4
694.032	12.94
694.439	13.49
694.845	14.04
695.251	14.58
695.657	15.13
696.063	15.7
696.469	16.26
696.875	16.82
697.281	17.39
697.687	17.95
698.093	18.51
698.498	19.06
698.904	19.61
699.31	20.13
699.715	20.68
700.12	21.23
700.526	21.74
700.931	22.27
701.337	22.8
701.742	23.29
702.147	23.79
702.552	24.28
702.957	24.75
703.362	25.22
703.767	25.7
704.172	26.16
704.577	26.6
704.981	27.07
705.386	27.51
705.791	27.93
706.195	28.37
706.6	28.8
707.004	29.24
707.408	29.67
707.813	30.09
708.217	30.5
708.621	30.9
709.025	31.28
709.43	31.65
709.834	32.04
710.237	32.42
710.641	32.78
711.045	33.14
711.449	33.48
711.853	33.83
712.256	34.16
712.66	34.5
713.064	34.82
713.467	35.16
713.87	35.49
714.274	35.79
714.677	36.11
715.08	36.4
715.484	36.7
715.887	37
716.29	37.28
716.693	37.59
717.096	37.87
717.499	38.19
717.901	38.47
718.304	38.74
718.707	39.01
719.109	39.26
719.512	39.52
719.915	39.79
720.317	40.03
720.719	40.26
721.122	40.46
721.524	40.68
721.926	40.88
722.328	41.11
722.731	41.29
723.133	41.49
723.535	41.67
723.937	41.87
724.338	42.03
724.74	42.22
725.142	42.48
725.544	42.65
725.945	42.86
726.347	42.99
726.748	43.12
727.15	43.28
727.551	43.42
727.952	43.57
728.354	43.71
728.755	43.83
729.156	43.94
729.557	43.98
729.958	44.08
730.359	44.16
730.76	44.29
731.161	44.39
731.562	44.5
731.962	44.6
732.363	44.72
732.763	44.8
733.164	44.88
733.564	44.98
733.965	45.07
734.365	45.17
734.766	45.25
735.166	45.33
735.566	45.38
735.966	45.46
736.366	45.52
736.766	45.57
737.166	45.63
737.566	45.71
737.966	45.75
738.365	45.81
738.765	45.85
739.165	45.9
739.564	45.95
739.964	46.01
740.363	46.01
740.763	46.06
741.162	46.1
741.561	46.12
741.96	46.15
742.36	46.19
742.759	46.22
743.158	46.25
743.557	46.26
743.955	46.29
744.354	46.32
744.753	46.38
745.152	46.41
745.55	46.44
745.949	46.48
746.348	46.51
746.746	46.53
747.144	46.56
747.543	46.56
747.941	46.58
748.339	46.59
748.737	46.59
749.136	46.59
749.534	46.59
749.932	46.61
750.33	46.62
750.727	46.62
751.125	46.63
751.523	46.63
751.921	46.68
752.318	46.68
752.716	46.72
753.113	46.75
753.511	46.77
753.908	46.81
754.305	46.84
754.703	46.85
755.1	46.87
755.497	46.89
755.894	46.9
756.291	46.89
756.688	46.9
757.085	46.91
757.482	46.92
757.878	46.92
758.275	46.89
758.672	46.88
759.068	46.91
759.465	46.88
759.861	46.88
760.258	46.9
760.654	46.9
761.05	46.92
761.447	46.91
761.843	46.92
762.239	46.94
762.635	46.95
763.031	46.95
763.427	46.92
763.822	46.93
764.218	46.96
764.614	46.96
765.01	46.95
765.405	46.94
765.801	46.9
766.196	46.88
766.592	46.85
766.987	46.86
767.382	46.85
767.778	46.84
768.173	46.84
768.568	46.79
768.963	46.76
769.358	46.79
769.753	46.8
770.148	46.82
770.542	46.83
770.937	46.86
771.332	46.84
771.726	46.85
772.121	46.84
772.515	46.85
772.91	46.86
773.304	46.88
773.699	46.86
774.093	46.87
774.487	46.87
774.881	46.88
775.275	46.88
775.669	46.87
776.063	46.86
776.457	46.89
776.851	46.86
777.245	46.83
777.638	46.83
778.032	46.84
778.425	46.84
778.819	46.83
779.212	46.84
779.606	46.82
779.999	46.81
780.392	46.84
780.786	46.83
781.179	46.87
781.572	46.93
781.965	46.9
782.358	46.88
782.751	46.88
783.143	46.88
783.536	46.87
783.929	46.87
784.322	46.89
