Data from N_2_DEC_ON_6N_Splice17_13-15-03-015.txt Node
Date: Sat Mar 07 13:15:03 EST 2020
User: sa697716
Spectrometer: NQ5500242
Trigger mode: 0
Integration Time (sec): 1.450000E-1
Scans to average: 20
Nonlinearity correction enabled: false
Boxcar width: 5
Storing dark spectrum: false
XAxis mode: Wavelengths
Number of Pixels in Spectrum: 512
>>>>>Begin Spectral Data<<<<<
187.83	106.56
188.298	115.64
188.766	89.56
189.233	84
189.701	83.97
190.169	86.05
190.636	97.56
191.104	154.29
191.571	86.58
192.039	-138.07
192.506	-435.88
192.974	184.17
193.441	316.19
193.908	81.67
194.375	114.84
194.842	37.4
195.31	58.68
195.777	211.06
196.244	63.7
196.711	49.54
197.177	48.59
197.644	46.69
198.111	46.83
198.578	47.03
199.045	47.28
199.511	46.78
199.978	47.49
200.445	47.74
200.911	47.95
201.378	48
201.844	48.15
202.31	47.97
202.777	48.2
203.243	48.32
203.709	48.22
204.176	48.12
204.642	48.33
205.108	48.41
205.574	48.2
206.04	47.7
206.506	47.47
206.972	47.35
207.438	47.41
207.903	47.14
208.369	46.4
208.835	45.72
209.301	45.19
209.766	44.23
210.232	43.37
210.697	42.51
211.163	42.01
211.628	41.28
212.094	40.53
212.559	39.89
213.024	39.17
213.49	38.85
213.955	38.33
214.42	37.78
214.885	37.4
215.35	36.71
215.815	35.75
216.28	34.23
216.745	32.98
217.21	31.71
217.675	30.45
218.14	29.46
218.604	28.59
219.069	27.84
219.534	27.26
219.998	26.69
220.463	26.22
220.927	25.81
221.392	25.54
221.856	25.2
222.32	24.93
222.785	24.68
223.249	24.44
223.713	24.16
224.177	23.96
224.642	23.73
225.106	23.46
225.57	23.18
226.034	22.98
226.497	22.77
226.961	22.59
227.425	22.37
227.889	22.15
228.353	21.93
228.816	21.73
229.28	21.51
229.744	21.29
230.207	21.08
230.671	20.9
231.134	20.69
231.597	20.5
232.061	20.3
232.524	20.1
232.987	19.93
233.45	19.76
233.914	19.58
234.377	19.39
234.84	19.22
235.303	19.06
235.766	18.9
236.229	18.76
236.691	18.58
237.154	18.43
237.617	18.29
238.08	18.14
238.542	17.99
239.005	17.86
239.468	17.7
239.93	17.57
240.393	17.44
240.855	17.29
241.317	17.14
241.78	17
242.242	16.86
242.704	16.74
243.166	16.62
243.629	16.5
244.091	16.36
244.553	16.25
245.015	16.13
245.477	16.02
245.939	15.91
246.4	15.79
246.862	15.68
247.324	15.58
247.786	15.46
248.247	15.33
248.709	15.22
249.17	15.11
249.632	15.01
250.093	14.91
250.555	14.83
251.016	14.73
251.477	14.64
251.939	14.55
252.4	14.47
252.861	14.38
253.322	14.29
253.783	14.21
254.244	14.13
254.705	14.05
255.166	13.96
255.627	13.86
256.088	13.79
256.549	13.68
257.009	13.59
257.47	13.5
257.931	13.4
258.391	13.33
258.852	13.24
259.312	13.16
259.773	13.07
260.233	13
260.694	12.91
261.154	12.83
261.614	12.77
262.074	12.7
262.534	12.63
262.994	12.58
263.455	12.52
263.915	12.46
264.374	12.41
264.834	12.38
265.294	12.33
265.754	12.3
266.214	12.26
266.673	12.22
267.133	12.19
267.593	12.15
268.052	12.12
268.512	12.08
268.971	12.04
269.431	12.01
269.89	11.96
270.349	11.93
270.809	11.88
271.268	11.84
271.727	11.8
272.186	11.76
272.645	11.73
273.104	11.68
273.563	11.65
274.022	11.6
274.481	11.57
274.94	11.52
275.399	11.48
275.857	11.45
276.316	11.41
276.775	11.38
277.233	11.34
277.692	11.29
278.15	11.25
278.609	11.22
279.067	11.18
279.525	11.14
279.984	11.1
280.442	11.07
280.9	11.04
281.358	11
281.816	10.96
282.274	10.93
282.732	10.9
283.19	10.87
283.648	10.83
284.106	10.79
284.564	10.76
285.021	10.73
285.479	10.69
285.937	10.65
286.394	10.63
286.852	10.6
287.309	10.56
287.767	10.53
288.224	10.5
288.682	10.46
289.139	10.43
289.596	10.4
290.053	10.37
290.511	10.33
290.968	10.3
291.425	10.28
291.882	10.26
292.339	10.23
292.796	10.21
293.252	10.2
293.709	10.18
294.166	10.16
294.623	10.14
295.079	10.12
295.536	10.12
295.992	10.11
296.449	10.09
296.905	10.08
297.362	10.07
297.818	10.05
298.274	10.04
298.731	10.02
299.187	10.01
299.643	9.99
300.099	9.97
300.555	9.95
301.011	9.93
301.467	9.92
301.923	9.91
302.379	9.88
302.835	9.87
303.291	9.86
303.746	9.86
304.202	9.85
304.658	9.85
305.113	9.84
305.569	9.82
306.024	9.81
306.479	9.79
306.935	9.78
307.39	9.78
307.845	9.77
308.301	9.77
308.756	9.76
309.211	9.75
309.666	9.75
310.121	9.75
310.576	9.76
311.031	9.76
311.486	9.76
311.94	9.77
312.395	9.76
312.85	9.77
313.305	9.76
313.759	9.75
314.214	9.76
314.668	9.74
315.123	9.74
315.577	9.72
316.032	9.71
316.486	9.7
316.94	9.69
317.394	9.66
317.849	9.64
318.303	9.62
318.757	9.6
319.211	9.59
319.665	9.59
320.119	9.57
320.572	9.56
321.026	9.55
321.48	9.54
321.934	9.52
322.387	9.52
322.841	9.51
323.295	9.5
323.748	9.49
324.202	9.48
324.655	9.46
325.108	9.45
325.562	9.44
326.015	9.43
326.468	9.41
326.921	9.4
327.374	9.39
327.827	9.39
328.28	9.38
328.733	9.38
329.186	9.37
329.639	9.36
330.092	9.35
330.545	9.35
330.997	9.34
331.45	9.34
331.903	9.34
332.355	9.34
332.808	9.33
333.26	9.33
333.713	9.32
334.165	9.31
334.617	9.31
335.069	9.3
335.522	9.3
335.974	9.3
336.426	9.29
336.878	9.28
337.33	9.27
337.782	9.27
338.234	9.26
338.686	9.26
339.137	9.26
339.589	9.25
340.041	9.24
340.493	9.23
340.944	9.22
341.396	9.21
341.847	9.2
342.299	9.18
342.75	9.17
343.201	9.15
343.653	9.13
344.104	9.11
344.555	9.1
345.006	9.08
345.457	9.07
345.908	9.06
346.359	9.05
346.81	9.05
347.261	9.04
347.712	9.04
348.163	9.03
348.613	9.03
349.064	9.04
349.515	9.04
349.965	9.05
350.416	9.04
350.866	9.04
351.317	9.03
351.767	9.03
352.217	9.03
352.668	9.03
353.118	9.04
353.568	9.04
354.018	9.05
354.468	9.05
354.918	9.06
355.368	9.08
355.818	9.09
356.268	9.09
356.718	9.1
357.168	9.1
357.617	9.11
358.067	9.1
358.517	9.12
358.966	9.12
359.416	9.14
359.865	9.13
360.315	9.14
360.764	9.15
361.213	9.15
361.663	9.15
362.112	9.17
362.561	9.18
363.01	9.18
363.459	9.16
363.908	9.16
364.357	9.16
364.806	9.17
365.255	9.17
365.703	9.18
366.152	9.19
366.601	9.2
367.05	9.2
367.498	9.2
367.947	9.21
368.395	9.22
368.844	9.23
369.292	9.22
369.74	9.23
370.189	9.23
370.637	9.23
371.085	9.22
371.533	9.22
371.981	9.23
372.429	9.25
372.877	9.26
373.325	9.28
373.773	9.29
374.221	9.3
374.669	9.32
375.116	9.32
375.564	9.33
376.012	9.36
376.459	9.38
376.907	9.41
377.354	9.42
377.801	9.44
378.249	9.46
378.696	9.47
379.143	9.5
379.591	9.52
380.038	9.55
380.485	9.57
380.932	9.58
381.379	9.6
381.826	9.62
382.273	9.63
382.72	9.64
383.166	9.65
383.613	9.66
384.06	9.67
384.506	9.69
384.953	9.72
385.4	9.75
385.846	9.78
386.292	9.79
386.739	9.8
387.185	9.83
387.631	9.85
388.078	9.88
388.524	9.91
388.97	9.94
389.416	9.97
389.862	9.99
390.308	10.02
390.754	10.05
391.2	10.09
391.645	10.13
392.091	10.17
392.537	10.2
392.983	10.22
393.428	10.25
393.874	10.27
394.319	10.3
394.765	10.32
395.21	10.33
395.655	10.36
396.101	10.39
396.546	10.4
396.991	10.42
397.436	10.45
397.881	10.48
398.326	10.5
398.771	10.53
399.216	10.55
399.661	10.58
400.106	10.59
400.551	10.61
400.995	10.61
401.44	10.61
401.885	10.62
402.329	10.63
402.774	10.64
403.218	10.66
403.663	10.68
404.107	10.68
404.551	10.7
404.995	10.71
405.44	10.72
405.884	10.72
406.328	10.73
406.772	10.74
407.216	10.75
407.66	10.76
408.104	10.75
408.547	10.74
408.991	10.76
409.435	10.75
409.879	10.76
410.322	10.77
410.766	10.79
411.209	10.82
411.653	10.83
412.096	10.84
412.54	10.84
412.983	10.85
413.426	10.89
413.869	10.91
414.312	10.94
414.756	10.95
415.199	10.96
415.642	10.96
416.085	10.95
416.527	10.94
416.97	10.93
417.413	10.93
417.856	10.94
418.298	10.92
418.741	10.9
419.184	10.88
419.626	10.86
420.069	10.87
420.511	10.88
420.953	10.87
421.396	10.88
421.838	10.89
422.28	10.89
422.722	10.9
423.164	10.9
423.606	10.89
424.048	10.9
424.49	10.9
424.932	10.89
425.374	10.86
425.816	10.83
426.258	10.81
426.699	10.78
427.141	10.78
427.582	10.79
428.024	10.79
428.465	10.79
428.907	10.78
429.348	10.77
429.789	10.77
430.231	10.81
430.672	10.83
431.113	10.85
431.554	10.86
431.995	10.87
432.436	10.85
432.877	10.87
433.318	10.88
433.759	10.89
434.2	10.91
434.64	10.91
435.081	10.91
435.522	10.92
435.962	10.95
436.403	10.97
436.843	10.98
437.284	10.99
437.724	10.98
438.164	10.98
438.604	11
439.045	10.97
439.485	10.99
439.925	10.99
440.365	10.98
440.805	10.98
441.245	10.97
441.685	10.99
442.125	11.02
442.564	11.04
443.004	11.05
443.444	11.06
443.883	11.11
444.323	11.11
444.762	11.14
445.202	11.18
445.641	11.22
446.081	11.24
446.52	11.24
446.959	11.26
447.398	11.29
447.837	11.31
448.276	11.34
448.716	11.38
449.154	11.42
449.593	11.45
450.032	11.48
450.471	11.49
450.91	11.49
451.349	11.53
451.787	11.52
452.226	11.53
452.664	11.54
453.103	11.53
453.541	11.52
453.98	11.52
454.418	11.51
454.856	11.5
455.295	11.47
455.733	11.47
456.171	11.47
456.609	11.48
457.047	11.46
457.485	11.44
457.923	11.44
458.361	11.43
458.798	11.43
459.236	11.42
459.674	11.43
460.111	11.43
460.549	11.45
460.987	11.45
461.424	11.45
461.862	11.45
462.299	11.46
462.736	11.46
463.173	11.45
463.611	11.45
464.048	11.44
464.485	11.42
464.922	11.42
465.359	11.42
465.796	11.41
466.233	11.39
466.67	11.38
467.106	11.4
467.543	11.39
467.98	11.4
468.416	11.39
468.853	11.38
469.29	11.39
469.726	11.39
470.162	11.39
470.599	11.38
471.035	11.39
471.471	11.4
471.907	11.39
472.344	11.41
472.78	11.41
473.216	11.41
473.652	11.43
474.088	11.41
474.523	11.42
474.959	11.4
475.395	11.39
475.831	11.38
476.266	11.38
476.702	11.36
477.138	11.35
477.573	11.35
478.008	11.35
478.444	11.33
478.879	11.34
479.314	11.34
479.75	11.33
480.185	11.32
480.62	11.32
481.055	11.3
481.49	11.29
481.925	11.29
482.36	11.29
482.795	11.29
483.229	11.29
483.664	11.29
484.099	11.28
484.534	11.29
484.968	11.31
485.403	11.32
485.837	11.34
486.271	11.36
486.706	11.37
487.14	11.38
487.574	11.4
488.009	11.43
488.443	11.45
488.877	11.49
489.311	11.52
489.745	11.55
490.179	11.6
490.613	11.65
491.046	11.7
491.48	11.74
491.914	11.8
492.348	11.85
492.781	11.9
493.215	11.97
493.648	12.02
494.082	12.08
494.515	12.14
494.948	12.21
495.382	12.27
495.815	12.35
496.248	12.43
496.681	12.51
497.114	12.61
497.547	12.69
497.98	12.8
498.413	12.89
498.846	12.99
499.279	13.1
499.711	13.22
500.144	13.35
500.577	13.47
501.009	13.58
501.442	13.71
501.874	13.84
502.306	13.98
502.739	14.14
503.171	14.3
503.603	14.46
504.036	14.62
504.468	14.78
504.9	14.94
505.332	15.13
505.764	15.32
506.196	15.51
506.627	15.71
507.059	15.91
507.491	16.11
507.923	16.33
508.354	16.56
508.786	16.8
509.217	17.05
509.649	17.29
510.08	17.53
510.512	17.79
510.943	18.05
511.374	18.31
511.805	18.58
512.237	18.83
512.668	19.09
513.099	19.35
513.53	19.62
513.961	19.9
514.391	20.18
514.822	20.48
515.253	20.76
515.684	21.05
516.114	21.35
516.545	21.62
516.975	21.93
517.406	22.22
517.836	22.5
518.267	22.79
518.697	23.07
519.127	23.33
519.558	23.6
519.988	23.88
520.418	24.14
520.848	24.39
521.278	24.65
521.708	24.97
522.138	25.21
522.567	25.46
522.997	25.68
523.427	25.92
523.857	26.15
524.286	26.36
524.716	26.56
525.145	26.76
525.575	26.96
526.004	27.16
526.433	27.26
526.863	27.45
527.292	27.63
527.721	27.78
528.15	27.94
528.579	28.08
529.008	28.24
529.437	28.37
529.866	28.48
530.295	28.61
530.724	28.75
531.152	28.88
531.581	28.99
532.01	29.09
532.438	29.21
532.867	29.31
533.295	29.38
533.723	29.46
534.152	29.54
534.58	29.63
535.008	29.68
535.436	29.74
535.865	29.79
536.293	29.83
536.721	29.88
537.149	29.92
537.576	29.97
538.004	30.04
538.432	30.1
538.86	30.13
539.287	30.17
539.715	30.21
540.143	30.23
540.57	30.25
540.998	30.28
541.425	30.3
541.852	30.32
542.28	30.35
542.707	30.35
543.134	30.36
543.561	30.39
543.988	30.42
544.415	30.44
544.842	30.45
545.269	30.49
545.696	30.51
546.123	30.52
546.549	30.54
546.976	30.57
547.403	30.57
547.829	30.58
548.256	30.61
548.682	30.6
549.108	30.63
549.535	30.66
549.961	30.66
550.387	30.66
550.813	30.67
551.24	30.66
551.666	30.63
552.092	30.62
552.518	30.62
552.943	30.59
553.369	30.6
553.795	30.55
554.221	30.51
554.646	30.47
555.072	30.42
555.498	30.38
555.923	30.34
556.349	30.29
556.774	30.23
557.199	30.15
557.625	30.1
558.05	30.02
558.475	29.96
558.9	29.88
559.325	29.83
559.75	29.75
560.175	29.67
560.6	29.58
561.025	29.51
561.449	29.42
561.874	29.34
562.299	29.23
562.723	29.12
563.148	29
563.572	28.88
563.997	28.75
564.421	28.63
564.846	28.52
565.27	28.38
565.694	28.24
566.118	28.09
566.542	27.95
566.966	27.81
567.39	27.68
567.814	27.53
568.238	27.39
568.662	27.26
569.086	27.12
569.509	26.98
569.933	26.84
570.357	26.69
570.78	26.55
571.204	26.41
571.627	26.27
572.05	26.13
572.474	26.02
572.897	25.9
573.32	25.77
573.743	25.63
574.166	25.51
574.589	25.39
575.012	25.28
575.435	25.18
575.858	25.06
576.281	24.95
576.704	24.84
577.126	24.72
577.549	24.61
577.972	24.5
578.394	24.41
578.817	24.31
579.239	24.2
579.661	24.11
580.084	24.01
580.506	23.93
580.928	23.85
581.35	23.76
581.772	23.68
582.194	23.6
582.616	23.53
583.038	23.43
583.46	23.35
583.882	23.28
584.303	23.21
584.725	23.12
585.147	23.06
585.568	22.98
585.99	22.9
586.411	22.82
586.833	22.76
587.254	22.68
587.675	22.61
588.096	22.55
588.518	22.5
588.939	22.44
589.36	22.39
589.781	22.33
590.202	22.29
590.623	22.26
591.043	22.22
591.464	22.17
591.885	22.13
592.305	22.1
592.726	22.07
593.147	22.05
593.567	22.01
593.987	22
594.408	21.96
594.828	21.92
595.248	21.9
595.669	21.88
596.089	21.85
596.509	21.83
596.929	21.8
597.349	21.77
597.769	21.74
598.189	21.69
598.608	21.66
599.028	21.63
599.448	21.59
599.867	21.54
600.287	21.52
600.706	21.47
601.126	21.44
601.545	21.41
601.965	21.36
602.384	21.31
602.803	21.27
603.222	21.21
603.641	21.16
604.061	21.11
604.48	21.03
604.898	20.96
605.317	20.89
605.736	20.82
606.155	20.75
606.574	20.67
606.992	20.59
607.411	20.52
607.829	20.42
608.248	20.34
608.666	20.25
609.085	20.19
609.503	20.11
609.921	20.04
610.339	19.94
610.758	19.86
611.176	19.78
611.594	19.7
612.012	19.61
612.43	19.55
612.847	19.48
613.265	19.4
613.683	19.32
614.101	19.24
614.518	19.16
614.936	19.09
615.353	19
615.771	18.94
616.188	18.86
616.606	18.8
617.023	18.73
617.44	18.67
617.857	18.62
618.274	18.56
618.691	18.5
619.108	18.44
619.525	18.38
619.942	18.34
620.359	18.3
620.776	18.25
621.192	18.22
621.609	18.19
622.026	18.16
622.442	18.13
622.859	18.1
623.275	18.08
623.691	18.05
624.108	18.04
624.524	18.01
624.94	18
625.356	17.99
625.772	17.97
626.188	17.95
626.604	17.94
627.02	17.92
627.436	17.91
627.852	17.9
628.268	17.91
628.683	17.89
629.099	17.89
629.514	17.87
629.93	17.86
630.345	17.82
630.761	17.78
631.176	17.76
631.591	17.73
632.007	17.69
632.422	17.65
632.837	17.58
633.252	17.52
633.667	17.45
634.082	17.38
634.497	17.31
634.911	17.23
635.326	17.16
635.741	17.07
636.155	16.98
636.57	16.88
636.984	16.79
637.399	16.7
637.813	16.59
638.228	16.49
638.642	16.39
639.056	16.27
639.47	16.18
639.884	16.05
640.298	15.92
640.712	15.81
641.126	15.68
641.54	15.56
641.954	15.43
642.368	15.3
642.781	15.19
643.195	15.07
643.609	14.95
644.022	14.83
644.436	14.73
644.849	14.63
645.262	14.52
645.676	14.43
646.089	14.35
646.502	14.27
646.915	14.21
647.328	14.13
647.741	14.08
648.154	14.02
648.567	13.96
648.98	13.9
649.393	13.86
649.805	13.82
650.218	13.77
650.631	13.73
651.043	13.7
651.456	13.66
651.868	13.62
652.28	13.56
652.693	13.52
653.105	13.48
653.517	13.42
653.929	13.36
654.341	13.3
654.753	13.23
655.165	13.17
655.577	13.1
655.989	13.03
656.401	12.94
656.813	12.86
657.224	12.76
657.636	12.67
658.047	12.6
658.459	12.51
658.87	12.42
659.282	12.33
659.693	12.22
660.104	12.12
660.515	12.01
660.926	11.92
661.338	11.84
661.749	11.75
662.159	11.65
662.57	11.57
662.981	11.49
663.392	11.42
663.803	11.34
664.213	11.26
664.624	11.2
665.035	11.14
665.445	11.08
665.855	11.02
666.266	10.98
666.676	10.94
667.086	10.88
667.497	10.84
667.907	10.81
668.317	10.78
668.727	10.75
669.137	10.72
669.547	10.69
669.956	10.67
670.366	10.65
670.776	10.64
671.186	10.62
671.595	10.61
672.005	10.58
672.414	10.58
672.824	10.58
673.233	10.59
673.642	10.6
674.052	10.61
674.461	10.63
674.87	10.63
675.279	10.65
675.688	10.67
676.097	10.69
676.506	10.74
676.915	10.76
677.323	10.79
677.732	10.81
678.141	10.85
678.549	10.89
678.958	10.93
679.366	10.99
679.775	11.05
680.183	11.14
680.592	11.22
681	11.31
681.408	11.41
681.816	11.53
682.224	11.66
682.632	11.8
683.04	11.94
683.448	12.12
683.856	12.3
684.264	12.48
684.671	12.68
685.079	12.91
685.487	13.16
685.894	13.44
686.302	13.73
686.709	14.03
687.116	14.37
687.524	14.74
687.931	15.11
688.338	15.51
688.745	15.94
689.152	16.38
689.559	16.84
689.966	17.33
690.373	17.82
690.78	18.34
691.187	18.87
691.593	19.4
692	19.92
692.407	20.46
692.813	21.02
693.22	21.56
693.626	22.13
694.032	22.7
694.439	23.25
694.845	23.81
695.251	24.37
695.657	24.93
696.063	25.49
696.469	26.05
696.875	26.6
697.281	27.13
697.687	27.68
698.093	28.21
698.498	28.73
698.904	29.27
699.31	29.77
699.715	30.27
700.12	30.76
700.526	31.24
700.931	31.73
701.337	32.19
701.742	32.66
702.147	33.11
702.552	33.55
702.957	33.96
703.362	34.36
703.767	34.75
704.172	35.14
704.577	35.52
704.981	35.9
705.386	36.25
705.791	36.6
706.195	36.94
706.6	37.28
707.004	37.6
707.408	37.93
707.813	38.27
708.217	38.58
708.621	38.92
709.025	39.22
709.43	39.52
709.834	39.83
710.237	40.13
710.641	40.42
711.045	40.72
711.449	41.01
711.853	41.32
712.256	41.58
712.66	41.86
713.064	42.09
713.467	42.37
713.87	42.62
714.274	42.85
714.677	43.11
715.08	43.34
715.484	43.59
715.887	43.85
716.29	44.05
716.693	44.27
717.096	44.5
717.499	44.73
717.901	44.91
718.304	45.12
718.707	45.33
719.109	45.52
719.512	45.71
719.915	45.88
720.317	46.04
720.719	46.18
721.122	46.37
721.524	46.51
721.926	46.68
722.328	46.86
722.731	47.01
723.133	47.17
723.535	47.32
723.937	47.47
724.338	47.6
724.74	47.74
725.142	48
725.544	48.09
725.945	48.23
726.347	48.33
726.748	48.43
727.15	48.54
727.551	48.66
727.952	48.74
728.354	48.83
728.755	48.91
729.156	49
729.557	48.96
729.958	49.07
730.359	49.14
730.76	49.21
731.161	49.26
731.562	49.36
731.962	49.39
732.363	49.46
732.763	49.54
733.164	49.62
733.564	49.69
733.965	49.76
734.365	49.81
734.766	49.89
735.166	49.95
735.566	50.02
735.966	50.08
736.366	50.16
736.766	50.19
737.166	50.21
737.566	50.26
737.966	50.28
738.365	50.32
738.765	50.36
739.165	50.38
739.564	50.41
739.964	50.43
740.363	50.41
740.763	50.42
741.162	50.44
741.561	50.44
741.96	50.44
742.36	50.45
742.759	50.5
743.158	50.52
743.557	50.53
743.955	50.57
744.354	50.58
744.753	50.65
745.152	50.69
745.55	50.73
745.949	50.78
746.348	50.83
746.746	50.84
747.144	50.85
747.543	50.85
747.941	50.87
748.339	50.86
748.737	50.88
749.136	50.87
749.534	50.85
749.932	50.84
750.33	50.84
750.727	50.83
751.125	50.85
751.523	50.83
751.921	50.84
752.318	50.84
752.716	50.86
753.113	50.88
753.511	50.9
753.908	50.93
754.305	50.95
754.703	50.95
755.1	50.96
755.497	50.96
755.894	50.98
756.291	50.99
756.688	50.99
757.085	50.98
757.482	50.97
757.878	50.99
758.275	50.96
758.672	50.98
759.068	51.02
759.465	51.01
759.861	51.03
760.258	51.03
760.654	51.04
761.05	51.06
761.447	51.07
761.843	51.07
762.239	51.03
762.635	51.05
763.031	51.02
763.427	50.97
763.822	50.97
764.218	50.97
764.614	50.95
765.01	50.93
765.405	50.91
765.801	50.87
766.196	50.86
766.592	50.85
766.987	50.82
767.382	50.8
767.778	50.82
768.173	50.83
