Data from N_3_DIV_IL_4N_Splice17_14-16-45-902.txt Node
Date: Sat Mar 07 14:16:45 EST 2020
User: sa697716
Spectrometer: NQ5500242
Trigger mode: 0
Integration Time (sec): 1.450000E-1
Scans to average: 20
Nonlinearity correction enabled: false
Boxcar width: 5
Storing dark spectrum: false
XAxis mode: Wavelengths
Number of Pixels in Spectrum: 512
>>>>>Begin Spectral Data<<<<<
187.83	174.16
188.298	189.79
188.766	173.17
189.233	166.17
189.701	157.29
190.169	181.13
190.636	182.48
191.104	286.95
191.571	199.73
192.039	46.37
192.506	-179.82
192.974	72.09
193.441	127.6
193.908	70.47
194.375	97.65
194.842	44.64
195.31	73.59
195.777	-30.21
196.244	74.48
196.711	74.21
197.177	75.32
197.644	76.25
198.111	75.86
198.578	76.2
199.045	76.98
199.511	77.09
199.978	77.44
200.445	77.36
200.911	77.38
201.378	77.47
201.844	77.32
202.31	77.13
202.777	76.84
203.243	76.99
203.709	76.55
204.176	75.66
204.642	75.16
205.108	74.37
205.574	74.3
206.04	73.73
206.506	72.81
206.972	72.82
207.438	72.35
207.903	71.45
208.369	70.16
208.835	69.05
209.301	68
209.766	66.23
210.232	64.59
210.697	62.79
211.163	61.37
211.628	60.13
212.094	58.5
212.559	57.22
213.024	56.11
213.49	55.01
213.955	54.04
214.42	52.9
214.885	51.67
215.35	50.31
215.815	47.92
216.28	45.2
216.745	42.08
217.21	38.9
217.675	35.99
218.14	33.43
218.604	31.17
219.069	29.19
219.534	27.52
219.998	26.21
220.463	25.1
220.927	24.14
221.392	23.34
221.856	22.68
222.32	22.08
222.785	21.58
223.249	21.08
223.713	20.66
224.177	20.26
224.642	19.92
225.106	19.53
225.57	19.13
226.034	18.83
226.497	18.51
226.961	18.23
227.425	17.96
227.889	17.68
228.353	17.41
228.816	17.13
229.28	16.88
229.744	16.62
230.207	16.4
230.671	16.18
231.134	15.97
231.597	15.78
232.061	15.56
232.524	15.37
232.987	15.17
233.45	15
233.914	14.81
234.377	14.63
234.84	14.46
235.303	14.31
235.766	14.15
236.229	13.98
236.691	13.83
237.154	13.69
237.617	13.55
238.08	13.42
238.542	13.28
239.005	13.18
239.468	13.06
239.93	12.94
240.393	12.84
240.855	12.71
241.317	12.6
241.78	12.48
242.242	12.34
242.704	12.22
243.166	12.1
243.629	11.99
244.091	11.87
244.553	11.75
245.015	11.63
245.477	11.51
245.939	11.42
246.4	11.32
246.862	11.21
247.324	11.13
247.786	11.02
248.247	10.92
248.709	10.82
249.17	10.72
249.632	10.64
250.093	10.57
250.555	10.48
251.016	10.39
251.477	10.3
251.939	10.23
252.4	10.16
252.861	10.09
253.322	10.03
253.783	9.98
254.244	9.92
254.705	9.86
255.166	9.8
255.627	9.73
256.088	9.68
256.549	9.63
257.009	9.57
257.47	9.51
257.931	9.44
258.391	9.37
258.852	9.3
259.312	9.25
259.773	9.17
260.233	9.11
260.694	9.05
261.154	8.99
261.614	8.92
262.074	8.86
262.534	8.8
262.994	8.76
263.455	8.71
263.915	8.66
264.374	8.62
264.834	8.59
265.294	8.55
265.754	8.52
266.214	8.5
266.673	8.46
267.133	8.44
267.593	8.41
268.052	8.39
268.512	8.36
268.971	8.34
269.431	8.31
269.89	8.27
270.349	8.25
270.809	8.22
271.268	8.2
271.727	8.18
272.186	8.16
272.645	8.13
273.104	8.11
273.563	8.09
274.022	8.07
274.481	8.05
274.94	8.03
275.399	8.01
275.857	7.99
276.316	7.97
276.775	7.95
277.233	7.93
277.692	7.91
278.15	7.9
278.609	7.88
279.067	7.85
279.525	7.84
279.984	7.81
280.442	7.79
280.9	7.79
281.358	7.77
281.816	7.75
282.274	7.73
282.732	7.72
283.19	7.7
283.648	7.69
284.106	7.68
284.564	7.66
285.021	7.65
285.479	7.65
285.937	7.63
286.394	7.62
286.852	7.6
287.309	7.58
287.767	7.56
288.224	7.54
288.682	7.52
289.139	7.48
289.596	7.46
290.053	7.42
290.511	7.38
290.968	7.35
291.425	7.32
291.882	7.29
292.339	7.26
292.796	7.23
293.252	7.2
293.709	7.18
294.166	7.15
294.623	7.13
295.079	7.11
295.536	7.09
295.992	7.07
296.449	7.05
296.905	7.04
297.362	7.01
297.818	6.98
298.274	6.97
298.731	6.95
299.187	6.93
299.643	6.91
300.099	6.89
300.555	6.87
301.011	6.85
301.467	6.83
301.923	6.81
302.379	6.8
302.835	6.79
303.291	6.78
303.746	6.77
304.202	6.76
304.658	6.76
305.113	6.76
305.569	6.76
306.024	6.74
306.479	6.73
306.935	6.73
307.39	6.73
307.845	6.71
308.301	6.71
308.756	6.71
309.211	6.7
309.666	6.7
310.121	6.69
310.576	6.69
311.031	6.69
311.486	6.7
311.94	6.7
312.395	6.7
312.85	6.7
313.305	6.69
313.759	6.68
314.214	6.68
314.668	6.66
315.123	6.66
315.577	6.64
316.032	6.63
316.486	6.61
316.94	6.59
317.394	6.56
317.849	6.54
318.303	6.52
318.757	6.5
319.211	6.48
319.665	6.46
320.119	6.44
320.572	6.42
321.026	6.41
321.48	6.39
321.934	6.37
322.387	6.37
322.841	6.35
323.295	6.34
323.748	6.33
324.202	6.32
324.655	6.3
325.108	6.29
325.562	6.28
326.015	6.27
326.468	6.26
326.921	6.25
327.374	6.24
327.827	6.25
328.28	6.24
328.733	6.22
329.186	6.22
329.639	6.21
330.092	6.21
330.545	6.2
330.997	6.19
331.45	6.19
331.903	6.19
332.355	6.18
332.808	6.18
333.26	6.18
333.713	6.18
334.165	6.19
334.617	6.2
335.069	6.19
335.522	6.2
335.974	6.21
336.426	6.2
336.878	6.19
337.33	6.19
337.782	6.18
338.234	6.17
338.686	6.17
339.137	6.16
339.589	6.14
340.041	6.14
340.493	6.12
340.944	6.09
341.396	6.07
341.847	6.06
342.299	6.03
342.75	6.01
343.201	5.98
343.653	5.96
344.104	5.93
344.555	5.91
345.006	5.89
345.457	5.87
345.908	5.85
346.359	5.84
346.81	5.83
347.261	5.82
347.712	5.82
348.163	5.81
348.613	5.82
349.064	5.83
349.515	5.83
349.965	5.84
350.416	5.83
350.866	5.83
351.317	5.83
351.767	5.83
352.217	5.82
352.668	5.82
353.118	5.82
353.568	5.82
354.018	5.81
354.468	5.82
354.918	5.8
355.368	5.81
355.818	5.81
356.268	5.81
356.718	5.82
357.168	5.82
357.617	5.82
358.067	5.82
358.517	5.83
358.966	5.84
359.416	5.84
359.865	5.85
360.315	5.87
360.764	5.88
361.213	5.88
361.663	5.88
362.112	5.9
362.561	5.92
363.01	5.93
363.459	5.93
363.908	5.93
364.357	5.93
364.806	5.94
365.255	5.97
365.703	5.99
366.152	6.01
366.601	6.03
367.05	6.05
367.498	6.07
367.947	6.1
368.395	6.14
368.844	6.18
369.292	6.22
369.74	6.26
370.189	6.28
370.637	6.31
371.085	6.34
371.533	6.37
371.981	6.42
372.429	6.46
372.877	6.5
373.325	6.54
373.773	6.59
374.221	6.63
374.669	6.66
375.116	6.71
375.564	6.75
376.012	6.81
376.459	6.86
376.907	6.92
377.354	6.97
377.801	7.01
378.249	7.05
378.696	7.1
379.143	7.16
379.591	7.23
380.038	7.28
380.485	7.34
380.932	7.39
381.379	7.45
381.826	7.49
382.273	7.53
382.72	7.57
383.166	7.63
383.613	7.67
384.06	7.7
384.506	7.74
384.953	7.79
385.4	7.83
385.846	7.89
386.292	7.94
386.739	7.97
387.185	8.02
387.631	8.08
388.078	8.12
388.524	8.16
388.97	8.2
389.416	8.24
389.862	8.27
390.308	8.31
390.754	8.34
391.2	8.37
391.645	8.39
392.091	8.43
392.537	8.46
392.983	8.48
393.428	8.53
393.874	8.56
394.319	8.59
394.765	8.6
395.21	8.6
395.655	8.61
396.101	8.63
396.546	8.64
396.991	8.65
397.436	8.65
397.881	8.67
398.326	8.68
398.771	8.69
399.216	8.7
399.661	8.72
400.106	8.73
400.551	8.73
400.995	8.71
401.44	8.7
401.885	8.68
402.329	8.68
402.774	8.67
403.218	8.66
403.663	8.65
404.107	8.64
404.551	8.64
404.995	8.64
405.44	8.62
405.884	8.61
406.328	8.62
406.772	8.62
407.216	8.62
407.66	8.6
408.104	8.58
408.547	8.58
408.991	8.57
409.435	8.55
409.879	8.53
410.322	8.56
410.766	8.57
411.209	8.58
411.653	8.6
412.096	8.6
412.54	8.61
412.983	8.6
413.426	8.62
413.869	8.62
414.312	8.65
414.756	8.68
415.199	8.68
415.642	8.68
416.085	8.68
416.527	8.67
416.97	8.65
417.413	8.63
417.856	8.63
418.298	8.6
418.741	8.59
419.184	8.57
419.626	8.54
420.069	8.53
420.511	8.52
420.953	8.5
421.396	8.51
421.838	8.52
422.28	8.53
422.722	8.57
423.164	8.57
423.606	8.58
424.048	8.58
424.49	8.58
424.932	8.57
425.374	8.55
425.816	8.54
426.258	8.5
426.699	8.46
427.141	8.43
427.582	8.4
428.024	8.39
428.465	8.39
428.907	8.39
429.348	8.37
429.789	8.36
430.231	8.38
430.672	8.38
431.113	8.41
431.554	8.44
431.995	8.46
432.436	8.46
432.877	8.46
433.318	8.47
433.759	8.47
434.2	8.51
434.64	8.54
435.081	8.54
435.522	8.56
435.962	8.58
436.403	8.61
436.843	8.64
437.284	8.65
437.724	8.67
438.164	8.68
438.604	8.7
439.045	8.69
439.485	8.69
439.925	8.71
440.365	8.72
440.805	8.74
441.245	8.74
441.685	8.76
442.125	8.78
442.564	8.79
443.004	8.81
443.444	8.83
443.883	8.87
444.323	8.88
444.762	8.9
445.202	8.93
445.641	8.95
446.081	8.99
446.52	9
446.959	9.03
447.398	9.07
447.837	9.08
448.276	9.1
448.716	9.12
449.154	9.16
449.593	9.2
450.032	9.21
450.471	9.21
450.91	9.21
451.349	9.23
451.787	9.22
452.226	9.22
452.664	9.23
453.103	9.23
453.541	9.22
453.98	9.21
454.418	9.18
454.856	9.16
455.295	9.14
455.733	9.11
456.171	9.09
456.609	9.08
457.047	9.05
457.485	9.02
457.923	9.01
458.361	8.99
458.798	8.97
459.236	8.96
459.674	8.95
460.111	8.93
460.549	8.94
460.987	8.94
461.424	8.92
461.862	8.93
462.299	8.93
462.736	8.91
463.173	8.9
463.611	8.89
464.048	8.88
464.485	8.88
464.922	8.88
465.359	8.87
465.796	8.86
466.233	8.87
466.67	8.88
467.106	8.89
467.543	8.89
467.98	8.88
468.416	8.89
468.853	8.89
469.29	8.89
469.726	8.91
470.162	8.91
470.599	8.91
471.035	8.9
471.471	8.89
471.907	8.88
472.344	8.89
472.78	8.9
473.216	8.89
473.652	8.9
474.088	8.88
474.523	8.89
474.959	8.88
475.395	8.88
475.831	8.87
476.266	8.87
476.702	8.85
477.138	8.85
477.573	8.85
478.008	8.85
478.444	8.83
478.879	8.84
479.314	8.82
479.75	8.82
480.185	8.8
480.62	8.8
481.055	8.78
481.49	8.78
481.925	8.76
482.36	8.75
482.795	8.74
483.229	8.74
483.664	8.74
484.099	8.73
484.534	8.73
484.968	8.74
485.403	8.74
485.837	8.76
486.271	8.77
486.706	8.79
487.14	8.8
487.574	8.82
488.009	8.83
488.443	8.85
488.877	8.88
489.311	8.91
489.745	8.95
490.179	8.99
490.613	9.03
491.046	9.07
491.48	9.12
491.914	9.17
492.348	9.23
492.781	9.28
493.215	9.35
493.648	9.41
494.082	9.48
494.515	9.53
494.948	9.6
495.382	9.67
495.815	9.75
496.248	9.84
496.681	9.92
497.114	10.01
497.547	10.11
497.98	10.22
498.413	10.32
498.846	10.43
499.279	10.54
499.711	10.65
500.144	10.78
500.577	10.9
501.009	11.03
501.442	11.18
501.874	11.33
502.306	11.47
502.739	11.63
503.171	11.8
503.603	11.98
504.036	12.16
504.468	12.37
504.9	12.56
505.332	12.77
505.764	12.97
506.196	13.19
506.627	13.4
507.059	13.63
507.491	13.87
507.923	14.11
508.354	14.37
508.786	14.63
509.217	14.9
509.649	15.17
510.08	15.45
510.512	15.75
510.943	16.04
511.374	16.35
511.805	16.66
512.237	16.96
512.668	17.27
513.099	17.59
513.53	17.9
513.961	18.22
514.391	18.54
514.822	18.88
515.253	19.22
515.684	19.55
516.114	19.9
516.545	20.24
516.975	20.59
517.406	20.94
517.836	21.28
518.267	21.64
518.697	21.97
519.127	22.31
519.558	22.62
519.988	22.95
520.418	23.29
520.848	23.61
521.278	23.91
521.708	24.32
522.138	24.62
522.567	24.91
522.997	25.2
523.427	25.5
523.857	25.79
524.286	26.06
524.716	26.32
525.145	26.58
525.575	26.82
526.004	27.09
526.433	27.23
526.863	27.46
527.292	27.68
527.721	27.9
528.15	28.08
528.579	28.29
529.008	28.49
529.437	28.65
529.866	28.82
530.295	28.98
530.724	29.13
531.152	29.28
531.581	29.41
532.01	29.56
532.438	29.68
532.867	29.81
533.295	29.91
533.723	30.02
534.152	30.12
534.58	30.21
535.008	30.28
535.436	30.34
535.865	30.39
536.293	30.46
536.721	30.51
537.149	30.56
537.576	30.61
538.004	30.65
538.432	30.7
538.86	30.74
539.287	30.79
539.715	30.84
540.143	30.88
540.57	30.92
540.998	30.96
541.425	31.01
541.852	31.05
542.28	31.09
542.707	31.12
543.134	31.15
543.561	31.18
543.988	31.21
544.415	31.23
544.842	31.27
545.269	31.31
545.696	31.35
546.123	31.37
546.549	31.42
546.976	31.46
547.403	31.48
547.829	31.52
548.256	31.55
548.682	31.58
549.108	31.62
549.535	31.65
549.961	31.66
550.387	31.65
550.813	31.66
551.24	31.67
551.666	31.68
552.092	31.69
552.518	31.68
552.943	31.65
553.369	31.64
553.795	31.62
554.221	31.58
554.646	31.55
555.072	31.52
555.498	31.49
555.923	31.44
556.349	31.36
556.774	31.31
557.199	31.23
557.625	31.18
558.05	31.11
558.475	31.03
558.9	30.95
559.325	30.87
559.75	30.79
560.175	30.67
560.6	30.56
561.025	30.45
561.449	30.34
561.874	30.21
562.299	30.07
562.723	29.92
563.148	29.77
563.572	29.6
563.997	29.44
564.421	29.25
564.846	29.09
565.27	28.92
565.694	28.75
566.118	28.56
566.542	28.38
566.966	28.18
567.39	28
567.814	27.82
568.238	27.63
568.662	27.44
569.086	27.26
569.509	27.07
569.933	26.89
570.357	26.7
570.78	26.51
571.204	26.34
571.627	26.18
572.05	26
572.474	25.84
572.897	25.68
573.32	25.52
573.743	25.38
574.166	25.23
574.589	25.08
575.012	24.95
575.435	24.82
575.858	24.69
576.281	24.55
576.704	24.43
577.126	24.32
577.549	24.2
577.972	24.1
578.394	24
578.817	23.89
579.239	23.79
579.661	23.68
580.084	23.59
580.506	23.51
580.928	23.41
581.35	23.33
581.772	23.23
582.194	23.15
582.616	23.06
583.038	22.96
583.46	22.88
583.882	22.8
584.303	22.71
584.725	22.63
585.147	22.53
585.568	22.46
585.99	22.38
586.411	22.31
586.833	22.23
587.254	22.15
587.675	22.08
588.096	22.01
588.518	21.95
588.939	21.9
589.36	21.84
589.781	21.79
590.202	21.74
590.623	21.68
591.043	21.62
591.464	21.59
591.885	21.55
592.305	21.51
592.726	21.5
593.147	21.45
593.567	21.42
593.987	21.38
594.408	21.34
594.828	21.3
595.248	21.25
595.669	21.24
596.089	21.19
596.509	21.15
596.929	21.12
597.349	21.06
597.769	21.02
598.189	20.96
598.608	20.92
599.028	20.87
599.448	20.82
599.867	20.77
600.287	20.72
600.706	20.67
601.126	20.61
601.545	20.56
601.965	20.5
602.384	20.45
602.803	20.38
603.222	20.3
603.641	20.24
604.061	20.17
604.48	20.09
604.898	20
605.317	19.92
605.736	19.85
606.155	19.76
606.574	19.67
606.992	19.58
607.411	19.51
607.829	19.39
608.248	19.28
608.666	19.19
609.085	19.1
609.503	19.02
609.921	18.93
610.339	18.82
610.758	18.73
611.176	18.63
611.594	18.53
612.012	18.42
612.43	18.36
612.847	18.29
613.265	18.2
613.683	18.13
614.101	18.04
614.518	17.95
614.936	17.87
615.353	17.77
615.771	17.7
616.188	17.64
616.606	17.58
617.023	17.51
617.44	17.46
617.857	17.4
618.274	17.33
618.691	17.26
619.108	17.22
619.525	17.18
619.942	17.15
620.359	17.11
620.776	17.07
621.192	17.03
621.609	17
622.026	16.95
622.442	16.92
622.859	16.89
623.275	16.87
623.691	16.84
624.108	16.81
624.524	16.79
624.94	16.76
625.356	16.74
625.772	16.72
626.188	16.7
626.604	16.7
627.02	16.69
627.436	16.68
627.852	16.65
628.268	16.63
628.683	16.62
629.099	16.6
629.514	16.59
629.93	16.56
630.345	16.53
630.761	16.48
631.176	16.43
631.591	16.37
632.007	16.32
632.422	16.26
632.837	16.19
633.252	16.1
633.667	16.02
634.082	15.93
634.497	15.84
634.911	15.75
635.326	15.66
635.741	15.55
636.155	15.46
636.57	15.34
636.984	15.23
637.399	15.11
637.813	14.98
638.228	14.86
638.642	14.72
639.056	14.58
639.47	14.45
639.884	14.29
640.298	14.14
640.712	13.99
641.126	13.84
641.54	13.69
641.954	13.55
642.368	13.42
642.781	13.28
643.195	13.15
643.609	13.02
644.022	12.89
644.436	12.78
644.849	12.66
645.262	12.55
645.676	12.45
646.089	12.36
646.502	12.27
646.915	12.19
647.328	12.11
647.741	12.05
648.154	11.97
648.567	11.91
648.98	11.84
649.393	11.79
649.805	11.75
650.218	11.71
650.631	11.67
651.043	11.63
651.456	11.57
651.868	11.53
652.28	11.48
652.693	11.45
653.105	11.39
653.517	11.35
653.929	11.31
654.341	11.24
654.753	11.17
655.165	11.09
655.577	11.01
655.989	10.94
656.401	10.86
656.813	10.78
657.224	10.7
657.636	10.61
658.047	10.53
658.459	10.42
658.87	10.33
659.282	10.24
659.693	10.15
660.104	10.06
660.515	9.97
660.926	9.89
661.338	9.79
661.749	9.72
662.159	9.62
662.57	9.55
662.981	9.47
663.392	9.4
663.803	9.34
664.213	9.28
664.624	9.23
665.035	9.16
665.445	9.11
665.855	9.06
666.266	9.01
666.676	8.98
667.086	8.95
667.497	8.92
667.907	8.9
668.317	8.87
668.727	8.83
669.137	8.81
669.547	8.79
669.956	8.78
670.366	8.77
670.776	8.76
671.186	8.75
671.595	8.75
672.005	8.76
672.414	8.75
672.824	8.77
673.233	8.79
673.642	8.82
674.052	8.84
674.461	8.86
674.87	8.89
675.279	8.93
675.688	8.97
676.097	9.02
676.506	9.05
676.915	9.1
677.323	9.14
677.732	9.18
678.141	9.24
678.549	9.3
678.958	9.37
679.366	9.45
679.775	9.52
680.183	9.6
680.592	9.71
681	9.81
681.408	9.94
681.816	10.07
682.224	10.21
682.632	10.36
683.04	10.53
683.448	10.72
683.856	10.92
684.264	11.14
684.671	11.37
685.079	11.63
685.487	11.93
685.894	12.25
686.302	12.59
686.709	12.97
687.116	13.37
687.524	13.79
687.931	14.24
688.338	14.73
688.745	15.24
689.152	15.78
689.559	16.34
689.966	16.89
690.373	17.48
690.78	18.11
691.187	18.75
691.593	19.39
692	20.05
692.407	20.71
692.813	21.39
693.22	22.07
693.626	22.78
694.032	23.48
694.439	24.19
694.845	24.91
695.251	25.61
695.657	26.3
696.063	27.01
696.469	27.71
696.875	28.4
697.281	29.08
697.687	29.77
698.093	30.42
698.498	31.08
698.904	31.74
699.31	32.37
699.715	33
700.12	33.64
700.526	34.25
700.931	34.86
701.337	35.47
701.742	36.06
702.147	36.62
702.552	37.19
702.957	37.71
703.362	38.24
703.767	38.76
704.172	39.28
704.577	39.76
704.981	40.24
705.386	40.73
705.791	41.19
706.195	41.66
706.6	42.15
707.004	42.59
707.408	43.07
707.813	43.52
708.217	43.97
708.621	44.38
709.025	44.8
709.43	45.2
709.834	45.61
710.237	46.03
710.641	46.41
711.045	46.75
711.449	47.13
711.853	47.49
712.256	47.79
712.66	48.13
713.064	48.47
713.467	48.81
713.87	49.17
714.274	49.49
714.677	49.8
715.08	50.08
715.484	50.41
715.887	50.74
716.29	51.02
716.693	51.33
717.096	51.62
717.499	51.92
717.901	52.2
718.304	52.45
718.707	52.72
719.109	53
719.512	53.29
719.915	53.53
720.317	53.77
720.719	53.99
721.122	54.28
721.524	54.49
721.926	54.73
722.328	54.96
722.731	55.18
723.133	55.37
723.535	55.55
723.937	55.74
724.338	55.93
724.74	56.1
725.142	56.32
725.544	56.47
725.945	56.64
726.347	56.75
726.748	56.87
727.15	57.01
727.551	57.16
727.952	57.3
728.354	57.45
728.755	57.55
729.156	57.67
729.557	57.77
729.958	57.86
730.359	57.98
730.76	58.1
731.161	58.22
731.562	58.35
731.962	58.42
732.363	58.51
732.763	58.59
733.164	58.71
733.564	58.79
733.965	58.85
734.365	58.97
734.766	59.05
735.166	59.14
735.566	59.19
735.966	59.25
736.366	59.33
736.766	59.38
737.166	59.45
737.566	59.51
737.966	59.57
738.365	59.63
738.765	59.67
739.165	59.7
739.564	59.75
739.964	59.79
740.363	59.83
740.763	59.9
741.162	59.92
741.561	59.91
741.96	59.93
742.36	59.96
742.759	59.98
743.158	60
743.557	60.04
743.955	60.05
744.354	60.1
744.753	60.14
745.152	60.17
745.55	60.23
745.949	60.28
746.348	60.32
746.746	60.35
747.144	60.42
747.543	60.46
747.941	60.5
748.339	60.53
748.737	60.55
749.136	60.55
749.534	60.54
749.932	60.54
750.33	60.55
750.727	60.58
751.125	60.59
751.523	60.56
751.921	60.57
752.318	60.54
752.716	60.54
753.113	60.53
753.511	60.55
753.908	60.57
754.305	60.59
754.703	60.56
755.1	60.53
755.497	60.49
755.894	60.5
756.291	60.5
756.688	60.5
757.085	60.5
757.482	60.47
757.878	60.46
758.275	60.45
758.672	60.43
759.068	60.48
759.465	60.49
759.861	60.49
760.258	60.49
760.654	60.48
761.05	60.49
761.447	60.49
761.843	60.5
762.239	60.49
762.635	60.48
763.031	60.47
763.427	60.42
763.822	60.41
764.218	60.44
764.614	60.45
765.01	60.43
765.405	60.41
765.801	60.42
766.196	60.43
766.592	60.44
766.987	60.43
767.382	60.43
767.778	60.45
768.173	60.46
768.568	60.43
768.963	60.41
769.358	60.44
769.753	60.44
770.148	60.43
770.542	60.42
770.937	60.4
771.332	60.41
771.726	60.42
772.121	60.42
772.515	60.43
772.91	60.4
773.304	60.44
773.699	60.42
774.093	60.42
774.487	60.42
774.881	60.46
775.275	60.46
775.669	60.46
776.063	60.45
776.457	60.44
776.851	60.43
777.245	60.42
777.638	60.37
778.032	60.36
778.425	60.41
