Data from N_3_HIR_IL_4N_Splice17_14-29-15-388.txt Node
Date: Sat Mar 07 14:29:15 EST 2020
User: sa697716
Spectrometer: NQ5500242
Trigger mode: 0
Integration Time (sec): 1.450000E-1
Scans to average: 20
Nonlinearity correction enabled: false
Boxcar width: 5
Storing dark spectrum: false
XAxis mode: Wavelengths
Number of Pixels in Spectrum: 512
>>>>>Begin Spectral Data<<<<<
187.83	191.36
188.298	203.8
188.766	166.73
189.233	141.09
189.701	147.82
190.169	167.64
190.636	182.28
191.104	241.97
191.571	375.14
192.039	297.85
192.506	470.87
192.974	84.81
193.441	313.86
193.908	119.23
194.375	115.25
194.842	58.32
195.31	93.9
195.777	138.98
196.244	65.99
196.711	66.43
197.177	66.33
197.644	66.08
198.111	66.26
198.578	65.63
199.045	65.93
199.511	65.6
199.978	65.92
200.445	66.05
200.911	66.33
201.378	66.4
201.844	66.42
202.31	66.24
202.777	65.85
203.243	65.63
203.709	65.25
204.176	64.8
204.642	64.44
205.108	64.38
205.574	63.84
206.04	63.01
206.506	62.48
206.972	62.07
207.438	61.55
207.903	60.95
208.369	59.71
208.835	58.47
209.301	56.99
209.766	55.49
210.232	53.67
210.697	52.36
211.163	51.01
211.628	49.74
212.094	48.4
212.559	47.18
213.024	46.02
213.49	44.91
213.955	43.98
214.42	43.12
214.885	41.86
215.35	40.35
215.815	38.09
216.28	35.44
216.745	32.5
217.21	29.62
217.675	26.84
218.14	24.43
218.604	22.32
219.069	20.47
219.534	18.96
219.998	17.76
220.463	16.77
220.927	15.85
221.392	15.2
221.856	14.57
222.32	14.09
222.785	13.67
223.249	13.3
223.713	12.97
224.177	12.7
224.642	12.43
225.106	12.14
225.57	11.86
226.034	11.67
226.497	11.44
226.961	11.25
227.425	11.03
227.889	10.85
228.353	10.67
228.816	10.48
229.28	10.31
229.744	10.15
230.207	10
230.671	9.84
231.134	9.68
231.597	9.54
232.061	9.41
232.524	9.29
232.987	9.17
233.45	9.07
233.914	8.97
234.377	8.86
234.84	8.75
235.303	8.67
235.766	8.6
236.229	8.53
236.691	8.45
237.154	8.38
237.617	8.31
238.08	8.24
238.542	8.15
239.005	8.08
239.468	8.01
239.93	7.95
240.393	7.88
240.855	7.8
241.317	7.73
241.78	7.65
242.242	7.57
242.704	7.5
243.166	7.43
243.629	7.38
244.091	7.3
244.553	7.23
245.015	7.16
245.477	7.09
245.939	7.03
246.4	6.97
246.862	6.91
247.324	6.86
247.786	6.79
248.247	6.73
248.709	6.66
249.17	6.6
249.632	6.56
250.093	6.5
250.555	6.45
251.016	6.4
251.477	6.33
251.939	6.29
252.4	6.25
252.861	6.2
253.322	6.15
253.783	6.12
254.244	6.09
254.705	6.04
255.166	6
255.627	5.94
256.088	5.91
256.549	5.88
257.009	5.84
257.47	5.79
257.931	5.75
258.391	5.71
258.852	5.66
259.312	5.61
259.773	5.57
260.233	5.53
260.694	5.49
261.154	5.45
261.614	5.41
262.074	5.37
262.534	5.34
262.994	5.31
263.455	5.28
263.915	5.25
264.374	5.22
264.834	5.19
265.294	5.16
265.754	5.14
266.214	5.12
266.673	5.1
267.133	5.08
267.593	5.06
268.052	5.04
268.512	5.03
268.971	5.01
269.431	5
269.89	4.98
270.349	4.97
270.809	4.95
271.268	4.94
271.727	4.92
272.186	4.91
272.645	4.9
273.104	4.88
273.563	4.87
274.022	4.86
274.481	4.85
274.94	4.84
275.399	4.82
275.857	4.81
276.316	4.8
276.775	4.79
277.233	4.78
277.692	4.76
278.15	4.75
278.609	4.73
279.067	4.72
279.525	4.72
279.984	4.7
280.442	4.69
280.9	4.69
281.358	4.68
281.816	4.68
282.274	4.67
282.732	4.66
283.19	4.65
283.648	4.65
284.106	4.64
284.564	4.62
285.021	4.62
285.479	4.61
285.937	4.59
286.394	4.59
286.852	4.57
287.309	4.56
287.767	4.54
288.224	4.53
288.682	4.52
289.139	4.5
289.596	4.48
290.053	4.46
290.511	4.44
290.968	4.42
291.425	4.39
291.882	4.38
292.339	4.37
292.796	4.35
293.252	4.34
293.709	4.32
294.166	4.31
294.623	4.3
295.079	4.29
295.536	4.28
295.992	4.26
296.449	4.26
296.905	4.25
297.362	4.23
297.818	4.22
298.274	4.21
298.731	4.2
299.187	4.19
299.643	4.17
300.099	4.17
300.555	4.16
301.011	4.15
301.467	4.14
301.923	4.13
302.379	4.12
302.835	4.12
303.291	4.12
303.746	4.11
304.202	4.11
304.658	4.11
305.113	4.1
305.569	4.1
306.024	4.09
306.479	4.08
306.935	4.08
307.39	4.09
307.845	4.08
308.301	4.08
308.756	4.09
309.211	4.09
309.666	4.1
310.121	4.1
310.576	4.11
311.031	4.11
311.486	4.12
311.94	4.12
312.395	4.11
312.85	4.11
313.305	4.11
313.759	4.11
314.214	4.11
314.668	4.1
315.123	4.09
315.577	4.09
316.032	4.09
316.486	4.08
316.94	4.09
317.394	4.08
317.849	4.07
318.303	4.07
318.757	4.05
319.211	4.04
319.665	4.03
320.119	4.02
320.572	4
321.026	4
321.48	3.98
321.934	3.97
322.387	3.96
322.841	3.95
323.295	3.94
323.748	3.94
324.202	3.95
324.655	3.94
325.108	3.94
325.562	3.94
326.015	3.93
326.468	3.94
326.921	3.93
327.374	3.93
327.827	3.93
328.28	3.92
328.733	3.92
329.186	3.92
329.639	3.92
330.092	3.93
330.545	3.93
330.997	3.93
331.45	3.95
331.903	3.96
332.355	3.97
332.808	3.97
333.26	3.98
333.713	3.98
334.165	3.98
334.617	3.99
335.069	3.98
335.522	3.99
335.974	4
336.426	4
336.878	3.99
337.33	3.98
337.782	3.98
338.234	3.98
338.686	3.99
339.137	3.99
339.589	3.98
340.041	3.98
340.493	3.97
340.944	3.95
341.396	3.94
341.847	3.93
342.299	3.92
342.75	3.91
343.201	3.9
343.653	3.89
344.104	3.87
344.555	3.86
345.006	3.85
345.457	3.84
345.908	3.84
346.359	3.84
346.81	3.83
347.261	3.82
347.712	3.82
348.163	3.81
348.613	3.82
349.064	3.82
349.515	3.81
349.965	3.81
350.416	3.82
350.866	3.82
351.317	3.81
351.767	3.81
352.217	3.81
352.668	3.81
353.118	3.81
353.568	3.8
354.018	3.81
354.468	3.82
354.918	3.81
355.368	3.81
355.818	3.82
356.268	3.81
356.718	3.81
357.168	3.81
357.617	3.81
358.067	3.8
358.517	3.82
358.966	3.82
359.416	3.83
359.865	3.84
360.315	3.84
360.764	3.84
361.213	3.83
361.663	3.83
362.112	3.84
362.561	3.84
363.01	3.85
363.459	3.83
363.908	3.82
364.357	3.82
364.806	3.82
365.255	3.82
365.703	3.83
366.152	3.84
366.601	3.84
367.05	3.85
367.498	3.85
367.947	3.85
368.395	3.86
368.844	3.87
369.292	3.86
369.74	3.87
370.189	3.87
370.637	3.86
371.085	3.84
371.533	3.84
371.981	3.84
372.429	3.84
372.877	3.84
373.325	3.84
373.773	3.84
374.221	3.84
374.669	3.84
375.116	3.84
375.564	3.85
376.012	3.87
376.459	3.87
376.907	3.87
377.354	3.88
377.801	3.89
378.249	3.89
378.696	3.9
379.143	3.91
379.591	3.91
380.038	3.92
380.485	3.93
380.932	3.94
381.379	3.95
381.826	3.96
382.273	3.98
382.72	3.98
383.166	3.99
383.613	4
384.06	4.01
384.506	4.02
384.953	4.03
385.4	4.05
385.846	4.06
386.292	4.07
386.739	4.08
387.185	4.09
387.631	4.12
388.078	4.13
388.524	4.16
388.97	4.17
389.416	4.19
389.862	4.21
390.308	4.24
390.754	4.27
391.2	4.29
391.645	4.31
392.091	4.34
392.537	4.37
392.983	4.4
393.428	4.42
393.874	4.45
394.319	4.48
394.765	4.5
395.21	4.52
395.655	4.55
396.101	4.58
396.546	4.61
396.991	4.63
397.436	4.65
397.881	4.69
398.326	4.73
398.771	4.76
399.216	4.79
399.661	4.84
400.106	4.87
400.551	4.9
400.995	4.91
401.44	4.93
401.885	4.96
402.329	4.99
402.774	5.01
403.218	5.04
403.663	5.08
404.107	5.11
404.551	5.13
404.995	5.15
405.44	5.17
405.884	5.21
406.328	5.24
406.772	5.25
407.216	5.28
407.66	5.3
408.104	5.31
408.547	5.33
408.991	5.35
409.435	5.36
409.879	5.39
410.322	5.42
410.766	5.45
411.209	5.48
411.653	5.51
412.096	5.54
412.54	5.57
412.983	5.59
413.426	5.63
413.869	5.67
414.312	5.7
414.756	5.72
415.199	5.75
415.642	5.77
416.085	5.8
416.527	5.81
416.97	5.82
417.413	5.84
417.856	5.86
418.298	5.85
418.741	5.85
419.184	5.86
419.626	5.87
420.069	5.89
420.511	5.89
420.953	5.89
421.396	5.91
421.838	5.93
422.28	5.94
422.722	5.97
423.164	5.98
423.606	6
424.048	6.02
424.49	6.03
424.932	6.03
425.374	6.04
425.816	6.02
426.258	6.01
426.699	5.99
427.141	5.99
427.582	5.98
428.024	5.99
428.465	6
428.907	6
429.348	5.97
429.789	5.97
430.231	5.98
430.672	6.02
431.113	6.05
431.554	6.08
431.995	6.11
432.436	6.12
432.877	6.12
433.318	6.16
433.759	6.19
434.2	6.23
434.64	6.27
435.081	6.29
435.522	6.31
435.962	6.33
436.403	6.36
436.843	6.39
437.284	6.4
437.724	6.43
438.164	6.41
438.604	6.44
439.045	6.45
439.485	6.45
439.925	6.45
440.365	6.47
440.805	6.46
441.245	6.48
441.685	6.5
442.125	6.54
442.564	6.56
443.004	6.58
443.444	6.58
443.883	6.62
444.323	6.63
444.762	6.66
445.202	6.68
445.641	6.71
446.081	6.74
446.52	6.74
446.959	6.76
447.398	6.8
447.837	6.84
448.276	6.85
448.716	6.87
449.154	6.9
449.593	6.93
450.032	6.94
450.471	6.95
450.91	6.94
451.349	6.96
451.787	6.95
452.226	6.94
452.664	6.93
453.103	6.93
453.541	6.93
453.98	6.92
454.418	6.91
454.856	6.89
455.295	6.88
455.733	6.87
456.171	6.86
456.609	6.85
457.047	6.83
457.485	6.82
457.923	6.81
458.361	6.79
458.798	6.79
459.236	6.77
459.674	6.76
460.111	6.75
460.549	6.76
460.987	6.75
461.424	6.76
461.862	6.77
462.299	6.77
462.736	6.77
463.173	6.78
463.611	6.78
464.048	6.79
464.485	6.79
464.922	6.79
465.359	6.79
465.796	6.8
466.233	6.8
466.67	6.79
467.106	6.8
467.543	6.8
467.98	6.8
468.416	6.8
468.853	6.81
469.29	6.83
469.726	6.84
470.162	6.86
470.599	6.86
471.035	6.86
471.471	6.86
471.907	6.86
472.344	6.87
472.78	6.88
473.216	6.88
473.652	6.87
474.088	6.85
474.523	6.86
474.959	6.86
475.395	6.85
475.831	6.85
476.266	6.86
476.702	6.85
477.138	6.85
477.573	6.85
478.008	6.85
478.444	6.84
478.879	6.85
479.314	6.84
479.75	6.83
480.185	6.82
480.62	6.82
481.055	6.81
481.49	6.81
481.925	6.82
482.36	6.82
482.795	6.81
483.229	6.82
483.664	6.83
484.099	6.81
484.534	6.81
484.968	6.83
485.403	6.83
485.837	6.84
486.271	6.85
486.706	6.85
487.14	6.86
487.574	6.87
488.009	6.89
488.443	6.9
488.877	6.93
489.311	6.96
489.745	6.97
490.179	7.01
490.613	7.04
491.046	7.07
491.48	7.1
491.914	7.14
492.348	7.18
492.781	7.21
493.215	7.26
493.648	7.3
494.082	7.35
494.515	7.4
494.948	7.45
495.382	7.5
495.815	7.56
496.248	7.62
496.681	7.69
497.114	7.75
497.547	7.83
497.98	7.9
498.413	7.97
498.846	8.04
499.279	8.13
499.711	8.2
500.144	8.3
500.577	8.4
501.009	8.48
501.442	8.58
501.874	8.68
502.306	8.78
502.739	8.9
503.171	9.03
503.603	9.14
504.036	9.26
504.468	9.4
504.9	9.52
505.332	9.65
505.764	9.81
506.196	9.96
506.627	10.11
507.059	10.27
507.491	10.42
507.923	10.59
508.354	10.77
508.786	10.94
509.217	11.12
509.649	11.3
510.08	11.48
510.512	11.66
510.943	11.84
511.374	12.03
511.805	12.24
512.237	12.43
512.668	12.62
513.099	12.82
513.53	13.03
513.961	13.24
514.391	13.45
514.822	13.67
515.253	13.89
515.684	14.11
516.114	14.32
516.545	14.53
516.975	14.75
517.406	14.97
517.836	15.18
518.267	15.4
518.697	15.61
519.127	15.8
519.558	16
519.988	16.21
520.418	16.41
520.848	16.62
521.278	16.82
521.708	17.12
522.138	17.31
522.567	17.49
522.997	17.67
523.427	17.85
523.857	18.03
524.286	18.2
524.716	18.37
525.145	18.52
525.575	18.67
526.004	18.83
526.433	18.86
526.863	19
527.292	19.15
527.721	19.26
528.15	19.38
528.579	19.5
529.008	19.62
529.437	19.72
529.866	19.83
530.295	19.93
530.724	20.03
531.152	20.13
531.581	20.23
532.01	20.31
532.438	20.41
532.867	20.49
533.295	20.56
533.723	20.61
534.152	20.68
534.58	20.74
535.008	20.78
535.436	20.83
535.865	20.86
536.293	20.88
536.721	20.91
537.149	20.95
537.576	20.98
538.004	21.03
538.432	21.05
538.86	21.08
539.287	21.11
539.715	21.15
540.143	21.18
540.57	21.2
540.998	21.22
541.425	21.26
541.852	21.27
542.28	21.3
542.707	21.32
543.134	21.35
543.561	21.38
543.988	21.4
544.415	21.43
544.842	21.44
545.269	21.49
545.696	21.53
546.123	21.55
546.549	21.58
546.976	21.61
547.403	21.64
547.829	21.68
548.256	21.71
548.682	21.73
549.108	21.76
549.535	21.78
549.961	21.78
550.387	21.78
550.813	21.81
551.24	21.83
551.666	21.82
552.092	21.81
552.518	21.81
552.943	21.8
553.369	21.79
553.795	21.78
554.221	21.77
554.646	21.75
555.072	21.74
555.498	21.72
555.923	21.68
556.349	21.66
556.774	21.63
557.199	21.6
557.625	21.57
558.05	21.54
558.475	21.49
558.9	21.45
559.325	21.41
559.75	21.36
560.175	21.31
560.6	21.25
561.025	21.19
561.449	21.13
561.874	21.04
562.299	20.98
562.723	20.89
563.148	20.8
563.572	20.7
563.997	20.61
564.421	20.51
564.846	20.41
565.27	20.31
565.694	20.21
566.118	20.1
566.542	20
566.966	19.87
567.39	19.77
567.814	19.66
568.238	19.55
568.662	19.44
569.086	19.32
569.509	19.22
569.933	19.11
570.357	19
570.78	18.89
571.204	18.79
571.627	18.7
572.05	18.6
572.474	18.52
572.897	18.43
573.32	18.33
573.743	18.25
574.166	18.15
574.589	18.06
575.012	17.99
575.435	17.92
575.858	17.85
576.281	17.78
576.704	17.71
577.126	17.64
577.549	17.56
577.972	17.52
578.394	17.46
578.817	17.41
579.239	17.36
579.661	17.31
580.084	17.25
580.506	17.19
580.928	17.14
581.35	17.09
581.772	17.03
582.194	17
582.616	16.93
583.038	16.88
583.46	16.85
583.882	16.81
584.303	16.75
584.725	16.7
585.147	16.66
585.568	16.61
585.99	16.56
586.411	16.51
586.833	16.47
587.254	16.42
587.675	16.39
588.096	16.34
588.518	16.29
588.939	16.27
589.36	16.24
589.781	16.21
590.202	16.18
590.623	16.16
591.043	16.13
591.464	16.1
591.885	16.08
592.305	16.05
592.726	16.04
593.147	16.01
593.567	15.98
593.987	15.96
594.408	15.93
594.828	15.92
595.248	15.89
595.669	15.87
596.089	15.85
596.509	15.83
596.929	15.79
597.349	15.75
597.769	15.72
598.189	15.69
598.608	15.67
599.028	15.64
599.448	15.6
599.867	15.57
600.287	15.54
600.706	15.51
601.126	15.47
601.545	15.43
601.965	15.4
602.384	15.37
602.803	15.33
603.222	15.28
603.641	15.24
604.061	15.2
604.48	15.15
604.898	15.1
605.317	15.04
605.736	14.99
606.155	14.95
606.574	14.89
606.992	14.82
607.411	14.77
607.829	14.68
608.248	14.61
608.666	14.55
609.085	14.49
609.503	14.43
609.921	14.37
610.339	14.31
610.758	14.24
611.176	14.18
611.594	14.13
612.012	14.06
612.43	14.03
612.847	13.97
613.265	13.9
613.683	13.86
614.101	13.82
614.518	13.77
614.936	13.72
615.353	13.66
615.771	13.63
616.188	13.58
616.606	13.54
617.023	13.49
617.44	13.46
617.857	13.44
618.274	13.39
618.691	13.34
619.108	13.29
619.525	13.26
619.942	13.23
620.359	13.19
620.776	13.17
621.192	13.14
621.609	13.12
622.026	13.08
622.442	13.05
622.859	13.04
623.275	13.02
623.691	13.01
624.108	13
624.524	12.98
624.94	12.97
625.356	12.96
625.772	12.94
626.188	12.92
626.604	12.91
627.02	12.9
627.436	12.88
627.852	12.86
628.268	12.84
628.683	12.83
629.099	12.82
629.514	12.8
629.93	12.79
630.345	12.78
630.761	12.76
631.176	12.75
631.591	12.72
632.007	12.7
632.422	12.67
632.837	12.63
633.252	12.59
633.667	12.53
634.082	12.48
634.497	12.42
634.911	12.35
635.326	12.29
635.741	12.23
636.155	12.15
636.57	12.08
636.984	12.01
637.399	11.93
637.813	11.85
638.228	11.77
638.642	11.67
639.056	11.58
639.47	11.5
639.884	11.41
640.298	11.31
640.712	11.21
641.126	11.12
641.54	11.03
641.954	10.92
642.368	10.82
642.781	10.73
643.195	10.65
643.609	10.56
644.022	10.47
644.436	10.39
644.849	10.31
645.262	10.23
645.676	10.15
646.089	10.09
646.502	10.03
646.915	9.98
647.328	9.92
647.741	9.85
648.154	9.81
648.567	9.76
648.98	9.72
649.393	9.67
649.805	9.65
650.218	9.62
650.631	9.59
651.043	9.55
651.456	9.52
651.868	9.47
652.28	9.44
652.693	9.41
653.105	9.38
653.517	9.34
653.929	9.3
654.341	9.24
654.753	9.18
655.165	9.12
655.577	9.07
655.989	9.01
656.401	8.96
656.813	8.89
657.224	8.81
657.636	8.74
658.047	8.68
658.459	8.59
658.87	8.52
659.282	8.44
659.693	8.37
660.104	8.28
660.515	8.21
660.926	8.12
661.338	8.05
661.749	7.99
662.159	7.9
662.57	7.84
662.981	7.78
663.392	7.72
663.803	7.67
664.213	7.61
664.624	7.56
665.035	7.51
665.445	7.48
665.855	7.43
666.266	7.38
666.676	7.37
667.086	7.33
667.497	7.3
667.907	7.28
668.317	7.25
668.727	7.23
669.137	7.21
669.547	7.2
669.956	7.18
670.366	7.19
670.776	7.19
671.186	7.18
671.595	7.18
672.005	7.18
672.414	7.18
672.824	7.19
673.233	7.2
673.642	7.21
674.052	7.23
674.461	7.24
674.87	7.25
675.279	7.26
675.688	7.28
676.097	7.3
676.506	7.34
676.915	7.36
677.323	7.4
677.732	7.43
678.141	7.47
678.549	7.5
678.958	7.55
679.366	7.6
679.775	7.66
680.183	7.72
680.592	7.8
681	7.88
681.408	7.96
681.816	8.05
682.224	8.16
682.632	8.27
683.04	8.39
683.448	8.53
683.856	8.69
684.264	8.84
684.671	9.01
685.079	9.2
685.487	9.41
685.894	9.64
686.302	9.9
686.709	10.17
687.116	10.44
687.524	10.74
687.931	11.05
688.338	11.38
688.745	11.72
689.152	12.08
689.559	12.46
689.966	12.84
690.373	13.22
690.78	13.61
691.187	14.01
691.593	14.43
692	14.84
692.407	15.24
692.813	15.67
693.22	16.08
693.626	16.51
694.032	16.92
694.439	17.34
694.845	17.76
695.251	18.18
695.657	18.58
696.063	18.99
696.469	19.38
696.875	19.79
697.281	20.18
697.687	20.56
698.093	20.93
698.498	21.29
698.904	21.66
699.31	22.01
699.715	22.34
700.12	22.68
700.526	23.02
700.931	23.37
701.337	23.69
701.742	24
702.147	24.31
702.552	24.61
702.957	24.89
703.362	25.17
703.767	25.45
704.172	25.73
704.577	26.01
704.981	26.25
705.386	26.49
705.791	26.74
706.195	26.98
706.6	27.22
707.004	27.45
707.408	27.71
707.813	27.93
708.217	28.14
708.621	28.36
709.025	28.57
709.43	28.77
709.834	28.98
710.237	29.18
710.641	29.36
711.045	29.55
711.449	29.76
711.853	29.95
712.256	30.12
712.66	30.31
713.064	30.47
713.467	30.64
713.87	30.81
714.274	30.97
714.677	31.13
715.08	31.3
715.484	31.46
715.887	31.59
716.29	31.72
716.693	31.89
717.096	32.03
717.499	32.18
717.901	32.33
718.304	32.48
718.707	32.6
719.109	32.72
719.512	32.85
719.915	32.98
720.317	33.1
720.719	33.19
721.122	33.27
721.524	33.38
721.926	33.48
722.328	33.56
722.731	33.64
723.133	33.75
723.535	33.86
723.937	33.94
724.338	34.02
724.74	34.1
725.142	34.23
725.544	34.32
725.945	34.42
726.347	34.48
726.748	34.57
727.15	34.62
727.551	34.69
727.952	34.74
728.354	34.8
728.755	34.86
729.156	34.93
729.557	34.96
729.958	35.01
730.359	35.03
730.76	35.12
731.161	35.14
731.562	35.21
731.962	35.24
732.363	35.29
732.763	35.36
733.164	35.38
733.564	35.42
733.965	35.44
734.365	35.49
734.766	35.52
735.166	35.54
735.566	35.58
735.966	35.63
736.366	35.64
736.766	35.67
737.166	35.67
737.566	35.71
737.966	35.73
738.365	35.76
738.765	35.77
739.165	35.78
739.564	35.8
739.964	35.83
740.363	35.82
740.763	35.87
741.162	35.86
741.561	35.87
741.96	35.87
742.36	35.9
742.759	35.92
743.158	35.96
743.557	35.98
743.955	35.99
744.354	36.01
744.753	36.03
745.152	36.04
745.55	36.08
745.949	36.11
746.348	36.17
746.746	36.19
747.144	36.21
747.543	36.22
747.941	36.27
748.339	36.28
748.737	36.28
749.136	36.29
749.534	36.28
749.932	36.29
750.33	36.29
750.727	36.27
751.125	36.27
751.523	36.24
751.921	36.23
752.318	36.21
752.716	36.2
753.113	36.22
753.511	36.22
753.908	36.24
754.305	36.25
754.703	36.22
755.1	36.21
755.497	36.21
755.894	36.19
756.291	36.19
756.688	36.18
757.085	36.17
757.482	36.16
757.878	36.12
758.275	36.1
758.672	36.09
759.068	36.11
759.465	36.11
759.861	36.1
760.258	36.11
760.654	36.1
761.05	36.09
761.447	36.08
761.843	36.06
762.239	36.07
762.635	36.06
763.031	36.07
763.427	36.06
763.822	36.05
764.218	36.07
764.614	36.09
765.01	36.07
765.405	36.08
765.801	36.09
766.196	36.1
766.592	36.11
766.987	36.1
767.382	36.1
767.778	36.11
768.173	36.12
768.568	36.1
768.963	36.11
769.358	36.13
769.753	36.13
770.148	36.13
770.542	36.15
770.937	36.16
771.332	36.15
771.726	36.13
772.121	36.12
772.515	36.13
772.91	36.13
773.304	36.12
773.699	36.11
774.093	36.1
774.487	36.1
774.881	36.1
775.275	36.08
775.669	36.08
776.063	36.08
776.457	36.09
776.851	36.08
777.245	36.06
777.638	36.05
778.032	36.07
778.425	36.09
778.819	36.08
779.212	36.1
779.606	36.11
779.999	36.13
780.392	36.13
780.786	36.15
781.179	36.15
781.572	36.18
781.965	36.2
