Data from N_3_DEC_VA_2N_Splice17_14-19-49-301.txt Node
Date: Sat Mar 07 14:19:49 EST 2020
User: sa697716
Spectrometer: NQ5500242
Trigger mode: 0
Integration Time (sec): 1.450000E-1
Scans to average: 20
Nonlinearity correction enabled: false
Boxcar width: 5
Storing dark spectrum: false
XAxis mode: Wavelengths
Number of Pixels in Spectrum: 512
>>>>>Begin Spectral Data<<<<<
187.83	74.93
188.298	99.17
188.766	77.05
189.233	72.6
189.701	73.06
190.169	104.4
190.636	98.76
191.104	71.34
191.571	-114.77
192.039	-39.88
192.506	-16.68
192.974	64.19
193.441	133.36
193.908	-10.35
194.375	41.05
194.842	37.69
195.31	91.05
195.777	8.29
196.244	65.65
196.711	78.06
197.177	83.73
197.644	84.71
198.111	85.44
198.578	86.15
199.045	87.04
199.511	86.51
199.978	86.61
200.445	86.97
200.911	87.22
201.378	87.77
201.844	88.18
202.31	87.78
202.777	87.76
203.243	87.65
203.709	87.19
204.176	86.27
204.642	85.9
205.108	85.41
205.574	84.7
206.04	83.62
206.506	82.79
206.972	82.18
207.438	81.45
207.903	80.4
208.369	78.71
208.835	77.14
209.301	75.46
209.766	73.57
210.232	71.64
210.697	69.83
211.163	68.24
211.628	66.52
212.094	64.72
212.559	63.23
213.024	61.81
213.49	60.73
213.955	59.34
214.42	58.17
214.885	56.53
215.35	54.4
215.815	51.64
216.28	48.39
216.745	44.59
217.21	40.79
217.675	37.28
218.14	34.17
218.604	31.43
219.069	29.15
219.534	27.2
219.998	25.57
220.463	24.28
220.927	23.11
221.392	22.15
221.856	21.35
222.32	20.7
222.785	20.1
223.249	19.55
223.713	19.05
224.177	18.64
224.642	18.23
225.106	17.85
225.57	17.46
226.034	17.14
226.497	16.82
226.961	16.53
227.425	16.21
227.889	15.92
228.353	15.66
228.816	15.4
229.28	15.15
229.744	14.93
230.207	14.71
230.671	14.49
231.134	14.28
231.597	14.09
232.061	13.88
232.524	13.7
232.987	13.53
233.45	13.38
233.914	13.2
234.377	13.03
234.84	12.86
235.303	12.71
235.766	12.58
236.229	12.44
236.691	12.31
237.154	12.19
237.617	12.07
238.08	11.96
238.542	11.83
239.005	11.73
239.468	11.62
239.93	11.53
240.393	11.44
240.855	11.3
241.317	11.2
241.78	11.08
242.242	10.97
242.704	10.88
243.166	10.77
243.629	10.68
244.091	10.57
244.553	10.48
245.015	10.38
245.477	10.28
245.939	10.19
246.4	10.1
246.862	10.02
247.324	9.94
247.786	9.84
248.247	9.76
248.709	9.67
249.17	9.57
249.632	9.49
250.093	9.41
250.555	9.34
251.016	9.27
251.477	9.19
251.939	9.12
252.4	9.07
252.861	9
253.322	8.94
253.783	8.89
254.244	8.84
254.705	8.78
255.166	8.74
255.627	8.69
256.088	8.64
256.549	8.59
257.009	8.54
257.47	8.49
257.931	8.44
258.391	8.37
258.852	8.32
259.312	8.27
259.773	8.22
260.233	8.17
260.694	8.12
261.154	8.06
261.614	8.02
262.074	7.96
262.534	7.91
262.994	7.87
263.455	7.83
263.915	7.79
264.374	7.76
264.834	7.72
265.294	7.68
265.754	7.65
266.214	7.62
266.673	7.59
267.133	7.57
267.593	7.55
268.052	7.52
268.512	7.5
268.971	7.48
269.431	7.45
269.89	7.43
270.349	7.42
270.809	7.39
271.268	7.38
271.727	7.36
272.186	7.34
272.645	7.32
273.104	7.3
273.563	7.27
274.022	7.26
274.481	7.25
274.94	7.23
275.399	7.21
275.857	7.2
276.316	7.17
276.775	7.16
277.233	7.15
277.692	7.14
278.15	7.13
278.609	7.12
279.067	7.1
279.525	7.09
279.984	7.08
280.442	7.07
280.9	7.05
281.358	7.04
281.816	7.04
282.274	7.03
282.732	7.01
283.19	7
283.648	6.98
284.106	6.97
284.564	6.97
285.021	6.96
285.479	6.96
285.937	6.95
286.394	6.94
286.852	6.92
287.309	6.91
287.767	6.88
288.224	6.86
288.682	6.85
289.139	6.82
289.596	6.79
290.053	6.75
290.511	6.72
290.968	6.7
291.425	6.66
291.882	6.64
292.339	6.61
292.796	6.6
293.252	6.58
293.709	6.55
294.166	6.54
294.623	6.52
295.079	6.51
295.536	6.5
295.992	6.48
296.449	6.47
296.905	6.46
297.362	6.44
297.818	6.43
298.274	6.42
298.731	6.41
299.187	6.39
299.643	6.37
300.099	6.36
300.555	6.35
301.011	6.33
301.467	6.32
301.923	6.31
302.379	6.29
302.835	6.28
303.291	6.27
303.746	6.26
304.202	6.25
304.658	6.25
305.113	6.24
305.569	6.24
306.024	6.23
306.479	6.22
306.935	6.21
307.39	6.21
307.845	6.21
308.301	6.22
308.756	6.22
309.211	6.23
309.666	6.23
310.121	6.22
310.576	6.22
311.031	6.22
311.486	6.23
311.94	6.24
312.395	6.23
312.85	6.23
313.305	6.22
313.759	6.21
314.214	6.2
314.668	6.19
315.123	6.18
315.577	6.18
316.032	6.16
316.486	6.15
316.94	6.13
317.394	6.11
317.849	6.09
318.303	6.07
318.757	6.05
319.211	6.04
319.665	6.01
320.119	6
320.572	5.98
321.026	5.96
321.48	5.94
321.934	5.93
322.387	5.92
322.841	5.9
323.295	5.9
323.748	5.89
324.202	5.88
324.655	5.88
325.108	5.87
325.562	5.86
326.015	5.87
326.468	5.86
326.921	5.86
327.374	5.85
327.827	5.85
328.28	5.85
328.733	5.85
329.186	5.84
329.639	5.83
330.092	5.83
330.545	5.83
330.997	5.83
331.45	5.83
331.903	5.82
332.355	5.84
332.808	5.84
333.26	5.84
333.713	5.84
334.165	5.84
334.617	5.85
335.069	5.85
335.522	5.86
335.974	5.86
336.426	5.86
336.878	5.87
337.33	5.86
337.782	5.86
338.234	5.87
338.686	5.87
339.137	5.88
339.589	5.87
340.041	5.86
340.493	5.84
340.944	5.82
341.396	5.81
341.847	5.79
342.299	5.77
342.75	5.74
343.201	5.72
343.653	5.69
344.104	5.66
344.555	5.64
345.006	5.63
345.457	5.61
345.908	5.6
346.359	5.59
346.81	5.58
347.261	5.58
347.712	5.57
348.163	5.56
348.613	5.56
349.064	5.55
349.515	5.55
349.965	5.55
350.416	5.54
350.866	5.54
351.317	5.53
351.767	5.53
352.217	5.52
352.668	5.52
353.118	5.52
353.568	5.5
354.018	5.51
354.468	5.51
354.918	5.5
355.368	5.52
355.818	5.52
356.268	5.51
356.718	5.51
357.168	5.51
357.617	5.51
358.067	5.52
358.517	5.53
358.966	5.54
359.416	5.54
359.865	5.54
360.315	5.54
360.764	5.54
361.213	5.54
361.663	5.53
362.112	5.54
362.561	5.54
363.01	5.55
363.459	5.54
363.908	5.53
364.357	5.52
364.806	5.51
365.255	5.52
365.703	5.52
366.152	5.52
366.601	5.53
367.05	5.53
367.498	5.52
367.947	5.52
368.395	5.52
368.844	5.52
369.292	5.51
369.74	5.52
370.189	5.51
370.637	5.5
371.085	5.49
371.533	5.49
371.981	5.48
372.429	5.48
372.877	5.47
373.325	5.48
373.773	5.47
374.221	5.47
374.669	5.45
375.116	5.45
375.564	5.44
376.012	5.44
376.459	5.44
376.907	5.45
377.354	5.45
377.801	5.45
378.249	5.45
378.696	5.44
379.143	5.44
379.591	5.45
380.038	5.46
380.485	5.47
380.932	5.48
381.379	5.48
381.826	5.47
382.273	5.48
382.72	5.47
383.166	5.46
383.613	5.47
384.06	5.45
384.506	5.45
384.953	5.45
385.4	5.46
385.846	5.46
386.292	5.47
386.739	5.47
387.185	5.48
387.631	5.49
388.078	5.51
388.524	5.52
388.97	5.53
389.416	5.55
389.862	5.56
390.308	5.58
390.754	5.59
391.2	5.61
391.645	5.63
392.091	5.66
392.537	5.69
392.983	5.7
393.428	5.73
393.874	5.75
394.319	5.77
394.765	5.78
395.21	5.79
395.655	5.81
396.101	5.85
396.546	5.87
396.991	5.9
397.436	5.92
397.881	5.96
398.326	5.99
398.771	6.02
399.216	6.06
399.661	6.1
400.106	6.13
400.551	6.14
400.995	6.15
401.44	6.16
401.885	6.18
402.329	6.19
402.774	6.2
403.218	6.22
403.663	6.25
404.107	6.26
404.551	6.27
404.995	6.28
405.44	6.29
405.884	6.31
406.328	6.34
406.772	6.34
407.216	6.37
407.66	6.37
408.104	6.38
408.547	6.38
408.991	6.4
409.435	6.42
409.879	6.44
410.322	6.47
410.766	6.49
411.209	6.53
411.653	6.56
412.096	6.58
412.54	6.61
412.983	6.64
413.426	6.68
413.869	6.7
414.312	6.74
414.756	6.77
415.199	6.78
415.642	6.81
416.085	6.82
416.527	6.83
416.97	6.84
417.413	6.83
417.856	6.82
418.298	6.8
418.741	6.79
419.184	6.78
419.626	6.77
420.069	6.77
420.511	6.77
420.953	6.76
421.396	6.77
421.838	6.78
422.28	6.8
422.722	6.83
423.164	6.85
423.606	6.87
424.048	6.88
424.49	6.9
424.932	6.91
425.374	6.89
425.816	6.87
426.258	6.85
426.699	6.82
427.141	6.81
427.582	6.8
428.024	6.81
428.465	6.82
428.907	6.82
429.348	6.8
429.789	6.8
430.231	6.83
430.672	6.86
431.113	6.9
431.554	6.92
431.995	6.94
432.436	6.94
432.877	6.94
433.318	6.94
433.759	6.97
434.2	7
434.64	7.02
435.081	7.04
435.522	7.07
435.962	7.08
436.403	7.12
436.843	7.14
437.284	7.15
437.724	7.17
438.164	7.17
438.604	7.18
439.045	7.17
439.485	7.17
439.925	7.16
440.365	7.16
440.805	7.16
441.245	7.17
441.685	7.18
442.125	7.23
442.564	7.25
443.004	7.28
443.444	7.3
443.883	7.32
444.323	7.34
444.762	7.38
445.202	7.39
445.641	7.41
446.081	7.44
446.52	7.44
446.959	7.45
447.398	7.47
447.837	7.47
448.276	7.48
448.716	7.51
449.154	7.53
449.593	7.54
450.032	7.55
450.471	7.53
450.91	7.51
451.349	7.51
451.787	7.49
452.226	7.46
452.664	7.46
453.103	7.43
453.541	7.41
453.98	7.4
454.418	7.38
454.856	7.35
455.295	7.33
455.733	7.3
456.171	7.28
456.609	7.27
457.047	7.24
457.485	7.21
457.923	7.19
458.361	7.17
458.798	7.15
459.236	7.14
459.674	7.14
460.111	7.13
460.549	7.14
460.987	7.15
461.424	7.15
461.862	7.16
462.299	7.17
462.736	7.16
463.173	7.18
463.611	7.17
464.048	7.17
464.485	7.15
464.922	7.16
465.359	7.16
465.796	7.15
466.233	7.15
466.67	7.14
467.106	7.16
467.543	7.17
467.98	7.15
468.416	7.15
468.853	7.15
469.29	7.15
469.726	7.14
470.162	7.13
470.599	7.14
471.035	7.13
471.471	7.12
471.907	7.11
472.344	7.11
472.78	7.12
473.216	7.11
473.652	7.13
474.088	7.11
474.523	7.1
474.959	7.09
475.395	7.06
475.831	7.05
476.266	7.05
476.702	7.04
477.138	7.02
477.573	7.01
478.008	7.01
478.444	6.97
478.879	6.98
479.314	6.96
479.75	6.95
480.185	6.94
480.62	6.93
481.055	6.91
481.49	6.9
481.925	6.89
482.36	6.88
482.795	6.87
483.229	6.86
483.664	6.86
484.099	6.86
484.534	6.86
484.968	6.86
485.403	6.86
485.837	6.87
486.271	6.89
486.706	6.88
487.14	6.9
487.574	6.91
488.009	6.92
488.443	6.93
488.877	6.96
489.311	6.98
489.745	7
490.179	7.03
490.613	7.06
491.046	7.09
491.48	7.13
491.914	7.17
492.348	7.21
492.781	7.26
493.215	7.3
493.648	7.36
494.082	7.41
494.515	7.47
494.948	7.52
495.382	7.58
495.815	7.66
496.248	7.72
496.681	7.79
497.114	7.87
497.547	7.94
497.98	8.03
498.413	8.1
498.846	8.2
499.279	8.3
499.711	8.41
500.144	8.52
500.577	8.63
501.009	8.75
501.442	8.88
501.874	9.02
502.306	9.16
502.739	9.32
503.171	9.47
503.603	9.62
504.036	9.79
504.468	9.96
504.9	10.12
505.332	10.3
505.764	10.48
506.196	10.68
506.627	10.87
507.059	11.07
507.491	11.27
507.923	11.49
508.354	11.73
508.786	11.98
509.217	12.23
509.649	12.48
510.08	12.74
510.512	13.01
510.943	13.27
511.374	13.55
511.805	13.84
512.237	14.13
512.668	14.44
513.099	14.71
513.53	15.01
513.961	15.3
514.391	15.62
514.822	15.94
515.253	16.26
515.684	16.59
516.114	16.92
516.545	17.25
516.975	17.58
517.406	17.9
517.836	18.24
518.267	18.58
518.697	18.92
519.127	19.25
519.558	19.59
519.988	19.91
520.418	20.22
520.848	20.53
521.278	20.87
521.708	21.28
522.138	21.6
522.567	21.91
522.997	22.19
523.427	22.48
523.857	22.76
524.286	23.02
524.716	23.3
525.145	23.56
525.575	23.81
526.004	24.05
526.433	24.18
526.863	24.4
527.292	24.62
527.721	24.82
528.15	25.01
528.579	25.19
529.008	25.37
529.437	25.52
529.866	25.68
530.295	25.84
530.724	25.98
531.152	26.12
531.581	26.26
532.01	26.37
532.438	26.5
532.867	26.62
533.295	26.73
533.723	26.83
534.152	26.92
534.58	27.01
535.008	27.07
535.436	27.14
535.865	27.19
536.293	27.26
536.721	27.31
537.149	27.35
537.576	27.4
538.004	27.42
538.432	27.45
538.86	27.48
539.287	27.5
539.715	27.56
540.143	27.59
540.57	27.61
540.998	27.62
541.425	27.66
541.852	27.68
542.28	27.7
542.707	27.75
543.134	27.79
543.561	27.84
543.988	27.87
544.415	27.88
544.842	27.91
545.269	27.97
545.696	28
546.123	28.04
546.549	28.08
546.976	28.11
547.403	28.15
547.829	28.18
548.256	28.2
548.682	28.23
549.108	28.27
549.535	28.3
549.961	28.3
550.387	28.3
550.813	28.31
551.24	28.31
551.666	28.31
552.092	28.29
552.518	28.28
552.943	28.27
553.369	28.25
553.795	28.21
554.221	28.19
554.646	28.15
555.072	28.12
555.498	28.07
555.923	28.01
556.349	27.95
556.774	27.89
557.199	27.82
557.625	27.72
558.05	27.63
558.475	27.55
558.9	27.47
559.325	27.4
559.75	27.27
560.175	27.16
560.6	27.06
561.025	26.94
561.449	26.8
561.874	26.67
562.299	26.54
562.723	26.4
563.148	26.24
563.572	26.04
563.997	25.86
564.421	25.69
564.846	25.52
565.27	25.33
565.694	25.15
566.118	24.95
566.542	24.76
566.966	24.57
567.39	24.37
567.814	24.16
568.238	23.97
568.662	23.76
569.086	23.57
569.509	23.39
569.933	23.19
570.357	22.99
570.78	22.8
571.204	22.61
571.627	22.43
572.05	22.25
572.474	22.1
572.897	21.95
573.32	21.8
573.743	21.63
574.166	21.47
574.589	21.34
575.012	21.19
575.435	21.06
575.858	20.93
576.281	20.79
576.704	20.68
577.126	20.56
577.549	20.44
577.972	20.32
578.394	20.2
578.817	20.1
579.239	19.98
579.661	19.88
580.084	19.78
580.506	19.7
580.928	19.6
581.35	19.52
581.772	19.43
582.194	19.34
582.616	19.25
583.038	19.19
583.46	19.1
583.882	19.02
584.303	18.94
584.725	18.87
585.147	18.79
585.568	18.73
585.99	18.64
586.411	18.56
586.833	18.48
587.254	18.4
587.675	18.32
588.096	18.27
588.518	18.2
588.939	18.13
589.36	18.08
589.781	18.02
590.202	17.96
590.623	17.91
591.043	17.85
591.464	17.82
591.885	17.77
592.305	17.73
592.726	17.68
593.147	17.65
593.567	17.61
593.987	17.56
594.408	17.52
594.828	17.47
595.248	17.44
595.669	17.39
596.089	17.33
596.509	17.3
596.929	17.26
597.349	17.2
597.769	17.15
598.189	17.1
598.608	17.07
599.028	17.03
599.448	16.98
599.867	16.93
600.287	16.89
600.706	16.85
601.126	16.78
601.545	16.74
601.965	16.69
602.384	16.64
602.803	16.57
603.222	16.51
603.641	16.44
604.061	16.38
604.48	16.31
604.898	16.23
605.317	16.17
605.736	16.1
606.155	16.02
606.574	15.95
606.992	15.86
607.411	15.79
607.829	15.68
608.248	15.59
608.666	15.5
609.085	15.41
609.503	15.33
609.921	15.25
610.339	15.17
610.758	15.09
611.176	14.99
611.594	14.91
612.012	14.82
612.43	14.75
612.847	14.67
613.265	14.59
613.683	14.52
614.101	14.44
614.518	14.36
614.936	14.26
615.353	14.18
615.771	14.12
616.188	14.05
616.606	13.99
617.023	13.94
617.44	13.87
617.857	13.82
618.274	13.76
618.691	13.71
619.108	13.65
619.525	13.62
619.942	13.57
620.359	13.53
620.776	13.49
621.192	13.46
621.609	13.43
622.026	13.39
622.442	13.36
622.859	13.33
623.275	13.3
623.691	13.28
624.108	13.26
624.524	13.24
624.94	13.23
625.356	13.21
625.772	13.19
626.188	13.17
626.604	13.16
627.02	13.14
627.436	13.14
627.852	13.12
628.268	13.1
628.683	13.09
629.099	13.08
629.514	13.04
629.93	13.02
630.345	12.98
630.761	12.94
631.176	12.89
631.591	12.83
632.007	12.77
632.422	12.71
632.837	12.66
633.252	12.58
633.667	12.5
634.082	12.42
634.497	12.34
634.911	12.24
635.326	12.16
635.741	12.07
636.155	11.97
636.57	11.87
636.984	11.76
637.399	11.63
637.813	11.52
638.228	11.39
638.642	11.26
639.056	11.13
639.47	11.01
639.884	10.89
640.298	10.75
640.712	10.63
641.126	10.51
641.54	10.38
641.954	10.27
642.368	10.15
642.781	10.05
643.195	9.93
643.609	9.84
644.022	9.73
644.436	9.63
644.849	9.54
645.262	9.45
645.676	9.37
646.089	9.28
646.502	9.21
646.915	9.14
647.328	9.07
647.741	9.01
648.154	8.95
648.567	8.9
648.98	8.86
649.393	8.82
649.805	8.78
650.218	8.74
650.631	8.71
651.043	8.68
651.456	8.65
651.868	8.62
652.28	8.59
652.693	8.56
653.105	8.52
653.517	8.49
653.929	8.44
654.341	8.4
654.753	8.35
655.165	8.3
655.577	8.24
655.989	8.17
656.401	8.11
656.813	8.06
657.224	7.98
657.636	7.91
658.047	7.86
658.459	7.78
658.87	7.71
659.282	7.63
659.693	7.56
660.104	7.49
660.515	7.43
660.926	7.36
661.338	7.3
661.749	7.23
662.159	7.16
662.57	7.1
662.981	7.05
663.392	7.01
663.803	6.97
664.213	6.92
664.624	6.87
665.035	6.83
665.445	6.8
665.855	6.76
666.266	6.74
666.676	6.74
667.086	6.72
667.497	6.69
667.907	6.66
668.317	6.65
668.727	6.63
669.137	6.63
669.547	6.63
669.956	6.62
670.366	6.63
670.776	6.64
671.186	6.63
671.595	6.63
672.005	6.64
672.414	6.67
672.824	6.67
673.233	6.7
673.642	6.72
674.052	6.73
674.461	6.76
674.87	6.77
675.279	6.79
675.688	6.83
676.097	6.87
676.506	6.91
676.915	6.95
677.323	7
677.732	7.04
678.141	7.09
678.549	7.14
678.958	7.2
679.366	7.27
679.775	7.33
680.183	7.4
680.592	7.48
681	7.57
681.408	7.66
681.816	7.76
682.224	7.86
682.632	7.99
683.04	8.12
683.448	8.26
683.856	8.41
684.264	8.59
684.671	8.78
685.079	8.98
685.487	9.21
685.894	9.48
686.302	9.76
686.709	10.07
687.116	10.4
687.524	10.76
687.931	11.15
688.338	11.57
688.745	12.01
689.152	12.47
689.559	13
689.966	13.51
690.373	14.05
690.78	14.63
691.187	15.21
691.593	15.81
692	16.44
692.407	17.06
692.813	17.72
693.22	18.39
693.626	19.08
694.032	19.76
694.439	20.45
694.845	21.15
695.251	21.86
695.657	22.56
696.063	23.29
696.469	24.02
696.875	24.74
697.281	25.46
697.687	26.18
698.093	26.89
698.498	27.59
698.904	28.28
699.31	28.97
699.715	29.64
700.12	30.31
700.526	30.96
700.931	31.6
701.337	32.24
701.742	32.85
702.147	33.48
702.552	34.08
702.957	34.66
703.362	35.25
703.767	35.8
704.172	36.37
704.577	36.93
704.981	37.47
705.386	38.01
705.791	38.53
706.195	39.08
706.6	39.59
707.004	40.07
707.408	40.6
707.813	41.08
708.217	41.6
708.621	42.09
709.025	42.53
709.43	43.01
709.834	43.48
710.237	43.93
710.641	44.36
711.045	44.8
711.449	45.25
711.853	45.67
712.256	46.11
712.66	46.5
713.064	46.9
713.467	47.32
713.87	47.69
714.274	48.05
714.677	48.43
715.08	48.8
715.484	49.17
715.887	49.53
716.29	49.88
716.693	50.22
717.096	50.57
717.499	50.91
717.901	51.22
718.304	51.57
718.707	51.92
719.109	52.23
719.512	52.54
719.915	52.83
720.317	53.1
720.719	53.37
721.122	53.64
721.524	53.9
721.926	54.14
722.328	54.4
722.731	54.62
723.133	54.87
723.535	55.1
723.937	55.33
724.338	55.55
724.74	55.78
725.142	56.03
725.544	56.24
725.945	56.43
726.347	56.63
726.748	56.82
727.15	56.97
727.551	57.14
727.952	57.29
728.354	57.45
728.755	57.58
729.156	57.72
729.557	57.82
729.958	57.94
730.359	58.11
730.76	58.26
731.161	58.37
731.562	58.5
731.962	58.62
732.363	58.72
732.763	58.83
733.164	58.96
733.564	59.05
733.965	59.16
734.365	59.24
734.766	59.31
735.166	59.41
735.566	59.49
735.966	59.57
736.366	59.63
736.766	59.72
737.166	59.78
737.566	59.86
737.966	59.91
738.365	59.99
738.765	60.07
739.165	60.13
739.564	60.17
739.964	60.23
740.363	60.28
740.763	60.35
741.162	60.41
741.561	60.44
741.96	60.47
742.36	60.54
742.759	60.54
743.158	60.58
743.557	60.63
743.955	60.63
744.354	60.7
744.753	60.77
745.152	60.82
745.55	60.87
745.949	60.94
746.348	61.01
746.746	61.04
747.144	61.11
747.543	61.15
747.941	61.18
748.339	61.24
748.737	61.23
749.136	61.24
749.534	61.24
749.932	61.23
750.33	61.22
750.727	61.23
751.125	61.23
751.523	61.2
751.921	61.19
752.318	61.2
752.716	61.19
753.113	61.21
753.511	61.22
753.908	61.23
754.305	61.24
754.703	61.22
755.1	61.21
755.497	61.21
755.894	61.2
756.291	61.18
756.688	61.12
757.085	61.12
757.482	61.09
757.878	61.05
758.275	61.02
758.672	60.97
759.068	61
759.465	60.99
759.861	60.98
760.258	60.96
760.654	61
761.05	61.03
761.447	61.04
761.843	61.01
762.239	61.02
762.635	61.03
763.031	61.03
763.427	61.01
763.822	61.04
764.218	61.04
764.614	61.09
765.01	61.08
765.405	61.07
765.801	61.04
766.196	61.06
766.592	61.06
766.987	61.06
767.382	61.06
767.778	61.06
768.173	61.05
768.568	61.04
768.963	61.02
769.358	61.04
769.753	61.03
770.148	61.06
770.542	61.08
770.937	61.08
771.332	61.06
771.726	61.06
772.121	61.07
772.515	61.06
772.91	61.07
773.304	61.07
773.699	61.05
774.093	61.04
774.487	61
774.881	61.04
775.275	61.04
775.669	61.04
776.063	61.07
776.457	61.07
776.851	61.06
777.245	61.03
777.638	61.02
778.032	61.04
778.425	61.08
778.819	61.08
779.212	61.05
779.606	61.1
779.999	61.11
780.392	61.14
780.786	61.16
