Data from N_3_HIR_WI_4N_Splice17_14-07-54-588.txt Node
Date: Sat Mar 07 14:07:54 EST 2020
User: sa697716
Spectrometer: NQ5500242
Trigger mode: 0
Integration Time (sec): 1.450000E-1
Scans to average: 20
Nonlinearity correction enabled: false
Boxcar width: 5
Storing dark spectrum: false
XAxis mode: Wavelengths
Number of Pixels in Spectrum: 512
>>>>>Begin Spectral Data<<<<<
187.83	120.41
188.298	116.56
188.766	97.29
189.233	92.43
189.701	71.18
190.169	78.88
190.636	58.81
191.104	-43.1
191.571	-303.79
192.039	-281.7
192.506	-1129.76
192.974	277.78
193.441	173.53
193.908	69.49
194.375	38.48
194.842	-60.99
195.31	-32.87
195.777	-77.17
196.244	46.87
196.711	61.65
197.177	64.44
197.644	64.18
198.111	64.64
198.578	65.57
199.045	66.03
199.511	66.1
199.978	66.42
200.445	66.51
200.911	66.4
201.378	66.44
201.844	66.21
202.31	65.72
202.777	65.54
203.243	65.31
203.709	64.57
204.176	63.87
204.642	63.6
205.108	63.03
205.574	62.03
206.04	61.2
206.506	60.7
206.972	60.37
207.438	59.73
207.903	58.99
208.369	57.96
208.835	56.88
209.301	55.28
209.766	53.49
210.232	51.89
210.697	50.4
211.163	49.2
211.628	47.74
212.094	46.39
212.559	45.31
213.024	44.15
213.49	43.08
213.955	42.03
214.42	41.07
214.885	39.85
215.35	38.24
215.815	36.2
216.28	33.48
216.745	30.41
217.21	27.21
217.675	24.27
218.14	21.73
218.604	19.55
219.069	17.7
219.534	16.19
219.998	14.94
220.463	13.89
220.927	12.97
221.392	12.22
221.856	11.66
222.32	11.17
222.785	10.78
223.249	10.38
223.713	10.02
224.177	9.74
224.642	9.45
225.106	9.17
225.57	8.91
226.034	8.67
226.497	8.46
226.961	8.23
227.425	8.05
227.889	7.84
228.353	7.66
228.816	7.49
229.28	7.32
229.744	7.17
230.207	7.02
230.671	6.89
231.134	6.78
231.597	6.67
232.061	6.55
232.524	6.43
232.987	6.33
233.45	6.24
233.914	6.16
234.377	6.05
234.84	5.95
235.303	5.9
235.766	5.82
236.229	5.74
236.691	5.66
237.154	5.6
237.617	5.54
238.08	5.47
238.542	5.41
239.005	5.35
239.468	5.31
239.93	5.27
240.393	5.2
240.855	5.14
241.317	5.08
241.78	5.02
242.242	4.96
242.704	4.91
243.166	4.86
243.629	4.81
244.091	4.75
244.553	4.7
245.015	4.65
245.477	4.6
245.939	4.54
246.4	4.49
246.862	4.45
247.324	4.42
247.786	4.36
248.247	4.31
248.709	4.26
249.17	4.21
249.632	4.18
250.093	4.15
250.555	4.11
251.016	4.08
251.477	4.04
251.939	4.02
252.4	3.98
252.861	3.94
253.322	3.92
253.783	3.9
254.244	3.88
254.705	3.85
255.166	3.82
255.627	3.8
256.088	3.78
256.549	3.76
257.009	3.73
257.47	3.7
257.931	3.68
258.391	3.64
258.852	3.61
259.312	3.58
259.773	3.55
260.233	3.52
260.694	3.49
261.154	3.45
261.614	3.42
262.074	3.38
262.534	3.35
262.994	3.32
263.455	3.29
263.915	3.26
264.374	3.22
264.834	3.2
265.294	3.17
265.754	3.15
266.214	3.12
266.673	3.1
267.133	3.08
267.593	3.06
268.052	3.05
268.512	3.04
268.971	3.02
269.431	3.01
269.89	2.99
270.349	2.98
270.809	2.97
271.268	2.96
271.727	2.95
272.186	2.95
272.645	2.94
273.104	2.92
273.563	2.92
274.022	2.91
274.481	2.91
274.94	2.9
275.399	2.89
275.857	2.89
276.316	2.87
276.775	2.86
277.233	2.86
277.692	2.86
278.15	2.85
278.609	2.85
279.067	2.84
279.525	2.84
279.984	2.84
280.442	2.84
280.9	2.84
281.358	2.85
281.816	2.85
282.274	2.85
282.732	2.85
283.19	2.85
283.648	2.85
284.106	2.85
284.564	2.86
285.021	2.86
285.479	2.86
285.937	2.86
286.394	2.85
286.852	2.84
287.309	2.84
287.767	2.82
288.224	2.81
288.682	2.8
289.139	2.78
289.596	2.77
290.053	2.74
290.511	2.72
290.968	2.71
291.425	2.69
291.882	2.67
292.339	2.65
292.796	2.65
293.252	2.65
293.709	2.64
294.166	2.63
294.623	2.62
295.079	2.62
295.536	2.62
295.992	2.61
296.449	2.6
296.905	2.6
297.362	2.6
297.818	2.59
298.274	2.59
298.731	2.58
299.187	2.57
299.643	2.57
300.099	2.56
300.555	2.55
301.011	2.55
301.467	2.55
301.923	2.54
302.379	2.54
302.835	2.54
303.291	2.54
303.746	2.54
304.202	2.54
304.658	2.54
305.113	2.54
305.569	2.55
306.024	2.55
306.479	2.55
306.935	2.55
307.39	2.55
307.845	2.55
308.301	2.55
308.756	2.56
309.211	2.56
309.666	2.57
310.121	2.57
310.576	2.58
311.031	2.58
311.486	2.59
311.94	2.6
312.395	2.6
312.85	2.61
313.305	2.61
313.759	2.62
314.214	2.62
314.668	2.62
315.123	2.61
315.577	2.61
316.032	2.61
316.486	2.6
316.94	2.6
317.394	2.59
317.849	2.58
318.303	2.57
318.757	2.56
319.211	2.55
319.665	2.54
320.119	2.52
320.572	2.51
321.026	2.5
321.48	2.49
321.934	2.49
322.387	2.48
322.841	2.47
323.295	2.47
323.748	2.48
324.202	2.48
324.655	2.48
325.108	2.49
325.562	2.49
326.015	2.49
326.468	2.5
326.921	2.5
327.374	2.5
327.827	2.51
328.28	2.51
328.733	2.51
329.186	2.51
329.639	2.51
330.092	2.52
330.545	2.52
330.997	2.52
331.45	2.53
331.903	2.54
332.355	2.55
332.808	2.56
333.26	2.56
333.713	2.56
334.165	2.56
334.617	2.57
335.069	2.57
335.522	2.58
335.974	2.59
336.426	2.59
336.878	2.59
337.33	2.59
337.782	2.59
338.234	2.6
338.686	2.61
339.137	2.62
339.589	2.6
340.041	2.61
340.493	2.6
340.944	2.59
341.396	2.58
341.847	2.57
342.299	2.56
342.75	2.55
343.201	2.54
343.653	2.52
344.104	2.51
344.555	2.5
345.006	2.49
345.457	2.48
345.908	2.48
346.359	2.48
346.81	2.47
347.261	2.47
347.712	2.48
348.163	2.47
348.613	2.47
349.064	2.48
349.515	2.49
349.965	2.5
350.416	2.5
350.866	2.51
351.317	2.51
351.767	2.52
352.217	2.53
352.668	2.54
353.118	2.55
353.568	2.55
354.018	2.56
354.468	2.57
354.918	2.59
355.368	2.61
355.818	2.62
356.268	2.64
356.718	2.66
357.168	2.66
357.617	2.68
358.067	2.7
358.517	2.74
358.966	2.77
359.416	2.8
359.865	2.82
360.315	2.87
360.764	2.9
361.213	2.92
361.663	2.96
362.112	3.01
362.561	3.06
363.01	3.1
363.459	3.14
363.908	3.2
364.357	3.26
364.806	3.32
365.255	3.38
365.703	3.46
366.152	3.55
366.601	3.63
367.05	3.72
367.498	3.81
367.947	3.92
368.395	4.04
368.844	4.15
369.292	4.26
369.74	4.39
370.189	4.51
370.637	4.63
371.085	4.75
371.533	4.88
371.981	5.02
372.429	5.14
372.877	5.27
373.325	5.41
373.773	5.57
374.221	5.71
374.669	5.85
375.116	5.99
375.564	6.13
376.012	6.29
376.459	6.45
376.907	6.61
377.354	6.77
377.801	6.92
378.249	7.07
378.696	7.21
379.143	7.37
379.591	7.52
380.038	7.67
380.485	7.82
380.932	7.96
381.379	8.1
381.826	8.22
382.273	8.36
382.72	8.48
383.166	8.62
383.613	8.75
384.06	8.86
384.506	8.98
384.953	9.1
385.4	9.22
385.846	9.35
386.292	9.45
386.739	9.56
387.185	9.65
387.631	9.76
388.078	9.86
388.524	9.95
388.97	10.04
389.416	10.12
389.862	10.2
390.308	10.26
390.754	10.33
391.2	10.4
391.645	10.47
392.091	10.54
392.537	10.61
392.983	10.65
393.428	10.71
393.874	10.76
394.319	10.79
394.765	10.81
395.21	10.83
395.655	10.85
396.101	10.87
396.546	10.87
396.991	10.89
397.436	10.9
397.881	10.91
398.326	10.91
398.771	10.92
399.216	10.93
399.661	10.93
400.106	10.93
400.551	10.9
400.995	10.86
401.44	10.84
401.885	10.8
402.329	10.76
402.774	10.72
403.218	10.69
403.663	10.65
404.107	10.61
404.551	10.58
404.995	10.53
405.44	10.5
405.884	10.47
406.328	10.44
406.772	10.4
407.216	10.36
407.66	10.32
408.104	10.27
408.547	10.22
408.991	10.18
409.435	10.14
409.879	10.11
410.322	10.09
410.766	10.05
411.209	10.03
411.653	10.01
412.096	9.98
412.54	9.97
412.983	9.96
413.426	9.96
413.869	9.94
414.312	9.95
414.756	9.95
415.199	9.92
415.642	9.91
416.085	9.9
416.527	9.87
416.97	9.83
417.413	9.79
417.856	9.76
418.298	9.72
418.741	9.69
419.184	9.66
419.626	9.63
420.069	9.61
420.511	9.58
420.953	9.55
421.396	9.54
421.838	9.54
422.28	9.54
422.722	9.55
423.164	9.54
423.606	9.54
424.048	9.52
424.49	9.51
424.932	9.48
425.374	9.46
425.816	9.41
426.258	9.37
426.699	9.34
427.141	9.3
427.582	9.27
428.024	9.25
428.465	9.25
428.907	9.23
429.348	9.21
429.789	9.21
430.231	9.21
430.672	9.23
431.113	9.26
431.554	9.28
431.995	9.31
432.436	9.32
432.877	9.35
433.318	9.35
433.759	9.37
434.2	9.41
434.64	9.44
435.081	9.47
435.522	9.53
435.962	9.58
436.403	9.64
436.843	9.69
437.284	9.72
437.724	9.75
438.164	9.81
438.604	9.86
439.045	9.9
439.485	9.95
439.925	10
440.365	10.04
440.805	10.08
441.245	10.14
441.685	10.2
442.125	10.3
442.564	10.39
443.004	10.45
443.444	10.54
443.883	10.63
444.323	10.73
444.762	10.85
445.202	10.96
445.641	11.07
446.081	11.18
446.52	11.29
446.959	11.41
447.398	11.52
447.837	11.64
448.276	11.74
448.716	11.86
449.154	11.97
449.593	12.06
450.032	12.16
450.471	12.24
450.91	12.3
451.349	12.39
451.787	12.42
452.226	12.49
452.664	12.55
453.103	12.6
453.541	12.63
453.98	12.68
454.418	12.71
454.856	12.75
455.295	12.77
455.733	12.79
456.171	12.83
456.609	12.88
457.047	12.89
457.485	12.9
457.923	12.94
458.361	12.98
458.798	13
459.236	13.02
459.674	13.03
460.111	13.06
460.549	13.1
460.987	13.13
461.424	13.16
461.862	13.18
462.299	13.22
462.736	13.24
463.173	13.26
463.611	13.28
464.048	13.3
464.485	13.32
464.922	13.33
465.359	13.34
465.796	13.34
466.233	13.36
466.67	13.39
467.106	13.42
467.543	13.42
467.98	13.44
468.416	13.45
468.853	13.47
469.29	13.47
469.726	13.5
470.162	13.52
470.599	13.54
471.035	13.52
471.471	13.51
471.907	13.5
472.344	13.52
472.78	13.54
473.216	13.54
473.652	13.54
474.088	13.55
474.523	13.55
474.959	13.55
475.395	13.55
475.831	13.57
476.266	13.58
476.702	13.59
477.138	13.59
477.573	13.59
478.008	13.61
478.444	13.6
478.879	13.62
479.314	13.63
479.75	13.64
480.185	13.65
480.62	13.67
481.055	13.7
481.49	13.73
481.925	13.77
482.36	13.81
482.795	13.83
483.229	13.89
483.664	13.95
484.099	14
484.534	14.06
484.968	14.14
485.403	14.22
485.837	14.31
486.271	14.4
486.706	14.49
487.14	14.59
487.574	14.71
488.009	14.83
488.443	14.94
488.877	15.07
489.311	15.22
489.745	15.36
490.179	15.5
490.613	15.65
491.046	15.81
491.48	15.99
491.914	16.16
492.348	16.34
492.781	16.54
493.215	16.76
493.648	16.97
494.082	17.17
494.515	17.39
494.948	17.62
495.382	17.86
495.815	18.11
496.248	18.36
496.681	18.62
497.114	18.88
497.547	19.14
497.98	19.4
498.413	19.68
498.846	19.96
499.279	20.24
499.711	20.53
500.144	20.83
500.577	21.12
501.009	21.43
501.442	21.73
501.874	22.05
502.306	22.36
502.739	22.71
503.171	23.04
503.603	23.37
504.036	23.7
504.468	24.04
504.9	24.37
505.332	24.73
505.764	25.07
506.196	25.43
506.627	25.78
507.059	26.14
507.491	26.48
507.923	26.85
508.354	27.22
508.786	27.6
509.217	27.97
509.649	28.35
510.08	28.71
510.512	29.09
510.943	29.46
511.374	29.82
511.805	30.2
512.237	30.57
512.668	30.94
513.099	31.28
513.53	31.63
513.961	31.99
514.391	32.35
514.822	32.71
515.253	33.05
515.684	33.37
516.114	33.7
516.545	34
516.975	34.33
517.406	34.64
517.836	34.94
518.267	35.25
518.697	35.53
519.127	35.79
519.558	36.07
519.988	36.35
520.418	36.64
520.848	36.91
521.278	37.16
521.708	37.52
522.138	37.76
522.567	37.99
522.997	38.2
523.427	38.43
523.857	38.64
524.286	38.84
524.716	39.02
525.145	39.19
525.575	39.38
526.004	39.55
526.433	39.61
526.863	39.77
527.292	39.94
527.721	40.09
528.15	40.23
528.579	40.37
529.008	40.5
529.437	40.62
529.866	40.74
530.295	40.87
530.724	40.99
531.152	41.11
531.581	41.22
532.01	41.32
532.438	41.43
532.867	41.52
533.295	41.59
533.723	41.66
534.152	41.73
534.58	41.8
535.008	41.82
535.436	41.89
535.865	41.91
536.293	41.96
536.721	42.02
537.149	42.04
537.576	42.07
538.004	42.12
538.432	42.16
538.86	42.21
539.287	42.24
539.715	42.3
540.143	42.32
540.57	42.38
540.998	42.39
541.425	42.43
541.852	42.48
542.28	42.53
542.707	42.56
543.134	42.61
543.561	42.65
543.988	42.69
544.415	42.72
544.842	42.75
545.269	42.77
545.696	42.82
546.123	42.83
546.549	42.86
546.976	42.89
547.403	42.93
547.829	42.95
548.256	43
548.682	43.04
549.108	43.08
549.535	43.13
549.961	43.15
550.387	43.18
550.813	43.22
551.24	43.25
551.666	43.28
552.092	43.29
552.518	43.29
552.943	43.29
553.369	43.27
553.795	43.27
554.221	43.28
554.646	43.29
555.072	43.29
555.498	43.28
555.923	43.25
556.349	43.23
556.774	43.19
557.199	43.19
557.625	43.17
558.05	43.15
558.475	43.12
558.9	43.1
559.325	43.07
559.75	43.02
560.175	42.98
560.6	42.94
561.025	42.89
561.449	42.83
561.874	42.76
562.299	42.68
562.723	42.6
563.148	42.53
563.572	42.41
563.997	42.32
564.421	42.22
564.846	42.12
565.27	42.01
565.694	41.91
566.118	41.79
566.542	41.69
566.966	41.59
567.39	41.49
567.814	41.36
568.238	41.24
568.662	41.1
569.086	40.97
569.509	40.84
569.933	40.72
570.357	40.59
570.78	40.46
571.204	40.34
571.627	40.2
572.05	40.08
572.474	39.98
572.897	39.89
573.32	39.79
573.743	39.69
574.166	39.62
574.589	39.53
575.012	39.46
575.435	39.39
575.858	39.29
576.281	39.23
576.704	39.16
577.126	39.08
577.549	38.99
577.972	38.92
578.394	38.84
578.817	38.76
579.239	38.68
579.661	38.61
580.084	38.54
580.506	38.48
580.928	38.42
581.35	38.36
581.772	38.3
582.194	38.25
582.616	38.19
583.038	38.14
583.46	38.1
583.882	38.05
584.303	38
584.725	37.96
585.147	37.92
585.568	37.86
585.99	37.79
586.411	37.76
586.833	37.7
587.254	37.65
587.675	37.61
588.096	37.56
588.518	37.51
588.939	37.48
589.36	37.43
589.781	37.4
590.202	37.36
590.623	37.33
591.043	37.28
591.464	37.26
591.885	37.24
592.305	37.2
592.726	37.18
593.147	37.14
593.567	37.11
593.987	37.07
594.408	37.02
594.828	36.97
595.248	36.95
595.669	36.92
596.089	36.87
596.509	36.84
596.929	36.81
597.349	36.74
597.769	36.7
598.189	36.65
598.608	36.64
599.028	36.6
599.448	36.57
599.867	36.51
600.287	36.47
600.706	36.41
601.126	36.37
601.545	36.32
601.965	36.28
602.384	36.23
602.803	36.18
603.222	36.09
603.641	36.03
604.061	35.97
604.48	35.9
604.898	35.83
605.317	35.76
605.736	35.67
606.155	35.59
606.574	35.5
606.992	35.42
607.411	35.34
607.829	35.24
608.248	35.14
608.666	35.04
609.085	34.96
609.503	34.89
609.921	34.79
610.339	34.7
610.758	34.6
611.176	34.51
611.594	34.43
612.012	34.32
612.43	34.24
612.847	34.16
613.265	34.09
613.683	34.01
614.101	33.9
614.518	33.81
614.936	33.72
615.353	33.62
615.771	33.56
616.188	33.48
616.606	33.41
617.023	33.35
617.44	33.28
617.857	33.19
618.274	33.13
618.691	33.06
619.108	33.01
619.525	32.96
619.942	32.93
620.359	32.88
620.776	32.81
621.192	32.78
621.609	32.74
622.026	32.7
622.442	32.67
622.859	32.62
623.275	32.59
623.691	32.59
624.108	32.55
624.524	32.52
624.94	32.49
625.356	32.49
625.772	32.46
626.188	32.45
626.604	32.44
627.02	32.43
627.436	32.43
627.852	32.41
628.268	32.38
628.683	32.38
629.099	32.39
629.514	32.37
629.93	32.35
630.345	32.32
630.761	32.28
631.176	32.27
631.591	32.21
632.007	32.17
632.422	32.11
632.837	32.04
633.252	31.96
633.667	31.87
634.082	31.77
634.497	31.69
634.911	31.59
635.326	31.49
635.741	31.36
636.155	31.24
636.57	31.1
636.984	30.97
637.399	30.82
637.813	30.67
638.228	30.51
638.642	30.33
639.056	30.14
639.47	29.96
639.884	29.77
640.298	29.56
640.712	29.36
641.126	29.15
641.54	28.93
641.954	28.73
642.368	28.52
642.781	28.31
643.195	28.1
643.609	27.88
644.022	27.67
644.436	27.46
644.849	27.26
645.262	27.07
645.676	26.89
646.089	26.74
646.502	26.55
646.915	26.41
647.328	26.25
647.741	26.12
648.154	25.99
648.567	25.85
648.98	25.73
649.393	25.62
649.805	25.52
650.218	25.42
650.631	25.31
651.043	25.21
651.456	25.11
651.868	25
652.28	24.89
652.693	24.79
653.105	24.68
653.517	24.55
653.929	24.43
654.341	24.27
654.753	24.1
655.165	23.93
655.577	23.76
655.989	23.57
656.401	23.37
656.813	23.18
657.224	22.94
657.636	22.71
658.047	22.47
658.459	22.2
658.87	21.96
659.282	21.72
659.693	21.46
660.104	21.19
660.515	20.91
660.926	20.64
661.338	20.36
661.749	20.1
662.159	19.84
662.57	19.59
662.981	19.35
663.392	19.1
663.803	18.85
664.213	18.61
664.624	18.38
665.035	18.15
665.445	17.93
665.855	17.73
666.266	17.54
666.676	17.35
667.086	17.16
667.497	16.98
667.907	16.83
668.317	16.68
668.727	16.53
669.137	16.42
669.547	16.3
669.956	16.2
670.366	16.11
670.776	16.03
671.186	15.95
671.595	15.87
672.005	15.81
672.414	15.75
672.824	15.71
673.233	15.68
673.642	15.65
674.052	15.62
674.461	15.6
674.87	15.59
675.279	15.59
675.688	15.61
676.097	15.63
676.506	15.68
676.915	15.74
677.323	15.82
677.732	15.9
678.141	16.02
678.549	16.16
678.958	16.33
679.366	16.53
679.775	16.74
680.183	17.01
680.592	17.32
681	17.66
681.408	18.02
681.816	18.42
682.224	18.87
682.632	19.34
683.04	19.85
683.448	20.39
683.856	20.97
684.264	21.59
684.671	22.23
685.079	22.88
685.487	23.58
685.894	24.31
686.302	25.05
686.709	25.81
687.116	26.58
687.524	27.37
687.931	28.16
688.338	28.96
688.745	29.74
689.152	30.52
689.559	31.31
689.966	32.08
690.373	32.83
690.78	33.56
691.187	34.26
691.593	34.96
692	35.62
692.407	36.28
692.813	36.92
693.22	37.53
693.626	38.13
694.032	38.73
694.439	39.27
694.845	39.82
695.251	40.37
695.657	40.88
696.063	41.39
696.469	41.86
696.875	42.3
697.281	42.74
697.687	43.16
698.093	43.58
698.498	43.97
698.904	44.37
699.31	44.7
699.715	45.03
700.12	45.36
700.526	45.67
700.931	45.99
701.337	46.28
701.742	46.56
702.147	46.84
702.552	47.1
702.957	47.32
703.362	47.55
703.767	47.78
704.172	48.01
704.577	48.23
704.981	48.44
705.386	48.66
705.791	48.86
706.195	49.04
706.6	49.23
707.004	49.41
707.408	49.62
707.813	49.81
708.217	49.97
708.621	50.14
709.025	50.27
709.43	50.41
709.834	50.55
710.237	50.68
710.641	50.81
711.045	50.94
711.449	51.07
711.853	51.19
712.256	51.28
712.66	51.39
713.064	51.49
713.467	51.61
713.87	51.72
714.274	51.81
714.677	51.93
715.08	52
715.484	52.09
715.887	52.2
716.29	52.27
716.693	52.38
717.096	52.48
717.499	52.55
717.901	52.66
718.304	52.75
718.707	52.85
719.109	52.93
719.512	53.03
719.915	53.12
720.317	53.14
720.719	53.21
721.122	53.28
721.524	53.35
721.926	53.42
722.328	53.49
722.731	53.53
723.133	53.59
723.535	53.65
723.937	53.72
724.338	53.76
724.74	53.84
725.142	53.95
725.544	54
725.945	54.07
726.347	54.1
726.748	54.11
727.15	54.16
727.551	54.21
727.952	54.26
728.354	54.29
728.755	54.32
729.156	54.34
729.557	54.33
729.958	54.33
730.359	54.33
730.76	54.39
731.161	54.43
731.562	54.5
731.962	54.49
732.363	54.51
732.763	54.53
733.164	54.56
733.564	54.57
733.965	54.6
734.365	54.64
734.766	54.67
735.166	54.67
735.566	54.68
735.966	54.68
736.366	54.7
736.766	54.69
737.166	54.68
737.566	54.68
737.966	54.68
738.365	54.68
738.765	54.68
739.165	54.68
739.564	54.68
739.964	54.68
740.363	54.66
740.763	54.65
741.162	54.67
741.561	54.67
741.96	54.68
742.36	54.72
742.759	54.75
743.158	54.77
743.557	54.74
743.955	54.76
744.354	54.8
744.753	54.83
745.152	54.87
745.55	54.89
745.949	54.91
746.348	54.96
746.746	54.95
747.144	54.96
747.543	54.96
747.941	55.02
748.339	55.01
748.737	55
749.136	55
749.534	54.98
749.932	54.97
750.33	54.98
750.727	54.99
751.125	55
751.523	54.98
751.921	54.98
752.318	54.95
752.716	54.92
753.113	54.91
753.511	54.89
753.908	54.92
754.305	54.93
754.703	54.9
755.1	54.86
755.497	54.82
755.894	54.82
756.291	54.82
756.688	54.8
757.085	54.81
757.482	54.8
757.878	54.81
758.275	54.77
758.672	54.75
759.068	54.76
759.465	54.75
759.861	54.77
760.258	54.78
760.654	54.77
761.05	54.82
761.447	54.82
761.843	54.81
762.239	54.8
762.635	54.78
763.031	54.79
763.427	54.76
763.822	54.78
764.218	54.74
764.614	54.73
765.01	54.71
765.405	54.67
765.801	54.63
766.196	54.64
766.592	54.63
766.987	54.64
767.382	54.61
767.778	54.63
768.173	54.63
768.568	54.62
768.963	54.6
769.358	54.62
769.753	54.63
770.148	54.66
770.542	54.67
770.937	54.68
771.332	54.68
771.726	54.69
772.121	54.69
772.515	54.7
772.91	54.73
773.304	54.76
773.699	54.76
774.093	54.74
