Data from N_3_DIV_WI_4N_Splice17_13-52-46-096.txt Node
Date: Sat Mar 07 13:52:46 EST 2020
User: sa697716
Spectrometer: NQ5500242
Trigger mode: 0
Integration Time (sec): 1.450000E-1
Scans to average: 20
Nonlinearity correction enabled: false
Boxcar width: 5
Storing dark spectrum: false
XAxis mode: Wavelengths
Number of Pixels in Spectrum: 512
>>>>>Begin Spectral Data<<<<<
187.83	216.56
188.298	243.3
188.766	226.07
189.233	189.06
189.701	182.71
190.169	215.11
190.636	254.95
191.104	355.84
191.571	392.3
192.039	302.47
192.506	156.83
192.974	-4.55
193.441	137.75
193.908	73.21
194.375	90.76
194.842	25.52
195.31	108.56
195.777	284.41
196.244	40.64
196.711	31.99
197.177	33.97
197.644	32.69
198.111	32.16
198.578	31.4
199.045	31.47
199.511	31.23
199.978	30.83
200.445	30.75
200.911	30.8
201.378	30.79
201.844	30.86
202.31	30.32
202.777	30.17
203.243	30.05
203.709	30
204.176	29.54
204.642	29.46
205.108	29.72
205.574	29.51
206.04	28.84
206.506	28.7
206.972	28.45
207.438	28.16
207.903	27.76
208.369	27.05
208.835	26.45
209.301	25.99
209.766	25.01
210.232	24.19
210.697	23.12
211.163	22.68
211.628	21.81
212.094	21.1
212.559	20.65
213.024	20.17
213.49	19.76
213.955	19.24
214.42	18.76
214.885	18.28
215.35	17.29
215.815	16.64
216.28	15.17
216.745	13.82
217.21	12.52
217.675	11.23
218.14	10.13
218.604	9.16
219.069	8.36
219.534	7.73
219.998	7.13
220.463	6.73
220.927	6.25
221.392	5.98
221.856	5.71
222.32	5.47
222.785	5.31
223.249	5.13
223.713	4.99
224.177	4.86
224.642	4.71
225.106	4.58
225.57	4.45
226.034	4.39
226.497	4.29
226.961	4.19
227.425	4.09
227.889	4.01
228.353	3.92
228.816	3.85
229.28	3.77
229.744	3.71
230.207	3.65
230.671	3.59
231.134	3.51
231.597	3.48
232.061	3.43
232.524	3.39
232.987	3.33
233.45	3.32
233.914	3.27
234.377	3.23
234.84	3.19
235.303	3.17
235.766	3.15
236.229	3.11
236.691	3.07
237.154	3.04
237.617	3.02
238.08	3
238.542	2.95
239.005	2.92
239.468	2.9
239.93	2.87
240.393	2.85
240.855	2.81
241.317	2.8
241.78	2.78
242.242	2.74
242.704	2.72
243.166	2.69
243.629	2.68
244.091	2.66
244.553	2.64
245.015	2.61
245.477	2.58
245.939	2.56
246.4	2.53
246.862	2.51
247.324	2.5
247.786	2.48
248.247	2.46
248.709	2.43
249.17	2.4
249.632	2.38
250.093	2.37
250.555	2.37
251.016	2.36
251.477	2.34
251.939	2.34
252.4	2.32
252.861	2.31
253.322	2.29
253.783	2.28
254.244	2.28
254.705	2.26
255.166	2.24
255.627	2.22
256.088	2.21
256.549	2.2
257.009	2.18
257.47	2.16
257.931	2.14
258.391	2.12
258.852	2.11
259.312	2.09
259.773	2.08
260.233	2.08
260.694	2.06
261.154	2.05
261.614	2.04
262.074	2.02
262.534	2.01
262.994	2
263.455	2
263.915	1.99
264.374	1.97
264.834	1.97
265.294	1.95
265.754	1.94
266.214	1.93
266.673	1.92
267.133	1.92
267.593	1.91
268.052	1.91
268.512	1.91
268.971	1.9
269.431	1.9
269.89	1.89
270.349	1.89
270.809	1.88
271.268	1.88
271.727	1.88
272.186	1.88
272.645	1.87
273.104	1.86
273.563	1.86
274.022	1.85
274.481	1.86
274.94	1.86
275.399	1.85
275.857	1.85
276.316	1.84
276.775	1.84
277.233	1.84
277.692	1.83
278.15	1.83
278.609	1.83
279.067	1.83
279.525	1.83
279.984	1.83
280.442	1.83
280.9	1.83
281.358	1.83
281.816	1.83
282.274	1.82
282.732	1.82
283.19	1.82
283.648	1.81
284.106	1.81
284.564	1.81
285.021	1.81
285.479	1.8
285.937	1.79
286.394	1.79
286.852	1.78
287.309	1.78
287.767	1.77
288.224	1.77
288.682	1.76
289.139	1.75
289.596	1.73
290.053	1.72
290.511	1.72
290.968	1.72
291.425	1.71
291.882	1.7
292.339	1.7
292.796	1.69
293.252	1.68
293.709	1.68
294.166	1.68
294.623	1.69
295.079	1.68
295.536	1.68
295.992	1.68
296.449	1.67
296.905	1.67
297.362	1.67
297.818	1.66
298.274	1.66
298.731	1.66
299.187	1.65
299.643	1.64
300.099	1.64
300.555	1.63
301.011	1.62
301.467	1.62
301.923	1.61
302.379	1.61
302.835	1.62
303.291	1.62
303.746	1.62
304.202	1.63
304.658	1.63
305.113	1.63
305.569	1.63
306.024	1.64
306.479	1.63
306.935	1.63
307.39	1.63
307.845	1.63
308.301	1.63
308.756	1.63
309.211	1.63
309.666	1.64
310.121	1.64
310.576	1.64
311.031	1.64
311.486	1.65
311.94	1.65
312.395	1.65
312.85	1.65
313.305	1.65
313.759	1.65
314.214	1.65
314.668	1.64
315.123	1.64
315.577	1.64
316.032	1.64
316.486	1.64
316.94	1.64
317.394	1.63
317.849	1.63
318.303	1.63
318.757	1.62
319.211	1.62
319.665	1.61
320.119	1.6
320.572	1.6
321.026	1.6
321.48	1.59
321.934	1.58
322.387	1.58
322.841	1.57
323.295	1.58
323.748	1.57
324.202	1.57
324.655	1.57
325.108	1.58
325.562	1.59
326.015	1.59
326.468	1.59
326.921	1.59
327.374	1.59
327.827	1.59
328.28	1.59
328.733	1.59
329.186	1.59
329.639	1.58
330.092	1.58
330.545	1.58
330.997	1.58
331.45	1.57
331.903	1.58
332.355	1.59
332.808	1.58
333.26	1.58
333.713	1.58
334.165	1.58
334.617	1.58
335.069	1.57
335.522	1.57
335.974	1.57
336.426	1.57
336.878	1.57
337.33	1.57
337.782	1.57
338.234	1.58
338.686	1.58
339.137	1.59
339.589	1.58
340.041	1.58
340.493	1.57
340.944	1.56
341.396	1.56
341.847	1.56
342.299	1.55
342.75	1.55
343.201	1.54
343.653	1.53
344.104	1.52
344.555	1.52
345.006	1.51
345.457	1.52
345.908	1.52
346.359	1.52
346.81	1.52
347.261	1.51
347.712	1.5
348.163	1.5
348.613	1.5
349.064	1.5
349.515	1.5
349.965	1.5
350.416	1.49
350.866	1.49
351.317	1.48
351.767	1.48
352.217	1.49
352.668	1.5
353.118	1.49
353.568	1.5
354.018	1.5
354.468	1.51
354.918	1.51
355.368	1.51
355.818	1.51
356.268	1.52
356.718	1.52
357.168	1.51
357.617	1.5
358.067	1.5
358.517	1.51
358.966	1.5
359.416	1.5
359.865	1.5
360.315	1.5
360.764	1.51
361.213	1.51
361.663	1.51
362.112	1.51
362.561	1.52
363.01	1.52
363.459	1.5
363.908	1.5
364.357	1.51
364.806	1.51
365.255	1.51
365.703	1.51
366.152	1.52
366.601	1.52
367.05	1.53
367.498	1.53
367.947	1.55
368.395	1.56
368.844	1.56
369.292	1.57
369.74	1.58
370.189	1.58
370.637	1.59
371.085	1.59
371.533	1.59
371.981	1.6
372.429	1.61
372.877	1.62
373.325	1.63
373.773	1.64
374.221	1.64
374.669	1.66
375.116	1.67
375.564	1.68
376.012	1.7
376.459	1.71
376.907	1.73
377.354	1.74
377.801	1.77
378.249	1.79
378.696	1.82
379.143	1.84
379.591	1.85
380.038	1.87
380.485	1.9
380.932	1.92
381.379	1.95
381.826	1.97
382.273	1.99
382.72	2
383.166	2.03
383.613	2.05
384.06	2.08
384.506	2.11
384.953	2.14
385.4	2.16
385.846	2.19
386.292	2.21
386.739	2.23
387.185	2.26
387.631	2.3
388.078	2.32
388.524	2.35
388.97	2.37
389.416	2.4
389.862	2.43
390.308	2.46
390.754	2.5
391.2	2.53
391.645	2.56
392.091	2.6
392.537	2.63
392.983	2.65
393.428	2.68
393.874	2.71
394.319	2.75
394.765	2.77
395.21	2.79
395.655	2.8
396.101	2.84
396.546	2.87
396.991	2.9
397.436	2.93
397.881	2.97
398.326	3
398.771	3.03
399.216	3.05
399.661	3.08
400.106	3.11
400.551	3.13
400.995	3.15
401.44	3.17
401.885	3.18
402.329	3.19
402.774	3.2
403.218	3.23
403.663	3.24
404.107	3.26
404.551	3.27
404.995	3.27
405.44	3.27
405.884	3.28
406.328	3.29
406.772	3.29
407.216	3.31
407.66	3.32
408.104	3.31
408.547	3.31
408.991	3.32
409.435	3.33
409.879	3.34
410.322	3.36
410.766	3.38
411.209	3.4
411.653	3.42
412.096	3.43
412.54	3.44
412.983	3.45
413.426	3.49
413.869	3.5
414.312	3.51
414.756	3.53
415.199	3.53
415.642	3.54
416.085	3.55
416.527	3.55
416.97	3.52
417.413	3.53
417.856	3.52
418.298	3.51
418.741	3.51
419.184	3.49
419.626	3.48
420.069	3.49
420.511	3.49
420.953	3.48
421.396	3.49
421.838	3.5
422.28	3.52
422.722	3.53
423.164	3.52
423.606	3.52
424.048	3.54
424.49	3.55
424.932	3.53
425.374	3.5
425.816	3.46
426.258	3.43
426.699	3.41
427.141	3.39
427.582	3.4
428.024	3.4
428.465	3.41
428.907	3.39
429.348	3.38
429.789	3.4
430.231	3.43
430.672	3.48
431.113	3.53
431.554	3.55
431.995	3.59
432.436	3.59
432.877	3.62
433.318	3.64
433.759	3.67
434.2	3.7
434.64	3.72
435.081	3.74
435.522	3.76
435.962	3.77
436.403	3.8
436.843	3.81
437.284	3.81
437.724	3.81
438.164	3.81
438.604	3.82
439.045	3.84
439.485	3.86
439.925	3.87
440.365	3.88
440.805	3.88
441.245	3.9
441.685	3.92
442.125	3.95
442.564	3.98
443.004	3.99
443.444	4.02
443.883	4.04
444.323	4.04
444.762	4.05
445.202	4.07
445.641	4.1
446.081	4.12
446.52	4.15
446.959	4.19
447.398	4.23
447.837	4.25
448.276	4.27
448.716	4.28
449.154	4.32
449.593	4.36
450.032	4.38
450.471	4.37
450.91	4.36
451.349	4.38
451.787	4.37
452.226	4.34
452.664	4.34
453.103	4.34
453.541	4.33
453.98	4.33
454.418	4.3
454.856	4.3
455.295	4.29
455.733	4.28
456.171	4.27
456.609	4.27
457.047	4.26
457.485	4.25
457.923	4.25
458.361	4.24
458.798	4.24
459.236	4.25
459.674	4.24
460.111	4.25
460.549	4.25
460.987	4.26
461.424	4.27
461.862	4.27
462.299	4.28
462.736	4.3
463.173	4.31
463.611	4.32
464.048	4.33
464.485	4.34
464.922	4.36
465.359	4.37
465.796	4.39
466.233	4.41
466.67	4.44
467.106	4.46
467.543	4.47
467.98	4.49
468.416	4.49
468.853	4.51
469.29	4.53
469.726	4.54
470.162	4.57
470.599	4.56
471.035	4.56
471.471	4.56
471.907	4.56
472.344	4.57
472.78	4.58
473.216	4.58
473.652	4.59
474.088	4.58
474.523	4.59
474.959	4.59
475.395	4.58
475.831	4.59
476.266	4.6
476.702	4.59
477.138	4.6
477.573	4.61
478.008	4.61
478.444	4.6
478.879	4.6
479.314	4.59
479.75	4.6
480.185	4.58
480.62	4.57
481.055	4.54
481.49	4.52
481.925	4.48
482.36	4.45
482.795	4.43
483.229	4.41
483.664	4.4
484.099	4.39
484.534	4.38
484.968	4.38
485.403	4.38
485.837	4.41
486.271	4.43
486.706	4.46
487.14	4.47
487.574	4.5
488.009	4.52
488.443	4.53
488.877	4.56
489.311	4.59
489.745	4.61
490.179	4.65
490.613	4.68
491.046	4.71
491.48	4.74
491.914	4.79
492.348	4.83
492.781	4.88
493.215	4.93
493.648	4.97
494.082	5.02
494.515	5.07
494.948	5.11
495.382	5.16
495.815	5.21
496.248	5.27
496.681	5.32
497.114	5.39
497.547	5.45
497.98	5.51
498.413	5.58
498.846	5.66
499.279	5.75
499.711	5.82
500.144	5.91
500.577	6.01
501.009	6.1
501.442	6.21
501.874	6.32
502.306	6.43
502.739	6.57
503.171	6.68
503.603	6.8
504.036	6.93
504.468	7.06
504.9	7.19
505.332	7.33
505.764	7.47
506.196	7.62
506.627	7.77
507.059	7.93
507.491	8.08
507.923	8.25
508.354	8.42
508.786	8.59
509.217	8.77
509.649	8.95
510.08	9.12
510.512	9.3
510.943	9.49
511.374	9.68
511.805	9.86
512.237	10.02
512.668	10.2
513.099	10.36
513.53	10.53
513.961	10.73
514.391	10.93
514.822	11.15
515.253	11.36
515.684	11.58
516.114	11.8
516.545	12.04
516.975	12.29
517.406	12.54
517.836	12.8
518.267	13.06
518.697	13.29
519.127	13.52
519.558	13.75
519.988	14
520.418	14.22
520.848	14.44
521.278	14.66
521.708	15.07
522.138	15.25
522.567	15.42
522.997	15.59
523.427	15.77
523.857	15.96
524.286	16.13
524.716	16.3
525.145	16.49
525.575	16.65
526.004	16.82
526.433	16.77
526.863	16.96
527.292	17.15
527.721	17.3
528.15	17.44
528.579	17.56
529.008	17.67
529.437	17.76
529.866	17.84
530.295	17.94
530.724	18.04
531.152	18.14
531.581	18.23
532.01	18.31
532.438	18.4
532.867	18.48
533.295	18.56
533.723	18.64
534.152	18.71
534.58	18.77
535.008	18.82
535.436	18.86
535.865	18.86
536.293	18.87
536.721	18.9
537.149	18.94
537.576	18.98
538.004	19.02
538.432	19.06
538.86	19.09
539.287	19.12
539.715	19.17
540.143	19.21
540.57	19.28
540.998	19.33
541.425	19.38
541.852	19.42
542.28	19.47
542.707	19.51
543.134	19.54
543.561	19.58
543.988	19.61
544.415	19.64
544.842	19.69
545.269	19.71
545.696	19.74
546.123	19.78
546.549	19.82
546.976	19.86
547.403	19.9
547.829	19.94
548.256	19.96
548.682	19.99
549.108	20.03
549.535	20.05
549.961	20.07
550.387	20.1
550.813	20.12
551.24	20.13
551.666	20.12
552.092	20.12
552.518	20.11
552.943	20.11
553.369	20.1
553.795	20.06
554.221	20.03
554.646	19.99
555.072	19.94
555.498	19.89
555.923	19.84
556.349	19.79
556.774	19.73
557.199	19.68
557.625	19.62
558.05	19.57
558.475	19.52
558.9	19.46
559.325	19.41
559.75	19.35
560.175	19.29
560.6	19.21
561.025	19.14
561.449	19.06
561.874	18.96
562.299	18.88
562.723	18.78
563.148	18.68
563.572	18.58
563.997	18.47
564.421	18.35
564.846	18.23
565.27	18.13
565.694	18.02
566.118	17.88
566.542	17.77
566.966	17.64
567.39	17.53
567.814	17.4
568.238	17.28
568.662	17.18
569.086	17.09
569.509	16.99
569.933	16.9
570.357	16.8
570.78	16.7
571.204	16.6
571.627	16.52
572.05	16.42
572.474	16.35
572.897	16.26
573.32	16.16
573.743	16.05
574.166	15.95
574.589	15.85
575.012	15.77
575.435	15.69
575.858	15.62
576.281	15.55
576.704	15.49
577.126	15.43
577.549	15.35
577.972	15.29
578.394	15.24
578.817	15.19
579.239	15.15
579.661	15.1
580.084	15.07
580.506	15.03
580.928	14.97
581.35	14.92
581.772	14.85
582.194	14.79
582.616	14.74
583.038	14.68
583.46	14.62
583.882	14.55
584.303	14.47
584.725	14.37
585.147	14.3
585.568	14.23
585.99	14.15
586.411	14.1
586.833	14.05
587.254	14
587.675	13.94
588.096	13.88
588.518	13.84
588.939	13.83
589.36	13.8
589.781	13.76
590.202	13.76
590.623	13.73
591.043	13.7
591.464	13.68
591.885	13.65
592.305	13.63
592.726	13.61
593.147	13.58
593.567	13.53
593.987	13.51
594.408	13.47
594.828	13.42
595.248	13.4
595.669	13.37
596.089	13.35
596.509	13.31
596.929	13.27
597.349	13.24
597.769	13.2
598.189	13.16
598.608	13.12
599.028	13.12
599.448	13.08
599.867	13.04
600.287	13.01
600.706	12.98
601.126	12.95
601.545	12.92
601.965	12.89
602.384	12.86
602.803	12.83
603.222	12.8
603.641	12.75
604.061	12.71
604.48	12.67
604.898	12.6
605.317	12.56
605.736	12.51
606.155	12.45
606.574	12.39
606.992	12.32
607.411	12.26
607.829	12.18
608.248	12.11
608.666	12.05
609.085	11.98
609.503	11.92
609.921	11.85
610.339	11.79
610.758	11.73
611.176	11.66
611.594	11.6
612.012	11.53
612.43	11.48
612.847	11.41
613.265	11.35
613.683	11.3
614.101	11.24
614.518	11.18
614.936	11.13
615.353	11.06
615.771	11.01
616.188	10.96
616.606	10.91
617.023	10.88
617.44	10.85
617.857	10.81
618.274	10.75
618.691	10.7
619.108	10.66
619.525	10.62
619.942	10.58
620.359	10.54
620.776	10.51
621.192	10.47
621.609	10.44
622.026	10.39
622.442	10.36
622.859	10.34
623.275	10.31
623.691	10.29
624.108	10.27
624.524	10.24
624.94	10.22
625.356	10.2
625.772	10.19
626.188	10.18
626.604	10.17
627.02	10.15
627.436	10.14
627.852	10.14
628.268	10.12
628.683	10.1
629.099	10.1
629.514	10.08
629.93	10.07
630.345	10.04
630.761	10.01
631.176	9.99
631.591	9.96
632.007	9.92
632.422	9.87
632.837	9.83
633.252	9.79
633.667	9.74
634.082	9.69
634.497	9.64
634.911	9.59
635.326	9.52
635.741	9.44
636.155	9.36
636.57	9.3
636.984	9.22
637.399	9.14
637.813	9.05
638.228	8.95
638.642	8.85
639.056	8.74
639.47	8.65
639.884	8.55
640.298	8.46
640.712	8.37
641.126	8.28
641.54	8.18
641.954	8.08
642.368	7.98
642.781	7.9
643.195	7.8
643.609	7.71
644.022	7.62
644.436	7.55
644.849	7.46
645.262	7.36
645.676	7.27
646.089	7.2
646.502	7.13
646.915	7.06
647.328	7
647.741	6.95
648.154	6.9
648.567	6.86
648.98	6.81
649.393	6.78
649.805	6.76
650.218	6.73
650.631	6.69
651.043	6.65
651.456	6.61
651.868	6.55
652.28	6.5
652.693	6.44
653.105	6.38
653.517	6.32
653.929	6.27
654.341	6.21
654.753	6.16
655.165	6.11
655.577	6.07
655.989	6.02
656.401	5.98
656.813	5.95
657.224	5.9
657.636	5.84
658.047	5.79
658.459	5.72
658.87	5.66
659.282	5.58
659.693	5.5
660.104	5.42
660.515	5.35
660.926	5.27
661.338	5.18
661.749	5.11
662.159	5.04
662.57	4.97
662.981	4.9
663.392	4.83
663.803	4.77
664.213	4.71
664.624	4.65
665.035	4.59
665.445	4.54
665.855	4.49
666.266	4.45
666.676	4.41
667.086	4.35
667.497	4.31
667.907	4.28
668.317	4.24
668.727	4.21
669.137	4.19
669.547	4.16
669.956	4.13
670.366	4.11
670.776	4.08
671.186	4.06
671.595	4.05
672.005	4.04
672.414	4.02
672.824	4.01
673.233	4.01
673.642	4
674.052	4
674.461	4
674.87	4.01
675.279	4.03
675.688	4.03
676.097	4.05
676.506	4.06
676.915	4.08
677.323	4.1
677.732	4.12
678.141	4.15
678.549	4.18
678.958	4.22
679.366	4.27
679.775	4.31
680.183	4.37
680.592	4.44
681	4.52
681.408	4.61
681.816	4.69
682.224	4.8
682.632	4.9
683.04	5
683.448	5.12
683.856	5.23
684.264	5.38
684.671	5.53
685.079	5.69
685.487	5.88
685.894	6.08
686.302	6.31
686.709	6.55
687.116	6.83
687.524	7.13
687.931	7.43
688.338	7.76
688.745	8.09
689.152	8.44
689.559	8.81
689.966	9.19
690.373	9.57
690.78	9.95
691.187	10.33
691.593	10.72
692	11.1
692.407	11.5
692.813	11.9
693.22	12.29
693.626	12.68
694.032	13.08
694.439	13.48
694.845	13.88
695.251	14.26
695.657	14.65
696.063	15.04
696.469	15.43
696.875	15.82
697.281	16.18
697.687	16.55
698.093	16.92
698.498	17.26
698.904	17.6
699.31	17.94
699.715	18.27
700.12	18.59
700.526	18.91
700.931	19.24
701.337	19.54
701.742	19.84
702.147	20.15
702.552	20.43
702.957	20.71
703.362	20.99
703.767	21.26
704.172	21.53
704.577	21.78
704.981	22.04
705.386	22.29
705.791	22.53
706.195	22.76
706.6	23
707.004	23.22
707.408	23.44
707.813	23.68
708.217	23.89
708.621	24.1
709.025	24.32
709.43	24.51
709.834	24.68
710.237	24.85
710.641	25.04
711.045	25.21
711.449	25.41
711.853	25.61
712.256	25.76
712.66	25.9
713.064	26.04
713.467	26.17
713.87	26.3
714.274	26.41
714.677	26.52
715.08	26.62
715.484	26.74
715.887	26.83
716.29	26.88
716.693	27
717.096	27.12
717.499	27.26
717.901	27.41
718.304	27.58
718.707	27.75
719.109	27.91
719.512	28.05
719.915	28.18
720.317	28.31
720.719	28.43
721.122	28.54
721.524	28.64
721.926	28.74
722.328	28.83
722.731	28.89
723.133	28.96
723.535	29.03
723.937	29.12
724.338	29.21
724.74	29.29
725.142	29.53
725.544	29.61
725.945	29.73
726.347	29.78
726.748	29.85
727.15	29.92
727.551	30.02
727.952	30.07
728.354	30.13
728.755	30.18
729.156	30.25
729.557	30.22
729.958	30.29
730.359	30.32
730.76	30.42
731.161	30.47
731.562	30.56
731.962	30.59
732.363	30.68
732.763	30.74
733.164	30.8
733.564	30.85
733.965	30.88
734.365	30.92
734.766	30.94
735.166	30.98
735.566	31.01
735.966	31.02
736.366	31.06
736.766	31.08
737.166	31.12
737.566	31.14
737.966	31.16
738.365	31.17
738.765	31.21
739.165	31.24
739.564	31.26
739.964	31.29
740.363	31.32
740.763	31.35
741.162	31.38
741.561	31.39
741.96	31.4
742.36	31.4
742.759	31.41
743.158	31.41
743.557	31.42
743.955	31.43
744.354	31.43
744.753	31.43
745.152	31.46
745.55	31.44
745.949	31.47
746.348	31.49
746.746	31.5
747.144	31.51
747.543	31.51
747.941	31.51
748.339	31.52
748.737	31.54
749.136	31.53
749.534	31.5
749.932	31.51
750.33	31.52
750.727	31.53
751.125	31.54
751.523	31.54
751.921	31.56
752.318	31.58
752.716	31.58
753.113	31.57
753.511	31.56
753.908	31.59
754.305	31.6
754.703	31.55
755.1	31.47
755.497	31.32
755.894	31.11
756.291	30.87
756.688	30.57
757.085	30.3
757.482	30.08
757.878	29.87
758.275	29.67
758.672	29.46
759.068	29.27
759.465	29.1
759.861	29.03
760.258	29.06
760.654	29.12
761.05	29.26
761.447	29.38
761.843	29.47
762.239	29.59
762.635	29.69
763.031	29.82
763.427	29.99
763.822	30.17
764.218	30.36
764.614	30.53
765.01	30.68
765.405	30.81
765.801	30.92
766.196	31.05
766.592	31.13
766.987	31.22
767.382	31.29
767.778	31.35
768.173	31.4
768.568	31.42
768.963	31.44
769.358	31.47
769.753	31.49
770.148	31.51
770.542	31.52
770.937	31.55
771.332	31.55
771.726	31.56
772.121	31.55
772.515	31.55
772.91	31.53
773.304	31.53
773.699	31.51
774.093	31.49
774.487	31.49
774.881	31.48
775.275	31.45
775.669	31.43
776.063	31.41
776.457	31.4
776.851	31.36
777.245	31.34
777.638	31.31
778.032	31.32
778.425	31.34
778.819	31.33
779.212	31.33
779.606	31.32
779.999	31.32
780.392	31.35
780.786	31.36
781.179	31.39
781.572	31.41
781.965	31.43
782.358	31.42
782.751	31.4
783.143	31.39
783.536	31.35
783.929	31.34
784.322	31.33
