Data from N_3_HIR_WI_4N_Splice17_14-08-03-493.txt Node
Date: Sat Mar 07 14:08:03 EST 2020
User: sa697716
Spectrometer: NQ5500242
Trigger mode: 0
Integration Time (sec): 1.450000E-1
Scans to average: 20
Nonlinearity correction enabled: false
Boxcar width: 5
Storing dark spectrum: false
XAxis mode: Wavelengths
Number of Pixels in Spectrum: 512
>>>>>Begin Spectral Data<<<<<
187.83	172.65
188.298	195.32
188.766	146.36
189.233	115.77
189.701	108.85
190.169	127.43
190.636	99.87
191.104	61.23
191.571	-8.47
192.039	-205.48
192.506	-1071.16
192.974	232.23
193.441	356.2
193.908	52.5
194.375	19.54
194.842	-81.02
195.31	-113.73
195.777	-726.06
196.244	7.35
196.711	48.91
197.177	54.72
197.644	55.2
198.111	55.79
198.578	56.72
199.045	57.48
199.511	57.21
199.978	57.63
200.445	57.82
200.911	58.4
201.378	58.56
201.844	58.32
202.31	57.89
202.777	57.96
203.243	58.08
203.709	57.76
204.176	57.26
204.642	57.45
205.108	57.33
205.574	56.96
206.04	56.23
206.506	55.54
206.972	55.22
207.438	54.61
207.903	53.78
208.369	52.62
208.835	51.43
209.301	50.04
209.766	48.07
210.232	46.55
210.697	45.41
211.163	44.1
211.628	42.89
212.094	41.57
212.559	40.52
213.024	39.34
213.49	38.31
213.955	37.44
214.42	36.54
214.885	35.55
215.35	34.07
215.815	31.83
216.28	29.45
216.745	26.59
217.21	23.89
217.675	21.38
218.14	19.18
218.604	17.26
219.069	15.62
219.534	14.28
219.998	13.15
220.463	12.22
220.927	11.44
221.392	10.78
221.856	10.24
222.32	9.82
222.785	9.45
223.249	9.11
223.713	8.82
224.177	8.55
224.642	8.3
225.106	8.05
225.57	7.81
226.034	7.61
226.497	7.41
226.961	7.27
227.425	7.08
227.889	6.91
228.353	6.75
228.816	6.58
229.28	6.45
229.744	6.31
230.207	6.18
230.671	6.07
231.134	5.96
231.597	5.88
232.061	5.76
232.524	5.68
232.987	5.6
233.45	5.53
233.914	5.46
234.377	5.38
234.84	5.31
235.303	5.26
235.766	5.19
236.229	5.14
236.691	5.08
237.154	5.03
237.617	4.97
238.08	4.91
238.542	4.84
239.005	4.8
239.468	4.75
239.93	4.71
240.393	4.67
240.855	4.61
241.317	4.55
241.78	4.5
242.242	4.45
242.704	4.4
243.166	4.36
243.629	4.33
244.091	4.27
244.553	4.23
245.015	4.18
245.477	4.12
245.939	4.09
246.4	4.06
246.862	4.02
247.324	3.97
247.786	3.93
248.247	3.89
248.709	3.85
249.17	3.81
249.632	3.78
250.093	3.75
250.555	3.72
251.016	3.69
251.477	3.64
251.939	3.62
252.4	3.6
252.861	3.58
253.322	3.55
253.783	3.54
254.244	3.53
254.705	3.5
255.166	3.49
255.627	3.47
256.088	3.45
256.549	3.44
257.009	3.42
257.47	3.4
257.931	3.38
258.391	3.35
258.852	3.31
259.312	3.28
259.773	3.25
260.233	3.23
260.694	3.2
261.154	3.17
261.614	3.14
262.074	3.1
262.534	3.08
262.994	3.05
263.455	3.02
263.915	3
264.374	2.97
264.834	2.95
265.294	2.92
265.754	2.91
266.214	2.89
266.673	2.87
267.133	2.86
267.593	2.85
268.052	2.84
268.512	2.83
268.971	2.82
269.431	2.81
269.89	2.8
270.349	2.8
270.809	2.78
271.268	2.78
271.727	2.77
272.186	2.76
272.645	2.75
273.104	2.73
273.563	2.73
274.022	2.71
274.481	2.71
274.94	2.7
275.399	2.68
275.857	2.68
276.316	2.67
276.775	2.66
277.233	2.67
277.692	2.67
278.15	2.66
278.609	2.66
279.067	2.66
279.525	2.67
279.984	2.66
280.442	2.66
280.9	2.66
281.358	2.66
281.816	2.67
282.274	2.66
282.732	2.66
283.19	2.66
283.648	2.66
284.106	2.66
284.564	2.66
285.021	2.67
285.479	2.68
285.937	2.68
286.394	2.68
286.852	2.68
287.309	2.68
287.767	2.67
288.224	2.66
288.682	2.65
289.139	2.64
289.596	2.62
290.053	2.59
290.511	2.58
290.968	2.56
291.425	2.54
291.882	2.53
292.339	2.51
292.796	2.51
293.252	2.5
293.709	2.49
294.166	2.48
294.623	2.47
295.079	2.47
295.536	2.46
295.992	2.45
296.449	2.45
296.905	2.45
297.362	2.45
297.818	2.44
298.274	2.44
298.731	2.43
299.187	2.42
299.643	2.42
300.099	2.42
300.555	2.41
301.011	2.41
301.467	2.41
301.923	2.4
302.379	2.4
302.835	2.4
303.291	2.39
303.746	2.39
304.202	2.4
304.658	2.4
305.113	2.4
305.569	2.4
306.024	2.4
306.479	2.4
306.935	2.4
307.39	2.41
307.845	2.41
308.301	2.42
308.756	2.42
309.211	2.43
309.666	2.43
310.121	2.44
310.576	2.44
311.031	2.44
311.486	2.45
311.94	2.46
312.395	2.46
312.85	2.46
313.305	2.46
313.759	2.46
314.214	2.46
314.668	2.46
315.123	2.46
315.577	2.46
316.032	2.46
316.486	2.46
316.94	2.46
317.394	2.45
317.849	2.44
318.303	2.44
318.757	2.43
319.211	2.43
319.665	2.41
320.119	2.39
320.572	2.39
321.026	2.38
321.48	2.37
321.934	2.36
322.387	2.36
322.841	2.35
323.295	2.36
323.748	2.35
324.202	2.35
324.655	2.35
325.108	2.36
325.562	2.36
326.015	2.35
326.468	2.35
326.921	2.35
327.374	2.35
327.827	2.35
328.28	2.35
328.733	2.35
329.186	2.35
329.639	2.35
330.092	2.35
330.545	2.36
330.997	2.36
331.45	2.37
331.903	2.38
332.355	2.39
332.808	2.39
333.26	2.4
333.713	2.4
334.165	2.4
334.617	2.41
335.069	2.41
335.522	2.41
335.974	2.42
336.426	2.42
336.878	2.42
337.33	2.43
337.782	2.43
338.234	2.43
338.686	2.45
339.137	2.46
339.589	2.44
340.041	2.44
340.493	2.43
340.944	2.42
341.396	2.42
341.847	2.41
342.299	2.39
342.75	2.39
343.201	2.38
343.653	2.36
344.104	2.33
344.555	2.33
345.006	2.32
345.457	2.31
345.908	2.3
346.359	2.3
346.81	2.3
347.261	2.29
347.712	2.28
348.163	2.28
348.613	2.29
349.064	2.3
349.515	2.3
349.965	2.3
350.416	2.3
350.866	2.31
351.317	2.31
351.767	2.32
352.217	2.32
352.668	2.32
353.118	2.33
353.568	2.33
354.018	2.34
354.468	2.35
354.918	2.35
355.368	2.37
355.818	2.38
356.268	2.39
356.718	2.4
357.168	2.41
357.617	2.42
358.067	2.44
358.517	2.47
358.966	2.49
359.416	2.5
359.865	2.53
360.315	2.55
360.764	2.57
361.213	2.6
361.663	2.62
362.112	2.65
362.561	2.68
363.01	2.72
363.459	2.73
363.908	2.76
364.357	2.8
364.806	2.84
365.255	2.88
365.703	2.94
366.152	3
366.601	3.07
367.05	3.13
367.498	3.2
367.947	3.27
368.395	3.35
368.844	3.44
369.292	3.52
369.74	3.61
370.189	3.7
370.637	3.78
371.085	3.86
371.533	3.95
371.981	4.03
372.429	4.13
372.877	4.23
373.325	4.33
373.773	4.42
374.221	4.52
374.669	4.61
375.116	4.71
375.564	4.81
376.012	4.91
376.459	5.01
376.907	5.13
377.354	5.23
377.801	5.34
378.249	5.45
378.696	5.57
379.143	5.68
379.591	5.79
380.038	5.9
380.485	6.02
380.932	6.13
381.379	6.23
381.826	6.32
382.273	6.43
382.72	6.52
383.166	6.62
383.613	6.69
384.06	6.78
384.506	6.87
384.953	6.96
385.4	7.05
385.846	7.14
386.292	7.24
386.739	7.32
387.185	7.4
387.631	7.49
388.078	7.57
388.524	7.64
388.97	7.71
389.416	7.78
389.862	7.83
390.308	7.89
390.754	7.95
391.2	8
391.645	8.06
392.091	8.12
392.537	8.17
392.983	8.22
393.428	8.27
393.874	8.31
394.319	8.35
394.765	8.37
395.21	8.39
395.655	8.41
396.101	8.43
396.546	8.44
396.991	8.44
397.436	8.44
397.881	8.46
398.326	8.47
398.771	8.48
399.216	8.49
399.661	8.5
400.106	8.5
400.551	8.5
400.995	8.47
401.44	8.46
401.885	8.44
402.329	8.42
402.774	8.39
403.218	8.38
403.663	8.35
404.107	8.34
404.551	8.31
404.995	8.28
405.44	8.25
405.884	8.23
406.328	8.2
406.772	8.17
407.216	8.16
407.66	8.15
408.104	8.1
408.547	8.07
408.991	8.05
409.435	8.02
409.879	8
410.322	7.99
410.766	7.99
411.209	7.98
411.653	7.97
412.096	7.96
412.54	7.94
412.983	7.95
413.426	7.96
413.869	7.97
414.312	7.99
414.756	7.99
415.199	7.99
415.642	7.97
416.085	7.97
416.527	7.95
416.97	7.93
417.413	7.93
417.856	7.9
418.298	7.86
418.741	7.84
419.184	7.81
419.626	7.8
420.069	7.77
420.511	7.76
420.953	7.74
421.396	7.73
421.838	7.71
422.28	7.7
422.722	7.71
423.164	7.69
423.606	7.69
424.048	7.69
424.49	7.67
424.932	7.66
425.374	7.63
425.816	7.6
426.258	7.55
426.699	7.53
427.141	7.5
427.582	7.47
428.024	7.48
428.465	7.47
428.907	7.46
429.348	7.44
429.789	7.42
430.231	7.43
430.672	7.45
431.113	7.48
431.554	7.5
431.995	7.54
432.436	7.56
432.877	7.55
433.318	7.56
433.759	7.58
434.2	7.62
434.64	7.64
435.081	7.66
435.522	7.67
435.962	7.69
436.403	7.71
436.843	7.72
437.284	7.74
437.724	7.78
438.164	7.79
438.604	7.84
439.045	7.86
439.485	7.89
439.925	7.93
440.365	7.98
440.805	8.02
441.245	8.07
441.685	8.13
442.125	8.17
442.564	8.22
443.004	8.28
443.444	8.32
443.883	8.38
444.323	8.42
444.762	8.49
445.202	8.54
445.641	8.62
446.081	8.7
446.52	8.75
446.959	8.84
447.398	8.91
447.837	8.99
448.276	9.05
448.716	9.13
449.154	9.22
449.593	9.3
450.032	9.36
450.471	9.4
450.91	9.43
451.349	9.48
451.787	9.52
452.226	9.55
452.664	9.58
453.103	9.6
453.541	9.61
453.98	9.63
454.418	9.64
454.856	9.64
455.295	9.64
455.733	9.66
456.171	9.66
456.609	9.66
457.047	9.65
457.485	9.65
457.923	9.66
458.361	9.66
458.798	9.66
459.236	9.66
459.674	9.66
460.111	9.67
460.549	9.67
460.987	9.68
461.424	9.69
461.862	9.71
462.299	9.72
462.736	9.72
463.173	9.72
463.611	9.72
464.048	9.73
464.485	9.73
464.922	9.74
465.359	9.75
465.796	9.74
466.233	9.74
466.67	9.75
467.106	9.75
467.543	9.75
467.98	9.76
468.416	9.77
468.853	9.78
469.29	9.8
469.726	9.81
470.162	9.81
470.599	9.83
471.035	9.84
471.471	9.84
471.907	9.85
472.344	9.86
472.78	9.87
473.216	9.88
473.652	9.89
474.088	9.87
474.523	9.89
474.959	9.89
475.395	9.89
475.831	9.91
476.266	9.93
476.702	9.94
477.138	9.95
477.573	9.96
478.008	9.97
478.444	9.98
478.879	10
479.314	10
479.75	10.02
480.185	10.03
480.62	10.02
481.055	10.01
481.49	10.02
481.925	10.04
482.36	10.05
482.795	10.06
483.229	10.08
483.664	10.1
484.099	10.12
484.534	10.15
484.968	10.18
485.403	10.22
485.837	10.27
486.271	10.33
486.706	10.38
487.14	10.43
487.574	10.49
488.009	10.56
488.443	10.63
488.877	10.71
489.311	10.79
489.745	10.88
490.179	10.97
490.613	11.06
491.046	11.15
491.48	11.26
491.914	11.36
492.348	11.48
492.781	11.6
493.215	11.72
493.648	11.84
494.082	11.97
494.515	12.1
494.948	12.25
495.382	12.4
495.815	12.55
496.248	12.7
496.681	12.87
497.114	13.03
497.547	13.19
497.98	13.37
498.413	13.54
498.846	13.73
499.279	13.91
499.711	14.1
500.144	14.3
500.577	14.49
501.009	14.69
501.442	14.9
501.874	15.13
502.306	15.35
502.739	15.58
503.171	15.82
503.603	16.05
504.036	16.31
504.468	16.55
504.9	16.8
505.332	17.06
505.764	17.32
506.196	17.59
506.627	17.85
507.059	18.14
507.491	18.42
507.923	18.69
508.354	18.98
508.786	19.28
509.217	19.58
509.649	19.86
510.08	20.16
510.512	20.47
510.943	20.77
511.374	21.08
511.805	21.38
512.237	21.69
512.668	22
513.099	22.3
513.53	22.6
513.961	22.91
514.391	23.22
514.822	23.52
515.253	23.8
515.684	24.09
516.114	24.37
516.545	24.64
516.975	24.92
517.406	25.2
517.836	25.47
518.267	25.75
518.697	26
519.127	26.25
519.558	26.52
519.988	26.79
520.418	27.03
520.848	27.27
521.278	27.51
521.708	27.86
522.138	28.09
522.567	28.32
522.997	28.53
523.427	28.75
523.857	28.95
524.286	29.12
524.716	29.31
525.145	29.51
525.575	29.7
526.004	29.88
526.433	29.92
526.863	30.07
527.292	30.22
527.721	30.36
528.15	30.47
528.579	30.62
529.008	30.77
529.437	30.9
529.866	31
530.295	31.11
530.724	31.19
531.152	31.3
531.581	31.4
532.01	31.5
532.438	31.58
532.867	31.7
533.295	31.77
533.723	31.85
534.152	31.91
534.58	31.98
535.008	32.04
535.436	32.11
535.865	32.15
536.293	32.2
536.721	32.25
537.149	32.31
537.576	32.33
538.004	32.38
538.432	32.39
538.86	32.42
539.287	32.45
539.715	32.48
540.143	32.5
540.57	32.53
540.998	32.55
541.425	32.56
541.852	32.57
542.28	32.6
542.707	32.6
543.134	32.63
543.561	32.65
543.988	32.67
544.415	32.68
544.842	32.69
545.269	32.73
545.696	32.76
546.123	32.79
546.549	32.82
546.976	32.83
547.403	32.88
547.829	32.91
548.256	32.93
548.682	32.97
549.108	33.02
549.535	33.06
549.961	33.07
550.387	33.08
550.813	33.09
551.24	33.1
551.666	33.13
552.092	33.15
552.518	33.16
552.943	33.16
553.369	33.14
553.795	33.14
554.221	33.14
554.646	33.13
555.072	33.13
555.498	33.12
555.923	33.11
556.349	33.08
556.774	33.03
557.199	33
557.625	32.95
558.05	32.92
558.475	32.86
558.9	32.83
559.325	32.8
559.75	32.74
560.175	32.68
560.6	32.6
561.025	32.53
561.449	32.47
561.874	32.41
562.299	32.35
562.723	32.27
563.148	32.17
563.572	32.06
563.997	31.96
564.421	31.86
564.846	31.75
565.27	31.64
565.694	31.53
566.118	31.41
566.542	31.28
566.966	31.14
567.39	31.02
567.814	30.92
568.238	30.79
568.662	30.67
569.086	30.55
569.509	30.43
569.933	30.33
570.357	30.2
570.78	30.07
571.204	29.96
571.627	29.86
572.05	29.73
572.474	29.64
572.897	29.54
573.32	29.42
573.743	29.31
574.166	29.22
574.589	29.1
575.012	29.01
575.435	28.92
575.858	28.83
576.281	28.72
576.704	28.64
577.126	28.56
577.549	28.47
577.972	28.41
578.394	28.35
578.817	28.28
579.239	28.23
579.661	28.17
580.084	28.11
580.506	28.05
580.928	27.99
581.35	27.93
581.772	27.85
582.194	27.79
582.616	27.72
583.038	27.64
583.46	27.56
583.882	27.5
584.303	27.43
584.725	27.37
585.147	27.32
585.568	27.27
585.99	27.21
586.411	27.17
586.833	27.13
587.254	27.06
587.675	27.03
588.096	26.99
588.518	26.94
588.939	26.9
589.36	26.86
589.781	26.83
590.202	26.78
590.623	26.75
591.043	26.71
591.464	26.68
591.885	26.65
592.305	26.63
592.726	26.6
593.147	26.58
593.567	26.56
593.987	26.51
594.408	26.48
594.828	26.46
595.248	26.44
595.669	26.4
596.089	26.36
596.509	26.33
596.929	26.29
597.349	26.25
597.769	26.21
598.189	26.17
598.608	26.14
599.028	26.11
599.448	26.07
599.867	26.02
600.287	26
600.706	25.95
601.126	25.91
601.545	25.86
601.965	25.82
602.384	25.77
602.803	25.71
603.222	25.65
603.641	25.59
604.061	25.53
604.48	25.46
604.898	25.38
605.317	25.33
605.736	25.26
606.155	25.19
606.574	25.12
606.992	25.05
607.411	24.98
607.829	24.88
608.248	24.79
608.666	24.71
609.085	24.63
609.503	24.57
609.921	24.5
610.339	24.41
610.758	24.34
611.176	24.25
611.594	24.17
612.012	24.08
612.43	24.02
612.847	23.95
613.265	23.88
613.683	23.8
614.101	23.7
614.518	23.6
614.936	23.51
615.353	23.43
615.771	23.35
616.188	23.28
616.606	23.22
617.023	23.16
617.44	23.1
617.857	23.04
618.274	22.99
618.691	22.94
619.108	22.89
619.525	22.84
619.942	22.81
620.359	22.77
620.776	22.73
621.192	22.69
621.609	22.66
622.026	22.62
622.442	22.58
622.859	22.56
623.275	22.53
623.691	22.51
624.108	22.5
624.524	22.47
624.94	22.46
625.356	22.46
625.772	22.43
626.188	22.42
626.604	22.4
627.02	22.4
627.436	22.39
627.852	22.38
628.268	22.36
628.683	22.35
629.099	22.35
629.514	22.32
629.93	22.3
630.345	22.29
630.761	22.25
631.176	22.22
631.591	22.16
632.007	22.11
632.422	22.06
632.837	22.01
633.252	21.94
633.667	21.87
634.082	21.8
634.497	21.71
634.911	21.61
635.326	21.53
635.741	21.43
636.155	21.33
636.57	21.22
636.984	21.1
637.399	20.95
637.813	20.82
638.228	20.66
638.642	20.5
639.056	20.34
639.47	20.19
639.884	20.02
640.298	19.87
640.712	19.71
641.126	19.55
641.54	19.38
641.954	19.21
642.368	19.04
642.781	18.87
643.195	18.71
643.609	18.54
644.022	18.37
644.436	18.22
644.849	18.05
645.262	17.89
645.676	17.74
646.089	17.6
646.502	17.47
646.915	17.36
647.328	17.25
647.741	17.15
648.154	17.05
648.567	16.96
648.98	16.87
649.393	16.8
649.805	16.72
650.218	16.65
650.631	16.59
651.043	16.51
651.456	16.43
651.868	16.36
652.28	16.28
652.693	16.21
653.105	16.13
653.517	16.05
653.929	15.95
654.341	15.86
654.753	15.75
655.165	15.63
655.577	15.52
655.989	15.4
656.401	15.29
656.813	15.14
657.224	14.99
657.636	14.84
658.047	14.69
658.459	14.53
658.87	14.37
659.282	14.19
659.693	14.03
660.104	13.85
660.515	13.66
660.926	13.48
661.338	13.31
661.749	13.14
662.159	12.97
662.57	12.81
662.981	12.65
663.392	12.49
663.803	12.35
664.213	12.19
664.624	12.05
665.035	11.91
665.445	11.78
665.855	11.65
666.266	11.53
666.676	11.43
667.086	11.31
667.497	11.2
667.907	11.11
668.317	11.01
668.727	10.93
669.137	10.86
669.547	10.79
669.956	10.72
670.366	10.67
670.776	10.62
671.186	10.58
671.595	10.53
672.005	10.5
672.414	10.49
672.824	10.46
673.233	10.45
673.642	10.43
674.052	10.43
674.461	10.44
674.87	10.45
675.279	10.46
675.688	10.48
676.097	10.51
676.506	10.55
676.915	10.59
677.323	10.64
677.732	10.71
678.141	10.79
678.549	10.88
678.958	10.99
679.366	11.11
679.775	11.25
680.183	11.41
680.592	11.6
681	11.82
681.408	12.06
681.816	12.32
682.224	12.59
682.632	12.9
683.04	13.23
683.448	13.59
683.856	13.97
684.264	14.39
684.671	14.82
685.079	15.26
685.487	15.74
685.894	16.24
686.302	16.77
686.709	17.32
687.116	17.87
687.524	18.43
687.931	19.03
688.338	19.62
688.745	20.23
689.152	20.85
689.559	21.49
689.966	22.12
690.373	22.74
690.78	23.37
691.187	23.98
691.593	24.61
692	25.23
692.407	25.82
692.813	26.41
693.22	26.98
693.626	27.54
694.032	28.11
694.439	28.64
694.845	29.18
695.251	29.69
695.657	30.18
696.063	30.66
696.469	31.15
696.875	31.63
697.281	32.1
697.687	32.56
698.093	33.01
698.498	33.42
698.904	33.82
699.31	34.21
699.715	34.59
700.12	34.96
700.526	35.33
700.931	35.67
701.337	36
701.742	36.32
702.147	36.62
702.552	36.91
702.957	37.19
703.362	37.46
703.767	37.73
704.172	38
704.577	38.27
704.981	38.52
705.386	38.74
705.791	38.96
706.195	39.19
706.6	39.43
707.004	39.64
707.408	39.84
707.813	40.07
708.217	40.25
708.621	40.44
709.025	40.6
709.43	40.77
709.834	40.98
710.237	41.18
710.641	41.36
711.045	41.51
711.449	41.68
711.853	41.87
712.256	42.01
712.66	42.16
713.064	42.31
713.467	42.46
713.87	42.6
714.274	42.71
714.677	42.84
715.08	42.94
715.484	43.05
715.887	43.19
716.29	43.27
716.693	43.39
717.096	43.52
717.499	43.64
717.901	43.77
718.304	43.9
718.707	44.01
719.109	44.12
719.512	44.24
719.915	44.37
720.317	44.43
720.719	44.53
721.122	44.63
721.524	44.73
721.926	44.81
722.328	44.89
722.731	44.94
723.133	45.04
723.535	45.13
723.937	45.19
724.338	45.25
724.74	45.36
725.142	45.5
725.544	45.55
725.945	45.62
726.347	45.68
726.748	45.74
727.15	45.8
727.551	45.86
727.952	45.88
728.354	45.95
728.755	46
729.156	46.04
729.557	46.03
729.958	46.07
730.359	46.11
730.76	46.16
731.161	46.21
731.562	46.28
731.962	46.28
732.363	46.35
732.763	46.36
733.164	46.37
733.564	46.4
733.965	46.43
734.365	46.47
734.766	46.51
735.166	46.53
735.566	46.57
735.966	46.58
736.366	46.62
736.766	46.6
737.166	46.64
737.566	46.69
737.966	46.71
738.365	46.72
738.765	46.73
739.165	46.76
739.564	46.77
739.964	46.78
740.363	46.77
740.763	46.79
741.162	46.82
741.561	46.82
741.96	46.81
742.36	46.82
742.759	46.86
743.158	46.87
743.557	46.85
743.955	46.88
744.354	46.9
744.753	46.93
745.152	46.95
745.55	46.96
745.949	46.99
746.348	47.05
746.746	47.05
747.144	47.05
747.543	47.06
747.941	47.1
748.339	47.09
748.737	47.09
749.136	47.09
749.534	47.08
749.932	47.09
750.33	47.09
750.727	47.07
751.125	47.06
751.523	47.06
751.921	47.08
752.318	47.07
752.716	47.06
753.113	47.06
753.511	47.07
753.908	47.1
754.305	47.11
754.703	47.1
755.1	47.09
755.497	47.09
755.894	47.08
756.291	47.06
756.688	47.05
757.085	47.06
757.482	47.04
757.878	47.02
758.275	46.98
758.672	46.97
759.068	46.96
759.465	46.97
759.861	46.99
760.258	46.99
760.654	47
761.05	47.02
761.447	47.02
761.843	47.02
762.239	47.03
762.635	47.04
763.031	47.05
763.427	47.06
763.822	47.03
764.218	47.01
764.614	47.01
765.01	46.97
765.405	46.94
765.801	46.89
766.196	46.87
766.592	46.87
766.987	46.86
767.382	46.84
767.778	46.82
768.173	46.84
768.568	46.85
768.963	46.85
769.358	46.88
769.753	46.88
770.148	46.91
770.542	46.92
770.937	46.92
771.332	46.93
771.726	46.96
772.121	46.96
772.515	46.96
772.91	46.93
773.304	46.93
773.699	46.92
774.093	46.9
774.487	46.91
774.881	46.92
775.275	46.94
775.669	46.92
776.063	46.89
776.457	46.9
776.851	46.91
777.245	46.9
777.638	46.9
778.032	46.94
