Data from N_3_DIV_WI_4N_Splice17_13-52-49-064.txt Node
Date: Sat Mar 07 13:52:49 EST 2020
User: sa697716
Spectrometer: NQ5500242
Trigger mode: 0
Integration Time (sec): 1.450000E-1
Scans to average: 20
Nonlinearity correction enabled: false
Boxcar width: 5
Storing dark spectrum: false
XAxis mode: Wavelengths
Number of Pixels in Spectrum: 512
>>>>>Begin Spectral Data<<<<<
187.83	165.68
188.298	188.22
188.766	175.48
189.233	142.87
189.701	148.91
190.169	179.84
190.636	197.98
191.104	271.75
191.571	155.21
192.039	12.17
192.506	-156.83
192.974	1.81
193.441	91.5
193.908	138.59
194.375	109.76
194.842	28.88
195.31	117.51
195.777	361.86
196.244	67.59
196.711	46.8
197.177	45.52
197.644	43.85
198.111	43.18
198.578	42.56
199.045	41.97
199.511	41.78
199.978	41.93
200.445	41.93
200.911	41.69
201.378	41.34
201.844	41.46
202.31	41.29
202.777	41.32
203.243	41.43
203.709	41.38
204.176	41.2
204.642	40.85
205.108	40.88
205.574	40.42
206.04	39.76
206.506	39.43
206.972	39.4
207.438	38.86
207.903	38.39
208.369	37.54
208.835	36.92
209.301	36.07
209.766	35.06
210.232	34.06
210.697	33.15
211.163	32.43
211.628	31.69
212.094	30.35
212.559	29.9
213.024	28.95
213.49	28.51
213.955	27.61
214.42	27.02
214.885	26.38
215.35	25.38
215.815	24.15
216.28	22.47
216.745	20.54
217.21	18.7
217.675	16.81
218.14	15.37
218.604	13.96
219.069	12.85
219.534	11.94
219.998	11.13
220.463	10.53
220.927	9.94
221.392	9.51
221.856	9.18
222.32	8.9
222.785	8.68
223.249	8.41
223.713	8.2
224.177	8.05
224.642	7.86
225.106	7.66
225.57	7.48
226.034	7.35
226.497	7.22
226.961	7.07
227.425	6.95
227.889	6.81
228.353	6.71
228.816	6.58
229.28	6.48
229.744	6.39
230.207	6.31
230.671	6.22
231.134	6.12
231.597	6.06
232.061	5.98
232.524	5.88
232.987	5.8
233.45	5.73
233.914	5.67
234.377	5.6
234.84	5.52
235.303	5.47
235.766	5.41
236.229	5.35
236.691	5.28
237.154	5.24
237.617	5.21
238.08	5.16
238.542	5.11
239.005	5.08
239.468	5.03
239.93	4.99
240.393	4.94
240.855	4.89
241.317	4.84
241.78	4.8
242.242	4.74
242.704	4.71
243.166	4.67
243.629	4.64
244.091	4.6
244.553	4.56
245.015	4.51
245.477	4.47
245.939	4.43
246.4	4.41
246.862	4.37
247.324	4.33
247.786	4.28
248.247	4.25
248.709	4.2
249.17	4.16
249.632	4.15
250.093	4.13
250.555	4.1
251.016	4.07
251.477	4.03
251.939	4.01
252.4	3.99
252.861	3.96
253.322	3.95
253.783	3.93
254.244	3.91
254.705	3.87
255.166	3.84
255.627	3.81
256.088	3.79
256.549	3.77
257.009	3.75
257.47	3.72
257.931	3.69
258.391	3.66
258.852	3.63
259.312	3.6
259.773	3.58
260.233	3.56
260.694	3.54
261.154	3.52
261.614	3.49
262.074	3.47
262.534	3.45
262.994	3.43
263.455	3.41
263.915	3.4
264.374	3.38
264.834	3.36
265.294	3.35
265.754	3.34
266.214	3.32
266.673	3.31
267.133	3.3
267.593	3.29
268.052	3.29
268.512	3.28
268.971	3.28
269.431	3.27
269.89	3.26
270.349	3.26
270.809	3.25
271.268	3.24
271.727	3.23
272.186	3.23
272.645	3.22
273.104	3.2
273.563	3.19
274.022	3.18
274.481	3.17
274.94	3.17
275.399	3.15
275.857	3.14
276.316	3.14
276.775	3.13
277.233	3.13
277.692	3.12
278.15	3.12
278.609	3.11
279.067	3.11
279.525	3.1
279.984	3.1
280.442	3.1
280.9	3.1
281.358	3.09
281.816	3.1
282.274	3.09
282.732	3.08
283.19	3.08
283.648	3.08
284.106	3.08
284.564	3.07
285.021	3.07
285.479	3.06
285.937	3.05
286.394	3.04
286.852	3.02
287.309	3.01
287.767	3.01
288.224	3
288.682	2.98
289.139	2.97
289.596	2.96
290.053	2.94
290.511	2.92
290.968	2.91
291.425	2.9
291.882	2.9
292.339	2.89
292.796	2.88
293.252	2.87
293.709	2.87
294.166	2.86
294.623	2.85
295.079	2.84
295.536	2.84
295.992	2.83
296.449	2.82
296.905	2.82
297.362	2.81
297.818	2.8
298.274	2.81
298.731	2.8
299.187	2.79
299.643	2.78
300.099	2.78
300.555	2.77
301.011	2.77
301.467	2.77
301.923	2.76
302.379	2.76
302.835	2.76
303.291	2.75
303.746	2.75
304.202	2.76
304.658	2.76
305.113	2.76
305.569	2.76
306.024	2.75
306.479	2.74
306.935	2.74
307.39	2.73
307.845	2.74
308.301	2.74
308.756	2.74
309.211	2.73
309.666	2.73
310.121	2.74
310.576	2.74
311.031	2.74
311.486	2.74
311.94	2.75
312.395	2.75
312.85	2.75
313.305	2.75
313.759	2.75
314.214	2.75
314.668	2.74
315.123	2.74
315.577	2.73
316.032	2.73
316.486	2.72
316.94	2.72
317.394	2.71
317.849	2.7
318.303	2.69
318.757	2.68
319.211	2.68
319.665	2.66
320.119	2.65
320.572	2.64
321.026	2.63
321.48	2.63
321.934	2.62
322.387	2.61
322.841	2.6
323.295	2.61
323.748	2.6
324.202	2.6
324.655	2.6
325.108	2.61
325.562	2.61
326.015	2.62
326.468	2.61
326.921	2.62
327.374	2.63
327.827	2.63
328.28	2.62
328.733	2.63
329.186	2.62
329.639	2.62
330.092	2.61
330.545	2.61
330.997	2.61
331.45	2.61
331.903	2.61
332.355	2.62
332.808	2.62
333.26	2.61
333.713	2.61
334.165	2.61
334.617	2.61
335.069	2.61
335.522	2.61
335.974	2.61
336.426	2.61
336.878	2.6
337.33	2.59
337.782	2.58
338.234	2.59
338.686	2.59
339.137	2.6
339.589	2.58
340.041	2.59
340.493	2.59
340.944	2.57
341.396	2.56
341.847	2.56
342.299	2.55
342.75	2.55
343.201	2.53
343.653	2.52
344.104	2.5
344.555	2.49
345.006	2.48
345.457	2.46
345.908	2.46
346.359	2.46
346.81	2.46
347.261	2.45
347.712	2.44
348.163	2.44
348.613	2.45
349.064	2.46
349.515	2.46
349.965	2.46
350.416	2.46
350.866	2.45
351.317	2.44
351.767	2.45
352.217	2.45
352.668	2.46
353.118	2.46
353.568	2.45
354.018	2.45
354.468	2.46
354.918	2.46
355.368	2.47
355.818	2.47
356.268	2.47
356.718	2.47
357.168	2.46
357.617	2.45
358.067	2.45
358.517	2.47
358.966	2.46
359.416	2.46
359.865	2.45
360.315	2.45
360.764	2.45
361.213	2.45
361.663	2.45
362.112	2.46
362.561	2.46
363.01	2.47
363.459	2.46
363.908	2.46
364.357	2.46
364.806	2.47
365.255	2.48
365.703	2.5
366.152	2.5
366.601	2.52
367.05	2.53
367.498	2.53
367.947	2.53
368.395	2.55
368.844	2.57
369.292	2.57
369.74	2.58
370.189	2.59
370.637	2.59
371.085	2.6
371.533	2.6
371.981	2.62
372.429	2.64
372.877	2.65
373.325	2.67
373.773	2.68
374.221	2.69
374.669	2.73
375.116	2.73
375.564	2.75
376.012	2.77
376.459	2.8
376.907	2.82
377.354	2.85
377.801	2.88
378.249	2.91
378.696	2.94
379.143	2.98
379.591	3
380.038	3.05
380.485	3.09
380.932	3.13
381.379	3.17
381.826	3.2
382.273	3.24
382.72	3.27
383.166	3.31
383.613	3.34
384.06	3.38
384.506	3.43
384.953	3.48
385.4	3.52
385.846	3.57
386.292	3.61
386.739	3.66
387.185	3.7
387.631	3.75
388.078	3.8
388.524	3.85
388.97	3.9
389.416	3.96
389.862	4.01
390.308	4.06
390.754	4.1
391.2	4.16
391.645	4.2
392.091	4.26
392.537	4.32
392.983	4.37
393.428	4.42
393.874	4.46
394.319	4.49
394.765	4.53
395.21	4.55
395.655	4.58
396.101	4.62
396.546	4.63
396.991	4.66
397.436	4.68
397.881	4.72
398.326	4.74
398.771	4.77
399.216	4.79
399.661	4.82
400.106	4.84
400.551	4.86
400.995	4.87
401.44	4.88
401.885	4.9
402.329	4.91
402.774	4.91
403.218	4.94
403.663	4.94
404.107	4.96
404.551	4.97
404.995	4.97
405.44	4.96
405.884	4.97
406.328	4.98
406.772	4.98
407.216	4.97
407.66	4.97
408.104	4.95
408.547	4.94
408.991	4.93
409.435	4.92
409.879	4.93
410.322	4.94
410.766	4.94
411.209	4.95
411.653	4.95
412.096	4.96
412.54	4.96
412.983	4.96
413.426	4.98
413.869	4.99
414.312	5.01
414.756	5
415.199	5
415.642	5.01
416.085	5
416.527	4.99
416.97	4.98
417.413	4.98
417.856	4.98
418.298	4.96
418.741	4.95
419.184	4.93
419.626	4.92
420.069	4.91
420.511	4.91
420.953	4.92
421.396	4.93
421.838	4.93
422.28	4.93
422.722	4.93
423.164	4.93
423.606	4.93
424.048	4.93
424.49	4.94
424.932	4.93
425.374	4.9
425.816	4.86
426.258	4.83
426.699	4.8
427.141	4.81
427.582	4.79
428.024	4.79
428.465	4.78
428.907	4.77
429.348	4.74
429.789	4.75
430.231	4.77
430.672	4.79
431.113	4.8
431.554	4.81
431.995	4.81
432.436	4.8
432.877	4.81
433.318	4.82
433.759	4.83
434.2	4.85
434.64	4.83
435.081	4.82
435.522	4.82
435.962	4.83
436.403	4.85
436.843	4.85
437.284	4.85
437.724	4.85
438.164	4.83
438.604	4.83
439.045	4.83
439.485	4.86
439.925	4.87
440.365	4.88
440.805	4.9
441.245	4.92
441.685	4.95
442.125	4.98
442.564	5
443.004	5.03
443.444	5.05
443.883	5.08
444.323	5.09
444.762	5.1
445.202	5.12
445.641	5.14
446.081	5.15
446.52	5.15
446.959	5.18
447.398	5.22
447.837	5.25
448.276	5.28
448.716	5.3
449.154	5.34
449.593	5.37
450.032	5.4
450.471	5.4
450.91	5.42
451.349	5.45
451.787	5.44
452.226	5.43
452.664	5.43
453.103	5.43
453.541	5.42
453.98	5.42
454.418	5.4
454.856	5.39
455.295	5.38
455.733	5.36
456.171	5.34
456.609	5.35
457.047	5.34
457.485	5.33
457.923	5.33
458.361	5.32
458.798	5.31
459.236	5.31
459.674	5.3
460.111	5.3
460.549	5.31
460.987	5.31
461.424	5.3
461.862	5.31
462.299	5.32
462.736	5.32
463.173	5.32
463.611	5.33
464.048	5.33
464.485	5.32
464.922	5.33
465.359	5.32
465.796	5.34
466.233	5.35
466.67	5.35
467.106	5.36
467.543	5.34
467.98	5.34
468.416	5.34
468.853	5.34
469.29	5.35
469.726	5.35
470.162	5.35
470.599	5.33
471.035	5.32
471.471	5.33
471.907	5.31
472.344	5.33
472.78	5.34
473.216	5.34
473.652	5.35
474.088	5.34
474.523	5.35
474.959	5.36
475.395	5.35
475.831	5.35
476.266	5.35
476.702	5.35
477.138	5.35
477.573	5.36
478.008	5.36
478.444	5.36
478.879	5.37
479.314	5.37
479.75	5.37
480.185	5.36
480.62	5.36
481.055	5.36
481.49	5.36
481.925	5.37
482.36	5.37
482.795	5.37
483.229	5.37
483.664	5.38
484.099	5.38
484.534	5.39
484.968	5.42
485.403	5.43
485.837	5.44
486.271	5.47
486.706	5.48
487.14	5.49
487.574	5.52
488.009	5.54
488.443	5.56
488.877	5.6
489.311	5.63
489.745	5.67
490.179	5.71
490.613	5.76
491.046	5.79
491.48	5.83
491.914	5.89
492.348	5.94
492.781	6.01
493.215	6.07
493.648	6.13
494.082	6.19
494.515	6.25
494.948	6.31
495.382	6.38
495.815	6.47
496.248	6.54
496.681	6.63
497.114	6.71
497.547	6.8
497.98	6.89
498.413	6.99
498.846	7.09
499.279	7.2
499.711	7.31
500.144	7.43
500.577	7.56
501.009	7.69
501.442	7.82
501.874	7.97
502.306	8.11
502.739	8.27
503.171	8.43
503.603	8.58
504.036	8.75
504.468	8.91
504.9	9.09
505.332	9.25
505.764	9.44
506.196	9.63
506.627	9.82
507.059	10.03
507.491	10.22
507.923	10.43
508.354	10.65
508.786	10.87
509.217	11.1
509.649	11.34
510.08	11.57
510.512	11.82
510.943	12.07
511.374	12.31
511.805	12.57
512.237	12.83
512.668	13.09
513.099	13.35
513.53	13.63
513.961	13.9
514.391	14.17
514.822	14.46
515.253	14.73
515.684	15.01
516.114	15.3
516.545	15.59
516.975	15.88
517.406	16.17
517.836	16.45
518.267	16.73
518.697	16.99
519.127	17.26
519.558	17.53
519.988	17.8
520.418	18.06
520.848	18.32
521.278	18.56
521.708	19.03
522.138	19.27
522.567	19.52
522.997	19.77
523.427	20.02
523.857	20.27
524.286	20.49
524.716	20.71
525.145	20.93
525.575	21.14
526.004	21.35
526.433	21.33
526.863	21.53
527.292	21.72
527.721	21.9
528.15	22.05
528.579	22.2
529.008	22.38
529.437	22.51
529.866	22.65
530.295	22.79
530.724	22.92
531.152	23.03
531.581	23.15
532.01	23.26
532.438	23.36
532.867	23.47
533.295	23.57
533.723	23.64
534.152	23.74
534.58	23.82
535.008	23.89
535.436	23.95
535.865	24.02
536.293	24.07
536.721	24.12
537.149	24.19
537.576	24.23
538.004	24.29
538.432	24.33
538.86	24.37
539.287	24.41
539.715	24.47
540.143	24.51
540.57	24.55
540.998	24.58
541.425	24.64
541.852	24.67
542.28	24.7
542.707	24.73
543.134	24.76
543.561	24.81
543.988	24.83
544.415	24.84
544.842	24.87
545.269	24.91
545.696	24.94
546.123	24.95
546.549	24.96
546.976	25
547.403	25.03
547.829	25.05
548.256	25.06
548.682	25.1
549.108	25.13
549.535	25.15
549.961	25.15
550.387	25.18
550.813	25.2
551.24	25.22
551.666	25.21
552.092	25.21
552.518	25.2
552.943	25.19
553.369	25.18
553.795	25.15
554.221	25.14
554.646	25.11
555.072	25.08
555.498	25.05
555.923	25
556.349	24.95
556.774	24.91
557.199	24.87
557.625	24.83
558.05	24.78
558.475	24.73
558.9	24.67
559.325	24.63
559.75	24.56
560.175	24.49
560.6	24.42
561.025	24.35
561.449	24.26
561.874	24.17
562.299	24.08
562.723	23.97
563.148	23.87
563.572	23.75
563.997	23.63
564.421	23.51
564.846	23.39
565.27	23.26
565.694	23.14
566.118	23.02
566.542	22.9
566.966	22.76
567.39	22.63
567.814	22.51
568.238	22.38
568.662	22.26
569.086	22.12
569.509	22.01
569.933	21.89
570.357	21.77
570.78	21.64
571.204	21.51
571.627	21.4
572.05	21.28
572.474	21.16
572.897	21.05
573.32	20.92
573.743	20.81
574.166	20.68
574.589	20.57
575.012	20.46
575.435	20.36
575.858	20.26
576.281	20.15
576.704	20.07
577.126	19.97
577.549	19.87
577.972	19.77
578.394	19.69
578.817	19.63
579.239	19.55
579.661	19.48
580.084	19.4
580.506	19.34
580.928	19.26
581.35	19.19
581.772	19.12
582.194	19.04
582.616	18.98
583.038	18.9
583.46	18.82
583.882	18.74
584.303	18.66
584.725	18.59
585.147	18.53
585.568	18.47
585.99	18.4
586.411	18.34
586.833	18.29
587.254	18.24
587.675	18.19
588.096	18.14
588.518	18.11
588.939	18.06
589.36	18.02
589.781	17.95
590.202	17.92
590.623	17.88
591.043	17.83
591.464	17.8
591.885	17.75
592.305	17.71
592.726	17.68
593.147	17.64
593.567	17.6
593.987	17.56
594.408	17.53
594.828	17.49
595.248	17.47
595.669	17.44
596.089	17.4
596.509	17.38
596.929	17.35
597.349	17.31
597.769	17.27
598.189	17.23
598.608	17.21
599.028	17.18
599.448	17.13
599.867	17.09
600.287	17.05
600.706	17.02
601.126	16.97
601.545	16.94
601.965	16.9
602.384	16.86
602.803	16.82
603.222	16.76
603.641	16.71
604.061	16.66
604.48	16.61
604.898	16.55
605.317	16.48
605.736	16.43
606.155	16.37
606.574	16.3
606.992	16.23
607.411	16.17
607.829	16.06
608.248	15.98
608.666	15.91
609.085	15.83
609.503	15.77
609.921	15.7
610.339	15.63
610.758	15.54
611.176	15.46
611.594	15.39
612.012	15.31
612.43	15.26
612.847	15.2
613.265	15.12
613.683	15.06
614.101	14.98
614.518	14.91
614.936	14.84
615.353	14.77
615.771	14.71
616.188	14.64
616.606	14.58
617.023	14.52
617.44	14.47
617.857	14.41
618.274	14.34
618.691	14.28
619.108	14.23
619.525	14.17
619.942	14.13
620.359	14.1
620.776	14.06
621.192	14.03
621.609	13.99
622.026	13.95
622.442	13.93
622.859	13.9
623.275	13.87
623.691	13.85
624.108	13.83
624.524	13.82
624.94	13.8
625.356	13.78
625.772	13.77
626.188	13.77
626.604	13.76
627.02	13.74
627.436	13.74
627.852	13.73
628.268	13.72
628.683	13.7
629.099	13.69
629.514	13.66
629.93	13.63
630.345	13.6
630.761	13.55
631.176	13.52
631.591	13.48
632.007	13.45
632.422	13.4
632.837	13.34
633.252	13.28
633.667	13.22
634.082	13.15
634.497	13.08
634.911	13.01
635.326	12.94
635.741	12.85
636.155	12.74
636.57	12.63
636.984	12.54
637.399	12.44
637.813	12.33
638.228	12.2
638.642	12.08
639.056	11.94
639.47	11.82
639.884	11.69
640.298	11.54
640.712	11.42
641.126	11.29
641.54	11.14
641.954	10.99
642.368	10.86
642.781	10.75
643.195	10.62
643.609	10.5
644.022	10.39
644.436	10.27
644.849	10.17
645.262	10.05
645.676	9.95
646.089	9.85
646.502	9.77
646.915	9.69
647.328	9.6
647.741	9.52
648.154	9.45
648.567	9.38
648.98	9.31
649.393	9.26
649.805	9.23
650.218	9.16
650.631	9.12
651.043	9.07
651.456	9.02
651.868	8.96
652.28	8.91
652.693	8.85
653.105	8.8
653.517	8.75
653.929	8.69
654.341	8.61
654.753	8.55
655.165	8.47
655.577	8.4
655.989	8.31
656.401	8.23
656.813	8.16
657.224	8.06
657.636	7.96
658.047	7.87
658.459	7.77
658.87	7.66
659.282	7.55
659.693	7.45
660.104	7.34
660.515	7.23
660.926	7.13
661.338	7.01
661.749	6.9
662.159	6.79
662.57	6.69
662.981	6.59
663.392	6.5
663.803	6.42
664.213	6.33
664.624	6.24
665.035	6.16
665.445	6.07
665.855	6
666.266	5.95
666.676	5.89
667.086	5.81
667.497	5.76
667.907	5.71
668.317	5.66
668.727	5.62
669.137	5.6
669.547	5.57
669.956	5.55
670.366	5.52
670.776	5.49
671.186	5.47
671.595	5.46
672.005	5.44
672.414	5.43
672.824	5.43
673.233	5.42
673.642	5.41
674.052	5.42
674.461	5.42
674.87	5.43
675.279	5.44
675.688	5.46
676.097	5.49
676.506	5.52
676.915	5.54
677.323	5.57
677.732	5.61
678.141	5.66
678.549	5.69
678.958	5.75
679.366	5.82
679.775	5.89
680.183	5.98
680.592	6.08
681	6.19
681.408	6.32
681.816	6.45
682.224	6.61
682.632	6.79
683.04	6.98
683.448	7.18
683.856	7.4
684.264	7.64
684.671	7.89
685.079	8.17
685.487	8.49
685.894	8.81
686.302	9.17
686.709	9.53
687.116	9.92
687.524	10.35
687.931	10.79
688.338	11.24
688.745	11.71
689.152	12.21
689.559	12.72
689.966	13.23
690.373	13.75
690.78	14.28
691.187	14.83
691.593	15.38
692	15.92
692.407	16.46
692.813	17.05
693.22	17.61
693.626	18.17
694.032	18.73
694.439	19.31
694.845	19.89
695.251	20.43
695.657	20.97
696.063	21.52
696.469	22.06
696.875	22.59
697.281	23.08
697.687	23.59
698.093	24.07
698.498	24.55
698.904	25.02
699.31	25.46
699.715	25.93
700.12	26.39
700.526	26.82
700.931	27.25
701.337	27.68
701.742	28.1
702.147	28.51
702.552	28.91
702.957	29.29
703.362	29.65
703.767	30.03
704.172	30.37
704.577	30.7
704.981	31.04
705.386	31.37
705.791	31.67
706.195	31.99
706.6	32.3
707.004	32.59
707.408	32.9
707.813	33.2
708.217	33.48
708.621	33.76
709.025	34.03
709.43	34.27
709.834	34.53
710.237	34.79
710.641	35.02
711.045	35.26
711.449	35.51
711.853	35.75
712.256	35.95
712.66	36.16
713.064	36.38
713.467	36.59
713.87	36.8
714.274	36.99
714.677	37.19
715.08	37.4
715.484	37.59
715.887	37.79
716.29	37.95
716.693	38.14
717.096	38.31
717.499	38.5
717.901	38.69
718.304	38.88
718.707	39.05
719.109	39.23
719.512	39.37
719.915	39.53
720.317	39.63
720.719	39.77
721.122	39.91
721.524	40.05
721.926	40.18
722.328	40.29
722.731	40.39
723.133	40.51
723.535	40.62
723.937	40.76
724.338	40.86
724.74	40.98
725.142	41.23
725.544	41.33
725.945	41.45
726.347	41.53
726.748	41.62
727.15	41.71
727.551	41.81
727.952	41.88
728.354	41.95
728.755	42.01
729.156	42.06
729.557	42
729.958	42.06
730.359	42.09
730.76	42.15
731.161	42.2
731.562	42.28
731.962	42.3
732.363	42.35
732.763	42.39
733.164	42.42
733.564	42.49
733.965	42.52
734.365	42.55
734.766	42.59
735.166	42.64
735.566	42.68
735.966	42.7
736.366	42.75
736.766	42.78
737.166	42.81
737.566	42.87
737.966	42.9
738.365	42.94
738.765	43
739.165	43.04
739.564	43.09
739.964	43.14
740.363	43.13
740.763	43.17
741.162	43.21
741.561	43.2
741.96	43.2
742.36	43.24
742.759	43.26
743.158	43.29
743.557	43.28
743.955	43.29
744.354	43.3
744.753	43.35
745.152	43.34
745.55	43.35
745.949	43.41
746.348	43.44
746.746	43.44
747.144	43.44
747.543	43.42
747.941	43.45
748.339	43.44
748.737	43.45
749.136	43.43
749.534	43.43
749.932	43.41
750.33	43.39
750.727	43.39
751.125	43.38
751.523	43.38
751.921	43.4
752.318	43.4
752.716	43.4
753.113	43.41
753.511	43.44
753.908	43.45
754.305	43.5
754.703	43.51
755.1	43.52
755.497	43.53
755.894	43.54
756.291	43.56
756.688	43.54
757.085	43.55
757.482	43.54
757.878	43.55
758.275	43.54
758.672	43.51
759.068	43.53
759.465	43.52
759.861	43.52
760.258	43.52
760.654	43.51
761.05	43.52
761.447	43.52
761.843	43.51
762.239	43.51
762.635	43.51
763.031	43.52
763.427	43.49
763.822	43.49
764.218	43.5
764.614	43.54
765.01	43.53
765.405	43.55
765.801	43.54
766.196	43.55
766.592	43.56
766.987	43.54
767.382	43.54
767.778	43.55
768.173	43.55
768.568	43.57
768.963	43.52
769.358	43.54
769.753	43.53
770.148	43.56
770.542	43.57
770.937	43.57
771.332	43.58
771.726	43.58
772.121	43.59
772.515	43.59
772.91	43.58
773.304	43.61
773.699	43.58
774.093	43.57
774.487	43.55
774.881	43.56
775.275	43.55
775.669	43.53
776.063	43.54
776.457	43.55
776.851	43.53
777.245	43.51
777.638	43.48
778.032	43.5
778.425	43.53
778.819	43.53
779.212	43.53
779.606	43.53
779.999	43.56
780.392	43.58
780.786	43.55
781.179	43.57
781.572	43.61
781.965	43.65
