Data from N_3_HIR_IL_4N_Splice17_14-29-21-749.txt Node
Date: Sat Mar 07 14:29:21 EST 2020
User: sa697716
Spectrometer: NQ5500242
Trigger mode: 0
Integration Time (sec): 1.450000E-1
Scans to average: 20
Nonlinearity correction enabled: false
Boxcar width: 5
Storing dark spectrum: false
XAxis mode: Wavelengths
Number of Pixels in Spectrum: 512
>>>>>Begin Spectral Data<<<<<
187.83	155.66
188.298	156.14
188.766	118.87
189.233	102.74
189.701	111.44
190.169	130.74
190.636	123.83
191.104	136.53
191.571	49.13
192.039	-31.33
192.506	-102.95
192.974	166.91
193.441	143.4
193.908	21.48
194.375	52.12
194.842	6.5
195.31	50.16
195.777	-1.78
196.244	50.21
196.711	62.37
197.177	64.98
197.644	65.07
198.111	64.97
198.578	65.37
199.045	66.02
199.511	65.99
199.978	66.53
200.445	66.23
200.911	66.21
201.378	66.49
201.844	66.56
202.31	66.42
202.777	66.39
203.243	66.52
203.709	66.24
204.176	65.39
204.642	65.02
205.108	64.28
205.574	63.98
206.04	63.67
206.506	63.26
206.972	62.98
207.438	62.18
207.903	61.22
208.369	59.78
208.835	58.57
209.301	57.22
209.766	55.45
210.232	54.14
210.697	52.64
211.163	51.38
211.628	49.98
212.094	48.46
212.559	47.36
213.024	46.35
213.49	45.29
213.955	44.25
214.42	43.34
214.885	42.18
215.35	40.43
215.815	38.27
216.28	35.27
216.745	32.19
217.21	29.25
217.675	26.38
218.14	23.92
218.604	21.82
219.069	20.06
219.534	18.56
219.998	17.34
220.463	16.36
220.927	15.44
221.392	14.77
221.856	14.23
222.32	13.75
222.785	13.36
223.249	12.95
223.713	12.62
224.177	12.33
224.642	12.05
225.106	11.76
225.57	11.49
226.034	11.28
226.497	11.07
226.961	10.85
227.425	10.63
227.889	10.46
228.353	10.31
228.816	10.13
229.28	9.94
229.744	9.77
230.207	9.63
230.671	9.49
231.134	9.34
231.597	9.22
232.061	9.1
232.524	8.98
232.987	8.86
233.45	8.76
233.914	8.66
234.377	8.55
234.84	8.46
235.303	8.37
235.766	8.3
236.229	8.22
236.691	8.13
237.154	8.07
237.617	8.01
238.08	7.91
238.542	7.82
239.005	7.76
239.468	7.7
239.93	7.64
240.393	7.58
240.855	7.49
241.317	7.42
241.78	7.36
242.242	7.27
242.704	7.21
243.166	7.15
243.629	7.09
244.091	7.01
244.553	6.94
245.015	6.88
245.477	6.81
245.939	6.75
246.4	6.69
246.862	6.63
247.324	6.58
247.786	6.51
248.247	6.45
248.709	6.39
249.17	6.34
249.632	6.29
250.093	6.24
250.555	6.19
251.016	6.14
251.477	6.09
251.939	6.05
252.4	6.01
252.861	5.96
253.322	5.92
253.783	5.88
254.244	5.84
254.705	5.8
255.166	5.77
255.627	5.73
256.088	5.69
256.549	5.65
257.009	5.61
257.47	5.57
257.931	5.53
258.391	5.49
258.852	5.44
259.312	5.41
259.773	5.37
260.233	5.34
260.694	5.3
261.154	5.26
261.614	5.23
262.074	5.19
262.534	5.15
262.994	5.12
263.455	5.08
263.915	5.06
264.374	5.03
264.834	5
265.294	4.97
265.754	4.95
266.214	4.93
266.673	4.91
267.133	4.9
267.593	4.88
268.052	4.87
268.512	4.86
268.971	4.84
269.431	4.82
269.89	4.81
270.349	4.8
270.809	4.78
271.268	4.77
271.727	4.75
272.186	4.74
272.645	4.73
273.104	4.71
273.563	4.69
274.022	4.69
274.481	4.68
274.94	4.67
275.399	4.65
275.857	4.63
276.316	4.62
276.775	4.6
277.233	4.6
277.692	4.59
278.15	4.58
278.609	4.57
279.067	4.56
279.525	4.54
279.984	4.53
280.442	4.53
280.9	4.52
281.358	4.52
281.816	4.51
282.274	4.5
282.732	4.49
283.19	4.48
283.648	4.47
284.106	4.46
284.564	4.46
285.021	4.46
285.479	4.45
285.937	4.45
286.394	4.44
286.852	4.43
287.309	4.42
287.767	4.41
288.224	4.4
288.682	4.38
289.139	4.36
289.596	4.34
290.053	4.32
290.511	4.29
290.968	4.27
291.425	4.25
291.882	4.24
292.339	4.21
292.796	4.2
293.252	4.18
293.709	4.17
294.166	4.16
294.623	4.14
295.079	4.13
295.536	4.12
295.992	4.11
296.449	4.1
296.905	4.1
297.362	4.09
297.818	4.07
298.274	4.06
298.731	4.06
299.187	4.04
299.643	4.03
300.099	4.02
300.555	4.01
301.011	4.01
301.467	4
301.923	3.98
302.379	3.98
302.835	3.98
303.291	3.97
303.746	3.97
304.202	3.97
304.658	3.97
305.113	3.96
305.569	3.96
306.024	3.96
306.479	3.95
306.935	3.95
307.39	3.95
307.845	3.95
308.301	3.95
308.756	3.96
309.211	3.96
309.666	3.96
310.121	3.97
310.576	3.97
311.031	3.97
311.486	3.97
311.94	3.98
312.395	3.98
312.85	3.98
313.305	3.98
313.759	3.98
314.214	3.98
314.668	3.97
315.123	3.97
315.577	3.97
316.032	3.97
316.486	3.96
316.94	3.96
317.394	3.94
317.849	3.93
318.303	3.92
318.757	3.9
319.211	3.89
319.665	3.87
320.119	3.86
320.572	3.85
321.026	3.84
321.48	3.83
321.934	3.82
322.387	3.81
322.841	3.81
323.295	3.81
323.748	3.81
324.202	3.81
324.655	3.8
325.108	3.8
325.562	3.8
326.015	3.8
326.468	3.8
326.921	3.8
327.374	3.8
327.827	3.8
328.28	3.79
328.733	3.79
329.186	3.79
329.639	3.79
330.092	3.79
330.545	3.8
330.997	3.8
331.45	3.8
331.903	3.81
332.355	3.81
332.808	3.81
333.26	3.81
333.713	3.81
334.165	3.82
334.617	3.83
335.069	3.83
335.522	3.83
335.974	3.84
336.426	3.85
336.878	3.84
337.33	3.84
337.782	3.85
338.234	3.86
338.686	3.87
339.137	3.88
339.589	3.86
340.041	3.87
340.493	3.86
340.944	3.85
341.396	3.84
341.847	3.82
342.299	3.8
342.75	3.79
343.201	3.78
343.653	3.75
344.104	3.73
344.555	3.72
345.006	3.7
345.457	3.69
345.908	3.69
346.359	3.68
346.81	3.68
347.261	3.68
347.712	3.67
348.163	3.66
348.613	3.67
349.064	3.67
349.515	3.67
349.965	3.67
350.416	3.66
350.866	3.66
351.317	3.65
351.767	3.65
352.217	3.65
352.668	3.65
353.118	3.65
353.568	3.65
354.018	3.65
354.468	3.65
354.918	3.65
355.368	3.65
355.818	3.65
356.268	3.65
356.718	3.66
357.168	3.66
357.617	3.64
358.067	3.65
358.517	3.66
358.966	3.66
359.416	3.66
359.865	3.66
360.315	3.67
360.764	3.68
361.213	3.68
361.663	3.67
362.112	3.68
362.561	3.7
363.01	3.7
363.459	3.69
363.908	3.68
364.357	3.69
364.806	3.68
365.255	3.68
365.703	3.68
366.152	3.69
366.601	3.7
367.05	3.7
367.498	3.7
367.947	3.7
368.395	3.71
368.844	3.71
369.292	3.7
369.74	3.72
370.189	3.72
370.637	3.71
371.085	3.71
371.533	3.71
371.981	3.71
372.429	3.71
372.877	3.72
373.325	3.72
373.773	3.72
374.221	3.72
374.669	3.71
375.116	3.71
375.564	3.71
376.012	3.72
376.459	3.72
376.907	3.73
377.354	3.74
377.801	3.74
378.249	3.75
378.696	3.76
379.143	3.77
379.591	3.78
380.038	3.79
380.485	3.81
380.932	3.82
381.379	3.83
381.826	3.85
382.273	3.86
382.72	3.86
383.166	3.87
383.613	3.88
384.06	3.88
384.506	3.89
384.953	3.91
385.4	3.92
385.846	3.94
386.292	3.94
386.739	3.95
387.185	3.97
387.631	4
388.078	4.02
388.524	4.03
388.97	4.06
389.416	4.08
389.862	4.1
390.308	4.13
390.754	4.16
391.2	4.18
391.645	4.2
392.091	4.23
392.537	4.25
392.983	4.27
393.428	4.3
393.874	4.33
394.319	4.36
394.765	4.39
395.21	4.4
395.655	4.42
396.101	4.45
396.546	4.48
396.991	4.52
397.436	4.56
397.881	4.6
398.326	4.63
398.771	4.66
399.216	4.7
399.661	4.73
400.106	4.77
400.551	4.8
400.995	4.82
401.44	4.85
401.885	4.86
402.329	4.88
402.774	4.91
403.218	4.95
403.663	4.98
404.107	5
404.551	5.02
404.995	5.05
405.44	5.07
405.884	5.1
406.328	5.14
406.772	5.16
407.216	5.18
407.66	5.19
408.104	5.2
408.547	5.23
408.991	5.26
409.435	5.28
409.879	5.3
410.322	5.33
410.766	5.35
411.209	5.39
411.653	5.43
412.096	5.46
412.54	5.48
412.983	5.49
413.426	5.54
413.869	5.56
414.312	5.6
414.756	5.63
415.199	5.65
415.642	5.68
416.085	5.69
416.527	5.7
416.97	5.7
417.413	5.72
417.856	5.73
418.298	5.74
418.741	5.75
419.184	5.76
419.626	5.76
420.069	5.78
420.511	5.78
420.953	5.78
421.396	5.8
421.838	5.82
422.28	5.84
422.722	5.87
423.164	5.87
423.606	5.88
424.048	5.89
424.49	5.92
424.932	5.92
425.374	5.91
425.816	5.89
426.258	5.89
426.699	5.88
427.141	5.87
427.582	5.87
428.024	5.89
428.465	5.91
428.907	5.9
429.348	5.89
429.789	5.89
430.231	5.93
430.672	5.96
431.113	6
431.554	6.02
431.995	6.05
432.436	6.05
432.877	6.07
433.318	6.08
433.759	6.1
434.2	6.13
434.64	6.16
435.081	6.18
435.522	6.19
435.962	6.2
436.403	6.24
436.843	6.26
437.284	6.28
437.724	6.29
438.164	6.31
438.604	6.32
439.045	6.33
439.485	6.33
439.925	6.34
440.365	6.36
440.805	6.38
441.245	6.39
441.685	6.4
442.125	6.44
442.564	6.45
443.004	6.46
443.444	6.49
443.883	6.52
444.323	6.53
444.762	6.57
445.202	6.58
445.641	6.59
446.081	6.61
446.52	6.63
446.959	6.66
447.398	6.69
447.837	6.71
448.276	6.72
448.716	6.75
449.154	6.8
449.593	6.81
450.032	6.84
450.471	6.85
450.91	6.87
451.349	6.88
451.787	6.88
452.226	6.88
452.664	6.88
453.103	6.88
453.541	6.86
453.98	6.85
454.418	6.83
454.856	6.81
455.295	6.8
455.733	6.77
456.171	6.75
456.609	6.74
457.047	6.72
457.485	6.71
457.923	6.68
458.361	6.68
458.798	6.67
459.236	6.67
459.674	6.65
460.111	6.64
460.549	6.65
460.987	6.66
461.424	6.67
461.862	6.68
462.299	6.69
462.736	6.7
463.173	6.7
463.611	6.71
464.048	6.72
464.485	6.72
464.922	6.72
465.359	6.72
465.796	6.73
466.233	6.72
466.67	6.72
467.106	6.73
467.543	6.74
467.98	6.74
468.416	6.73
468.853	6.74
469.29	6.75
469.726	6.77
470.162	6.78
470.599	6.78
471.035	6.78
471.471	6.78
471.907	6.78
472.344	6.78
472.78	6.78
473.216	6.78
473.652	6.78
474.088	6.78
474.523	6.78
474.959	6.77
475.395	6.75
475.831	6.75
476.266	6.76
476.702	6.74
477.138	6.74
477.573	6.74
478.008	6.76
478.444	6.74
478.879	6.75
479.314	6.75
479.75	6.75
480.185	6.74
480.62	6.74
481.055	6.73
481.49	6.73
481.925	6.73
482.36	6.73
482.795	6.71
483.229	6.71
483.664	6.72
484.099	6.71
484.534	6.7
484.968	6.71
485.403	6.7
485.837	6.72
486.271	6.73
486.706	6.73
487.14	6.74
487.574	6.75
488.009	6.77
488.443	6.78
488.877	6.8
489.311	6.83
489.745	6.87
490.179	6.91
490.613	6.93
491.046	6.96
491.48	6.99
491.914	7.03
492.348	7.07
492.781	7.12
493.215	7.17
493.648	7.21
494.082	7.25
494.515	7.29
494.948	7.34
495.382	7.39
495.815	7.45
496.248	7.52
496.681	7.59
497.114	7.65
497.547	7.71
497.98	7.78
498.413	7.84
498.846	7.93
499.279	8.01
499.711	8.09
500.144	8.19
500.577	8.28
501.009	8.36
501.442	8.46
501.874	8.57
502.306	8.68
502.739	8.8
503.171	8.93
503.603	9.04
504.036	9.17
504.468	9.3
504.9	9.43
505.332	9.56
505.764	9.72
506.196	9.88
506.627	10.02
507.059	10.18
507.491	10.33
507.923	10.5
508.354	10.69
508.786	10.87
509.217	11.05
509.649	11.24
510.08	11.43
510.512	11.62
510.943	11.81
511.374	12.01
511.805	12.22
512.237	12.41
512.668	12.62
513.099	12.82
513.53	13.03
513.961	13.24
514.391	13.46
514.822	13.68
515.253	13.88
515.684	14.1
516.114	14.32
516.545	14.53
516.975	14.76
517.406	14.98
517.836	15.21
518.267	15.45
518.697	15.65
519.127	15.86
519.558	16.08
519.988	16.3
520.418	16.51
520.848	16.73
521.278	16.93
521.708	17.24
522.138	17.43
522.567	17.61
522.997	17.79
523.427	17.99
523.857	18.17
524.286	18.33
524.716	18.51
525.145	18.69
525.575	18.84
526.004	19
526.433	19.05
526.863	19.2
527.292	19.35
527.721	19.48
528.15	19.6
528.579	19.73
529.008	19.85
529.437	19.96
529.866	20.06
530.295	20.18
530.724	20.29
531.152	20.38
531.581	20.47
532.01	20.56
532.438	20.64
532.867	20.73
533.295	20.81
533.723	20.87
534.152	20.94
534.58	21.01
535.008	21.03
535.436	21.09
535.865	21.13
536.293	21.17
536.721	21.21
537.149	21.27
537.576	21.3
538.004	21.33
538.432	21.35
538.86	21.37
539.287	21.38
539.715	21.43
540.143	21.44
540.57	21.46
540.998	21.48
541.425	21.51
541.852	21.53
542.28	21.54
542.707	21.55
543.134	21.59
543.561	21.63
543.988	21.67
544.415	21.69
544.842	21.7
545.269	21.74
545.696	21.77
546.123	21.79
546.549	21.81
546.976	21.84
547.403	21.88
547.829	21.91
548.256	21.93
548.682	21.94
549.108	21.99
549.535	22.01
549.961	22.03
550.387	22.04
550.813	22.05
551.24	22.07
551.666	22.07
552.092	22.08
552.518	22.1
552.943	22.1
553.369	22.11
553.795	22.09
554.221	22.09
554.646	22.07
555.072	22.06
555.498	22.03
555.923	22.01
556.349	21.98
556.774	21.95
557.199	21.91
557.625	21.87
558.05	21.83
558.475	21.78
558.9	21.74
559.325	21.7
559.75	21.64
560.175	21.6
560.6	21.55
561.025	21.49
561.449	21.42
561.874	21.33
562.299	21.26
562.723	21.18
563.148	21.1
563.572	20.99
563.997	20.89
564.421	20.8
564.846	20.7
565.27	20.6
565.694	20.49
566.118	20.38
566.542	20.27
566.966	20.16
567.39	20.04
567.814	19.93
568.238	19.83
568.662	19.72
569.086	19.6
569.509	19.48
569.933	19.36
570.357	19.25
570.78	19.13
571.204	19.02
571.627	18.92
572.05	18.83
572.474	18.74
572.897	18.65
573.32	18.56
573.743	18.48
574.166	18.4
574.589	18.3
575.012	18.23
575.435	18.15
575.858	18.08
576.281	18
576.704	17.93
577.126	17.86
577.549	17.78
577.972	17.71
578.394	17.62
578.817	17.56
579.239	17.51
579.661	17.45
580.084	17.41
580.506	17.36
580.928	17.3
581.35	17.24
581.772	17.19
582.194	17.16
582.616	17.12
583.038	17.08
583.46	17.02
583.882	16.98
584.303	16.92
584.725	16.86
585.147	16.81
585.568	16.76
585.99	16.71
586.411	16.66
586.833	16.61
587.254	16.56
587.675	16.51
588.096	16.48
588.518	16.44
588.939	16.42
589.36	16.39
589.781	16.35
590.202	16.32
590.623	16.3
591.043	16.26
591.464	16.22
591.885	16.19
592.305	16.16
592.726	16.13
593.147	16.09
593.567	16.06
593.987	16.04
594.408	16
594.828	15.98
595.248	15.96
595.669	15.93
596.089	15.9
596.509	15.88
596.929	15.86
597.349	15.83
597.769	15.79
598.189	15.74
598.608	15.72
599.028	15.7
599.448	15.66
599.867	15.62
600.287	15.58
600.706	15.55
601.126	15.51
601.545	15.49
601.965	15.45
602.384	15.42
602.803	15.39
603.222	15.34
603.641	15.29
604.061	15.26
604.48	15.2
604.898	15.15
605.317	15.11
605.736	15.06
606.155	15
606.574	14.94
606.992	14.88
607.411	14.83
607.829	14.75
608.248	14.69
608.666	14.63
609.085	14.58
609.503	14.54
609.921	14.48
610.339	14.42
610.758	14.36
611.176	14.3
611.594	14.24
612.012	14.18
612.43	14.14
612.847	14.08
613.265	14.02
613.683	13.96
614.101	13.9
614.518	13.83
614.936	13.77
615.353	13.71
615.771	13.65
616.188	13.59
616.606	13.54
617.023	13.5
617.44	13.46
617.857	13.42
618.274	13.37
618.691	13.32
619.108	13.29
619.525	13.26
619.942	13.23
620.359	13.2
620.776	13.18
621.192	13.15
621.609	13.13
622.026	13.1
622.442	13.08
622.859	13.07
623.275	13.05
623.691	13.05
624.108	13.03
624.524	13.02
624.94	13
625.356	12.99
625.772	12.97
626.188	12.96
626.604	12.94
627.02	12.93
627.436	12.92
627.852	12.91
628.268	12.89
628.683	12.87
629.099	12.86
629.514	12.85
629.93	12.83
630.345	12.81
630.761	12.78
631.176	12.76
631.591	12.72
632.007	12.69
632.422	12.64
632.837	12.61
633.252	12.57
633.667	12.52
634.082	12.46
634.497	12.42
634.911	12.36
635.326	12.3
635.741	12.23
636.155	12.17
636.57	12.09
636.984	12.02
637.399	11.93
637.813	11.83
638.228	11.74
638.642	11.65
639.056	11.55
639.47	11.46
639.884	11.37
640.298	11.27
640.712	11.17
641.126	11.07
641.54	10.97
641.954	10.87
642.368	10.79
642.781	10.7
643.195	10.61
643.609	10.52
644.022	10.43
644.436	10.35
644.849	10.27
645.262	10.19
645.676	10.12
646.089	10.06
646.502	10
646.915	9.94
647.328	9.88
647.741	9.82
648.154	9.77
648.567	9.72
648.98	9.66
649.393	9.63
649.805	9.61
650.218	9.57
650.631	9.52
651.043	9.48
651.456	9.44
651.868	9.39
652.28	9.35
652.693	9.32
653.105	9.28
653.517	9.24
653.929	9.2
654.341	9.14
654.753	9.09
655.165	9.04
655.577	8.98
655.989	8.92
656.401	8.87
656.813	8.81
657.224	8.73
657.636	8.66
658.047	8.59
658.459	8.51
658.87	8.42
659.282	8.35
659.693	8.27
660.104	8.19
660.515	8.12
660.926	8.04
661.338	7.96
661.749	7.9
662.159	7.83
662.57	7.76
662.981	7.7
663.392	7.65
663.803	7.59
664.213	7.53
664.624	7.47
665.035	7.42
665.445	7.38
665.855	7.34
666.266	7.31
666.676	7.28
667.086	7.24
667.497	7.21
667.907	7.18
668.317	7.16
668.727	7.13
669.137	7.12
669.547	7.11
669.956	7.1
670.366	7.09
670.776	7.08
671.186	7.09
671.595	7.09
672.005	7.09
672.414	7.09
672.824	7.09
673.233	7.1
673.642	7.11
674.052	7.12
674.461	7.13
674.87	7.15
675.279	7.17
675.688	7.18
676.097	7.2
676.506	7.23
676.915	7.26
677.323	7.29
677.732	7.32
678.141	7.36
678.549	7.4
678.958	7.44
679.366	7.5
679.775	7.55
680.183	7.62
680.592	7.7
681	7.78
681.408	7.86
681.816	7.95
682.224	8.07
682.632	8.19
683.04	8.31
683.448	8.46
683.856	8.59
684.264	8.76
684.671	8.94
685.079	9.12
685.487	9.33
685.894	9.58
686.302	9.83
686.709	10.09
687.116	10.38
687.524	10.69
687.931	11.01
688.338	11.35
688.745	11.69
689.152	12.05
689.559	12.45
689.966	12.83
690.373	13.25
690.78	13.66
691.187	14.08
691.593	14.51
692	14.93
692.407	15.35
692.813	15.8
693.22	16.24
693.626	16.68
694.032	17.11
694.439	17.54
694.845	17.97
695.251	18.4
695.657	18.82
696.063	19.25
696.469	19.67
696.875	20.11
697.281	20.5
697.687	20.92
698.093	21.31
698.498	21.71
698.904	22.09
699.31	22.45
699.715	22.81
700.12	23.17
700.526	23.53
700.931	23.86
701.337	24.17
701.742	24.51
702.147	24.82
702.552	25.14
702.957	25.42
703.362	25.71
703.767	26
704.172	26.28
704.577	26.57
704.981	26.84
705.386	27.11
705.791	27.38
706.195	27.62
706.6	27.9
707.004	28.15
707.408	28.41
707.813	28.66
708.217	28.9
708.621	29.14
709.025	29.35
709.43	29.55
709.834	29.78
710.237	29.99
710.641	30.21
711.045	30.41
711.449	30.62
711.853	30.83
712.256	31.01
712.66	31.18
713.064	31.37
713.467	31.55
713.87	31.73
714.274	31.89
714.677	32.05
715.08	32.21
715.484	32.37
715.887	32.52
716.29	32.66
716.693	32.81
717.096	32.98
717.499	33.12
717.901	33.26
718.304	33.41
718.707	33.55
719.109	33.69
719.512	33.82
719.915	33.95
720.317	34.07
720.719	34.18
721.122	34.31
721.524	34.43
721.926	34.56
722.328	34.68
722.731	34.79
723.133	34.89
723.535	35
723.937	35.08
724.338	35.15
724.74	35.25
725.142	35.37
725.544	35.44
725.945	35.53
726.347	35.6
726.748	35.63
727.15	35.7
727.551	35.79
727.952	35.84
728.354	35.92
728.755	35.99
729.156	36.02
729.557	36.06
729.958	36.13
730.359	36.16
730.76	36.23
731.161	36.29
731.562	36.35
731.962	36.35
732.363	36.41
732.763	36.47
733.164	36.5
733.564	36.56
733.965	36.58
734.365	36.63
734.766	36.67
735.166	36.72
735.566	36.77
735.966	36.8
736.366	36.86
736.766	36.86
737.166	36.9
737.566	36.92
737.966	36.94
738.365	36.96
738.765	36.97
739.165	36.99
739.564	36.99
739.964	37.01
740.363	37.02
740.763	37.04
741.162	37.08
741.561	37.09
741.96	37.1
742.36	37.12
742.759	37.17
743.158	37.2
743.557	37.2
743.955	37.22
744.354	37.24
744.753	37.28
745.152	37.32
745.55	37.34
745.949	37.36
746.348	37.41
746.746	37.42
747.144	37.46
747.543	37.47
747.941	37.52
748.339	37.54
748.737	37.56
749.136	37.54
749.534	37.52
749.932	37.52
750.33	37.51
750.727	37.51
751.125	37.51
751.523	37.46
751.921	37.45
752.318	37.41
752.716	37.41
753.113	37.4
753.511	37.41
753.908	37.42
754.305	37.44
754.703	37.43
755.1	37.4
755.497	37.41
755.894	37.4
756.291	37.4
756.688	37.39
757.085	37.37
757.482	37.35
757.878	37.35
758.275	37.34
758.672	37.32
759.068	37.32
759.465	37.33
759.861	37.34
760.258	37.35
760.654	37.36
761.05	37.4
761.447	37.41
761.843	37.41
762.239	37.41
762.635	37.42
763.031	37.42
763.427	37.42
763.822	37.42
764.218	37.42
764.614	37.44
765.01	37.42
765.405	37.41
765.801	37.38
766.196	37.4
766.592	37.39
766.987	37.37
767.382	37.37
767.778	37.39
768.173	37.4
768.568	37.4
768.963	37.38
769.358	37.41
769.753	37.42
770.148	37.44
770.542	37.44
770.937	37.45
771.332	37.48
771.726	37.48
772.121	37.45
772.515	37.45
772.91	37.43
773.304	37.44
773.699	37.42
774.093	37.39
774.487	37.4
774.881	37.41
775.275	37.39
775.669	37.37
776.063	37.35
776.457	37.36
776.851	37.35
777.245	37.35
777.638	37.35
778.032	37.37
778.425	37.42
778.819	37.41
779.212	37.42
779.606	37.42
779.999	37.42
780.392	37.45
780.786	37.45
781.179	37.47
781.572	37.5
781.965	37.5
