Data from N_3_DEC_VA_2N_Splice17_14-19-55-662.txt Node
Date: Sat Mar 07 14:19:55 EST 2020
User: sa697716
Spectrometer: NQ5500242
Trigger mode: 0
Integration Time (sec): 1.450000E-1
Scans to average: 20
Nonlinearity correction enabled: false
Boxcar width: 5
Storing dark spectrum: false
XAxis mode: Wavelengths
Number of Pixels in Spectrum: 512
>>>>>Begin Spectral Data<<<<<
187.83	164.68
188.298	162.37
188.766	135.86
189.233	102.32
189.701	94.56
190.169	107.35
190.636	130.7
191.104	150.59
191.571	164.26
192.039	17.96
192.506	-645.54
192.974	381.28
193.441	368.76
193.908	124.51
194.375	47.41
194.842	-24.33
195.31	-17.72
195.777	-182.85
196.244	53.17
196.711	78.07
197.177	83.75
197.644	85.01
198.111	84.78
198.578	86.05
199.045	86.83
199.511	86.86
199.978	87.32
200.445	87.28
200.911	87.63
201.378	88.04
201.844	88.37
202.31	87.81
202.777	87.77
203.243	88.08
203.709	87.53
204.176	86.92
204.642	86.4
205.108	85.96
205.574	85.36
206.04	84.54
206.506	83.79
206.972	83.09
207.438	82.21
207.903	81.1
208.369	79.46
208.835	77.96
209.301	76.06
209.766	74.09
210.232	72.05
210.697	70.05
211.163	68.06
211.628	66.45
212.094	64.61
212.559	63.23
213.024	61.53
213.49	60.01
213.955	58.7
214.42	57.65
214.885	56.01
215.35	53.99
215.815	51.36
216.28	48.11
216.745	44.28
217.21	40.48
217.675	36.91
218.14	33.94
218.604	31.24
219.069	28.83
219.534	26.88
219.998	25.28
220.463	23.95
220.927	22.76
221.392	21.85
221.856	21.09
222.32	20.42
222.785	19.85
223.249	19.29
223.713	18.79
224.177	18.39
224.642	17.97
225.106	17.57
225.57	17.21
226.034	16.91
226.497	16.6
226.961	16.29
227.425	16
227.889	15.74
228.353	15.49
228.816	15.23
229.28	14.98
229.744	14.74
230.207	14.51
230.671	14.28
231.134	14.07
231.597	13.87
232.061	13.68
232.524	13.5
232.987	13.32
233.45	13.15
233.914	13
234.377	12.85
234.84	12.69
235.303	12.56
235.766	12.44
236.229	12.31
236.691	12.18
237.154	12.06
237.617	11.95
238.08	11.82
238.542	11.7
239.005	11.6
239.468	11.48
239.93	11.39
240.393	11.29
240.855	11.16
241.317	11.06
241.78	10.95
242.242	10.82
242.704	10.71
243.166	10.6
243.629	10.5
244.091	10.38
244.553	10.28
245.015	10.16
245.477	10.07
245.939	9.97
246.4	9.87
246.862	9.78
247.324	9.7
247.786	9.62
248.247	9.54
248.709	9.45
249.17	9.37
249.632	9.3
250.093	9.24
250.555	9.15
251.016	9.09
251.477	9.02
251.939	8.95
252.4	8.89
252.861	8.82
253.322	8.77
253.783	8.72
254.244	8.67
254.705	8.62
255.166	8.57
255.627	8.53
256.088	8.48
256.549	8.44
257.009	8.38
257.47	8.33
257.931	8.27
258.391	8.21
258.852	8.15
259.312	8.1
259.773	8.04
260.233	7.98
260.694	7.92
261.154	7.87
261.614	7.82
262.074	7.77
262.534	7.73
262.994	7.69
263.455	7.65
263.915	7.61
264.374	7.57
264.834	7.54
265.294	7.5
265.754	7.48
266.214	7.45
266.673	7.42
267.133	7.4
267.593	7.37
268.052	7.35
268.512	7.32
268.971	7.3
269.431	7.28
269.89	7.26
270.349	7.25
270.809	7.23
271.268	7.21
271.727	7.19
272.186	7.18
272.645	7.16
273.104	7.15
273.563	7.13
274.022	7.12
274.481	7.11
274.94	7.09
275.399	7.07
275.857	7.06
276.316	7.05
276.775	7.03
277.233	7.01
277.692	7
278.15	6.98
278.609	6.96
279.067	6.95
279.525	6.93
279.984	6.92
280.442	6.91
280.9	6.9
281.358	6.89
281.816	6.88
282.274	6.87
282.732	6.86
283.19	6.85
283.648	6.85
284.106	6.84
284.564	6.83
285.021	6.83
285.479	6.83
285.937	6.82
286.394	6.8
286.852	6.79
287.309	6.78
287.767	6.75
288.224	6.73
288.682	6.71
289.139	6.69
289.596	6.66
290.053	6.63
290.511	6.59
290.968	6.56
291.425	6.53
291.882	6.5
292.339	6.47
292.796	6.45
293.252	6.43
293.709	6.41
294.166	6.39
294.623	6.37
295.079	6.36
295.536	6.34
295.992	6.34
296.449	6.32
296.905	6.31
297.362	6.29
297.818	6.28
298.274	6.26
298.731	6.25
299.187	6.23
299.643	6.21
300.099	6.21
300.555	6.19
301.011	6.16
301.467	6.15
301.923	6.14
302.379	6.13
302.835	6.12
303.291	6.11
303.746	6.11
304.202	6.11
304.658	6.1
305.113	6.1
305.569	6.1
306.024	6.1
306.479	6.09
306.935	6.09
307.39	6.09
307.845	6.09
308.301	6.08
308.756	6.08
309.211	6.08
309.666	6.09
310.121	6.08
310.576	6.08
311.031	6.08
311.486	6.08
311.94	6.08
312.395	6.08
312.85	6.09
313.305	6.09
313.759	6.09
314.214	6.09
314.668	6.07
315.123	6.07
315.577	6.06
316.032	6.05
316.486	6.05
316.94	6.04
317.394	6.02
317.849	5.99
318.303	5.97
318.757	5.94
319.211	5.92
319.665	5.91
320.119	5.89
320.572	5.87
321.026	5.86
321.48	5.83
321.934	5.81
322.387	5.8
322.841	5.8
323.295	5.79
323.748	5.79
324.202	5.78
324.655	5.77
325.108	5.76
325.562	5.75
326.015	5.74
326.468	5.74
326.921	5.73
327.374	5.72
327.827	5.72
328.28	5.71
328.733	5.7
329.186	5.7
329.639	5.7
330.092	5.7
330.545	5.71
330.997	5.7
331.45	5.7
331.903	5.71
332.355	5.71
332.808	5.71
333.26	5.71
333.713	5.72
334.165	5.73
334.617	5.74
335.069	5.75
335.522	5.75
335.974	5.76
336.426	5.76
336.878	5.76
337.33	5.75
337.782	5.76
338.234	5.76
338.686	5.76
339.137	5.75
339.589	5.74
340.041	5.72
340.493	5.71
340.944	5.69
341.396	5.68
341.847	5.68
342.299	5.65
342.75	5.63
343.201	5.6
343.653	5.58
344.104	5.56
344.555	5.54
345.006	5.52
345.457	5.5
345.908	5.48
346.359	5.47
346.81	5.45
347.261	5.44
347.712	5.43
348.163	5.42
348.613	5.42
349.064	5.42
349.515	5.42
349.965	5.42
350.416	5.42
350.866	5.42
351.317	5.42
351.767	5.42
352.217	5.42
352.668	5.41
353.118	5.41
353.568	5.4
354.018	5.41
354.468	5.41
354.918	5.42
355.368	5.42
355.818	5.41
356.268	5.42
356.718	5.42
357.168	5.42
357.617	5.42
358.067	5.42
358.517	5.43
358.966	5.44
359.416	5.43
359.865	5.42
360.315	5.43
360.764	5.43
361.213	5.42
361.663	5.42
362.112	5.42
362.561	5.43
363.01	5.41
363.459	5.4
363.908	5.39
364.357	5.39
364.806	5.38
365.255	5.38
365.703	5.38
366.152	5.39
366.601	5.39
367.05	5.39
367.498	5.39
367.947	5.39
368.395	5.4
368.844	5.4
369.292	5.39
369.74	5.39
370.189	5.39
370.637	5.38
371.085	5.37
371.533	5.36
371.981	5.37
372.429	5.37
372.877	5.36
373.325	5.36
373.773	5.37
374.221	5.37
374.669	5.36
375.116	5.36
375.564	5.35
376.012	5.35
376.459	5.35
376.907	5.35
377.354	5.35
377.801	5.34
378.249	5.34
378.696	5.33
379.143	5.33
379.591	5.35
380.038	5.34
380.485	5.34
380.932	5.35
381.379	5.36
381.826	5.35
382.273	5.35
382.72	5.34
383.166	5.34
383.613	5.35
384.06	5.35
384.506	5.34
384.953	5.35
385.4	5.35
385.846	5.36
386.292	5.37
386.739	5.37
387.185	5.38
387.631	5.39
388.078	5.39
388.524	5.39
388.97	5.4
389.416	5.42
389.862	5.43
390.308	5.46
390.754	5.48
391.2	5.5
391.645	5.53
392.091	5.56
392.537	5.59
392.983	5.62
393.428	5.66
393.874	5.68
394.319	5.69
394.765	5.7
395.21	5.71
395.655	5.72
396.101	5.75
396.546	5.76
396.991	5.78
397.436	5.81
397.881	5.83
398.326	5.86
398.771	5.89
399.216	5.93
399.661	5.97
400.106	6.01
400.551	6.03
400.995	6.03
401.44	6.05
401.885	6.05
402.329	6.06
402.774	6.08
403.218	6.1
403.663	6.13
404.107	6.15
404.551	6.16
404.995	6.16
405.44	6.18
405.884	6.2
406.328	6.23
406.772	6.25
407.216	6.27
407.66	6.28
408.104	6.29
408.547	6.29
408.991	6.31
409.435	6.31
409.879	6.32
410.322	6.34
410.766	6.36
411.209	6.38
411.653	6.41
412.096	6.43
412.54	6.45
412.983	6.48
413.426	6.54
413.869	6.56
414.312	6.61
414.756	6.65
415.199	6.67
415.642	6.7
416.085	6.7
416.527	6.7
416.97	6.69
417.413	6.69
417.856	6.68
418.298	6.64
418.741	6.64
419.184	6.62
419.626	6.61
420.069	6.61
420.511	6.6
420.953	6.61
421.396	6.62
421.838	6.63
422.28	6.64
422.722	6.68
423.164	6.71
423.606	6.71
424.048	6.72
424.49	6.74
424.932	6.74
425.374	6.73
425.816	6.7
426.258	6.7
426.699	6.68
427.141	6.66
427.582	6.65
428.024	6.65
428.465	6.67
428.907	6.67
429.348	6.65
429.789	6.64
430.231	6.66
430.672	6.7
431.113	6.74
431.554	6.76
431.995	6.78
432.436	6.8
432.877	6.82
433.318	6.83
433.759	6.86
434.2	6.88
434.64	6.91
435.081	6.93
435.522	6.95
435.962	6.95
436.403	6.99
436.843	7.02
437.284	7.01
437.724	7.01
438.164	7.01
438.604	7.01
439.045	7.02
439.485	7.04
439.925	7.05
440.365	7.05
440.805	7.06
441.245	7.05
441.685	7.06
442.125	7.1
442.564	7.11
443.004	7.11
443.444	7.12
443.883	7.14
444.323	7.15
444.762	7.17
445.202	7.17
445.641	7.2
446.081	7.23
446.52	7.23
446.959	7.25
447.398	7.27
447.837	7.3
448.276	7.31
448.716	7.33
449.154	7.35
449.593	7.37
450.032	7.37
450.471	7.37
450.91	7.36
451.349	7.38
451.787	7.37
452.226	7.35
452.664	7.34
453.103	7.34
453.541	7.32
453.98	7.3
454.418	7.26
454.856	7.24
455.295	7.22
455.733	7.17
456.171	7.14
456.609	7.11
457.047	7.09
457.485	7.07
457.923	7.05
458.361	7.03
458.798	7.02
459.236	7.01
459.674	7.01
460.111	7
460.549	7.01
460.987	7
461.424	7.01
461.862	7.01
462.299	7.02
462.736	7.02
463.173	7.02
463.611	7.01
464.048	7.02
464.485	7.03
464.922	7.03
465.359	7.03
465.796	7.04
466.233	7.03
466.67	7.04
467.106	7.03
467.543	7.03
467.98	7.04
468.416	7.05
468.853	7.05
469.29	7.03
469.726	7.04
470.162	7.03
470.599	7.03
471.035	7.03
471.471	7.01
471.907	7.01
472.344	7.01
472.78	7
473.216	6.99
473.652	6.99
474.088	6.99
474.523	6.98
474.959	6.97
475.395	6.96
475.831	6.94
476.266	6.93
476.702	6.92
477.138	6.9
477.573	6.89
478.008	6.88
478.444	6.84
478.879	6.83
479.314	6.82
479.75	6.82
480.185	6.8
480.62	6.79
481.055	6.79
481.49	6.78
481.925	6.77
482.36	6.76
482.795	6.74
483.229	6.75
483.664	6.75
484.099	6.73
484.534	6.72
484.968	6.72
485.403	6.72
485.837	6.72
486.271	6.73
486.706	6.74
487.14	6.74
487.574	6.76
488.009	6.77
488.443	6.77
488.877	6.8
489.311	6.83
489.745	6.85
490.179	6.88
490.613	6.92
491.046	6.95
491.48	6.98
491.914	7.02
492.348	7.06
492.781	7.11
493.215	7.16
493.648	7.2
494.082	7.25
494.515	7.31
494.948	7.37
495.382	7.42
495.815	7.48
496.248	7.56
496.681	7.63
497.114	7.7
497.547	7.79
497.98	7.86
498.413	7.95
498.846	8.05
499.279	8.14
499.711	8.23
500.144	8.35
500.577	8.46
501.009	8.56
501.442	8.68
501.874	8.81
502.306	8.94
502.739	9.09
503.171	9.23
503.603	9.38
504.036	9.54
504.468	9.7
504.9	9.85
505.332	10.02
505.764	10.21
506.196	10.39
506.627	10.59
507.059	10.79
507.491	10.99
507.923	11.2
508.354	11.44
508.786	11.67
509.217	11.91
509.649	12.17
510.08	12.42
510.512	12.69
510.943	12.96
511.374	13.23
511.805	13.51
512.237	13.79
512.668	14.1
513.099	14.38
513.53	14.69
513.961	14.99
514.391	15.3
514.822	15.62
515.253	15.93
515.684	16.25
516.114	16.58
516.545	16.91
516.975	17.24
517.406	17.57
517.836	17.9
518.267	18.23
518.697	18.56
519.127	18.88
519.558	19.22
519.988	19.54
520.418	19.86
520.848	20.17
521.278	20.48
521.708	20.9
522.138	21.19
522.567	21.5
522.997	21.78
523.427	22.06
523.857	22.34
524.286	22.6
524.716	22.85
525.145	23.11
525.575	23.37
526.004	23.62
526.433	23.75
526.863	23.97
527.292	24.18
527.721	24.39
528.15	24.58
528.579	24.78
529.008	24.97
529.437	25.14
529.866	25.3
530.295	25.45
530.724	25.59
531.152	25.73
531.581	25.87
532.01	26
532.438	26.12
532.867	26.24
533.295	26.33
533.723	26.42
534.152	26.5
534.58	26.58
535.008	26.63
535.436	26.71
535.865	26.77
536.293	26.81
536.721	26.86
537.149	26.92
537.576	26.97
538.004	27.02
538.432	27.04
538.86	27.08
539.287	27.11
539.715	27.16
540.143	27.18
540.57	27.2
540.998	27.23
541.425	27.25
541.852	27.27
542.28	27.29
542.707	27.32
543.134	27.36
543.561	27.41
543.988	27.44
544.415	27.46
544.842	27.48
545.269	27.52
545.696	27.56
546.123	27.59
546.549	27.64
546.976	27.68
547.403	27.71
547.829	27.73
548.256	27.77
548.682	27.79
549.108	27.81
549.535	27.86
549.961	27.88
550.387	27.88
550.813	27.88
551.24	27.89
551.666	27.89
552.092	27.88
552.518	27.88
552.943	27.86
553.369	27.84
553.795	27.82
554.221	27.77
554.646	27.74
555.072	27.71
555.498	27.67
555.923	27.61
556.349	27.52
556.774	27.46
557.199	27.38
557.625	27.3
558.05	27.21
558.475	27.12
558.9	27.04
559.325	26.94
559.75	26.84
560.175	26.73
560.6	26.6
561.025	26.5
561.449	26.38
561.874	26.23
562.299	26.09
562.723	25.94
563.148	25.79
563.572	25.61
563.997	25.44
564.421	25.26
564.846	25.08
565.27	24.9
565.694	24.71
566.118	24.51
566.542	24.33
566.966	24.13
567.39	23.93
567.814	23.73
568.238	23.53
568.662	23.33
569.086	23.14
569.509	22.96
569.933	22.77
570.357	22.57
570.78	22.37
571.204	22.18
571.627	22
572.05	21.83
572.474	21.68
572.897	21.53
573.32	21.38
573.743	21.21
574.166	21.07
574.589	20.92
575.012	20.8
575.435	20.68
575.858	20.55
576.281	20.42
576.704	20.31
577.126	20.18
577.549	20.05
577.972	19.93
578.394	19.82
578.817	19.71
579.239	19.6
579.661	19.5
580.084	19.41
580.506	19.31
580.928	19.23
581.35	19.15
581.772	19.06
582.194	18.97
582.616	18.89
583.038	18.82
583.46	18.72
583.882	18.65
584.303	18.55
584.725	18.46
585.147	18.37
585.568	18.28
585.99	18.19
586.411	18.12
586.833	18.04
587.254	17.97
587.675	17.91
588.096	17.85
588.518	17.78
588.939	17.72
589.36	17.65
589.781	17.62
590.202	17.57
590.623	17.53
591.043	17.48
591.464	17.43
591.885	17.37
592.305	17.32
592.726	17.28
593.147	17.23
593.567	17.2
593.987	17.16
594.408	17.11
594.828	17.07
595.248	17.03
595.669	17
596.089	16.95
596.509	16.92
596.929	16.88
597.349	16.84
597.769	16.79
598.189	16.74
598.608	16.71
599.028	16.67
599.448	16.61
599.867	16.56
600.287	16.51
600.706	16.46
601.126	16.4
601.545	16.36
601.965	16.31
602.384	16.26
602.803	16.2
603.222	16.13
603.641	16.07
604.061	16.02
604.48	15.95
604.898	15.87
605.317	15.81
605.736	15.74
606.155	15.67
606.574	15.58
606.992	15.5
607.411	15.43
607.829	15.33
608.248	15.23
608.666	15.13
609.085	15.05
609.503	14.97
609.921	14.89
610.339	14.81
610.758	14.73
611.176	14.65
611.594	14.57
612.012	14.49
612.43	14.44
612.847	14.37
613.265	14.3
613.683	14.21
614.101	14.15
614.518	14.07
614.936	13.98
615.353	13.9
615.771	13.85
616.188	13.77
616.606	13.72
617.023	13.64
617.44	13.6
617.857	13.55
618.274	13.49
618.691	13.43
619.108	13.39
619.525	13.34
619.942	13.3
620.359	13.25
620.776	13.23
621.192	13.18
621.609	13.16
622.026	13.12
622.442	13.09
622.859	13.07
623.275	13.04
623.691	13.01
624.108	13
624.524	12.97
624.94	12.95
625.356	12.93
625.772	12.91
626.188	12.89
626.604	12.86
627.02	12.84
627.436	12.82
627.852	12.81
628.268	12.8
628.683	12.78
629.099	12.77
629.514	12.75
629.93	12.71
630.345	12.67
630.761	12.63
631.176	12.6
631.591	12.55
632.007	12.5
632.422	12.44
632.837	12.37
633.252	12.3
633.667	12.23
634.082	12.15
634.497	12.08
634.911	11.99
635.326	11.9
635.741	11.8
636.155	11.7
636.57	11.57
636.984	11.47
637.399	11.35
637.813	11.23
638.228	11.1
638.642	10.97
639.056	10.83
639.47	10.72
639.884	10.61
640.298	10.48
640.712	10.37
641.126	10.27
641.54	10.15
641.954	10.03
642.368	9.92
642.781	9.82
643.195	9.72
643.609	9.62
644.022	9.5
644.436	9.4
644.849	9.31
645.262	9.21
645.676	9.12
646.089	9.05
646.502	8.98
646.915	8.91
647.328	8.84
647.741	8.79
648.154	8.75
648.567	8.71
648.98	8.65
649.393	8.62
649.805	8.59
650.218	8.56
650.631	8.53
651.043	8.49
651.456	8.48
651.868	8.44
652.28	8.4
652.693	8.36
653.105	8.33
653.517	8.3
653.929	8.25
654.341	8.2
654.753	8.15
655.165	8.09
655.577	8.05
655.989	7.98
656.401	7.92
656.813	7.88
657.224	7.81
657.636	7.74
658.047	7.67
658.459	7.61
658.87	7.54
659.282	7.47
659.693	7.42
660.104	7.34
660.515	7.28
660.926	7.22
661.338	7.16
661.749	7.11
662.159	7.05
662.57	7.01
662.981	6.96
663.392	6.91
663.803	6.87
664.213	6.82
664.624	6.79
665.035	6.76
665.445	6.73
665.855	6.69
666.266	6.67
666.676	6.66
667.086	6.62
667.497	6.61
667.907	6.59
668.317	6.58
668.727	6.57
669.137	6.56
669.547	6.56
669.956	6.57
670.366	6.57
670.776	6.56
671.186	6.56
671.595	6.57
672.005	6.58
672.414	6.59
672.824	6.6
673.233	6.62
673.642	6.64
674.052	6.65
674.461	6.67
674.87	6.71
675.279	6.75
675.688	6.79
676.097	6.83
676.506	6.86
676.915	6.9
677.323	6.95
677.732	6.99
678.141	7.03
678.549	7.09
678.958	7.15
679.366	7.2
679.775	7.26
680.183	7.32
680.592	7.39
681	7.48
681.408	7.56
681.816	7.66
682.224	7.76
682.632	7.89
683.04	8
683.448	8.13
683.856	8.27
684.264	8.44
684.671	8.63
685.079	8.83
685.487	9.06
685.894	9.31
686.302	9.57
686.709	9.87
687.116	10.18
687.524	10.54
687.931	10.92
688.338	11.33
688.745	11.77
689.152	12.22
689.559	12.71
689.966	13.22
690.373	13.76
690.78	14.33
691.187	14.92
691.593	15.53
692	16.14
692.407	16.76
692.813	17.42
693.22	18.08
693.626	18.75
694.032	19.43
694.439	20.12
694.845	20.81
695.251	21.52
695.657	22.21
696.063	22.93
696.469	23.64
696.875	24.36
697.281	25.06
697.687	25.78
698.093	26.49
698.498	27.19
698.904	27.87
699.31	28.56
699.715	29.23
700.12	29.9
700.526	30.54
700.931	31.18
701.337	31.82
701.742	32.45
702.147	33.05
702.552	33.68
702.957	34.25
703.362	34.84
703.767	35.41
704.172	35.98
704.577	36.52
704.981	37.1
705.386	37.63
705.791	38.17
706.195	38.69
706.6	39.22
707.004	39.72
707.408	40.25
707.813	40.75
708.217	41.24
708.621	41.75
709.025	42.24
709.43	42.67
709.834	43.15
710.237	43.59
710.641	44.04
711.045	44.46
711.449	44.89
711.853	45.32
712.256	45.73
712.66	46.17
713.064	46.55
713.467	46.96
713.87	47.39
714.274	47.76
714.677	48.15
715.08	48.51
715.484	48.9
715.887	49.28
716.29	49.62
716.693	49.98
717.096	50.32
717.499	50.66
717.901	50.98
718.304	51.3
718.707	51.62
719.109	51.97
719.512	52.3
719.915	52.61
720.317	52.89
720.719	53.15
721.122	53.42
721.524	53.67
721.926	53.95
722.328	54.21
722.731	54.45
723.133	54.7
723.535	54.93
723.937	55.17
724.338	55.37
724.74	55.6
725.142	55.82
725.544	56.03
725.945	56.26
726.347	56.41
726.748	56.59
727.15	56.75
727.551	56.94
727.952	57.09
728.354	57.22
728.755	57.37
729.156	57.48
729.557	57.62
729.958	57.73
730.359	57.88
730.76	58.03
731.161	58.16
731.562	58.31
731.962	58.4
732.363	58.53
732.763	58.66
733.164	58.77
733.564	58.91
733.965	58.98
734.365	59.1
734.766	59.17
735.166	59.26
735.566	59.35
735.966	59.43
736.366	59.53
736.766	59.58
737.166	59.67
737.566	59.76
737.966	59.83
738.365	59.91
738.765	59.98
739.165	60.04
739.564	60.1
739.964	60.16
740.363	60.21
740.763	60.22
741.162	60.27
741.561	60.28
741.96	60.3
742.36	60.32
742.759	60.37
743.158	60.43
743.557	60.44
743.955	60.48
744.354	60.51
744.753	60.6
745.152	60.68
745.55	60.72
745.949	60.77
746.348	60.84
746.746	60.91
747.144	60.96
747.543	60.96
747.941	61.02
748.339	61.03
748.737	61.06
749.136	61.02
749.534	61
749.932	61.02
750.33	61.03
750.727	61.02
751.125	61.02
751.523	61.03
751.921	61.03
752.318	61.02
752.716	61.02
753.113	61.03
753.511	61.04
753.908	61.07
754.305	61.07
754.703	61.03
755.1	61.03
755.497	61
755.894	60.98
756.291	60.97
756.688	60.95
757.085	60.97
757.482	60.94
757.878	60.93
758.275	60.9
758.672	60.9
759.068	60.94
759.465	60.92
759.861	60.94
760.258	60.96
760.654	60.95
761.05	60.97
761.447	60.97
761.843	60.93
762.239	60.91
762.635	60.93
763.031	60.89
763.427	60.85
763.822	60.86
764.218	60.87
764.614	60.87
765.01	60.88
765.405	60.86
765.801	60.81
766.196	60.85
766.592	60.89
766.987	60.87
767.382	60.87
767.778	60.88
768.173	60.9
768.568	60.87
768.963	60.83
769.358	60.83
769.753	60.82
770.148	60.85
770.542	60.85
770.937	60.84
771.332	60.83
771.726	60.85
772.121	60.82
772.515	60.83
772.91	60.82
773.304	60.86
773.699	60.88
774.093	60.9
774.487	60.91
774.881	60.93
775.275	60.91
775.669	60.91
776.063	60.9
776.457	60.94
776.851	60.91
777.245	60.92
777.638	60.92
778.032	60.92
778.425	60.95
778.819	60.94
779.212	60.94
779.606	60.96
779.999	60.96
780.392	61
780.786	60.99
