Data from N_3_DIV_OH_2N_Splice17_13-46-00-291.txt Node
Date: Sat Mar 07 13:46:00 EST 2020
User: sa697716
Spectrometer: NQ5500242
Trigger mode: 0
Integration Time (sec): 1.450000E-1
Scans to average: 20
Nonlinearity correction enabled: false
Boxcar width: 5
Storing dark spectrum: false
XAxis mode: Wavelengths
Number of Pixels in Spectrum: 512
>>>>>Begin Spectral Data<<<<<
187.83	170.15
188.298	186.95
188.766	165.94
189.233	131.83
189.701	158.66
190.169	214.14
190.636	255.55
191.104	497.55
191.571	452.61
192.039	-150.3
192.506	-437.52
192.974	-42.73
193.441	47.32
193.908	23.6
194.375	-1.07
194.842	-16.24
195.31	59.33
195.777	206.79
196.244	61.66
196.711	33.26
197.177	31.41
197.644	29.65
198.111	29.28
198.578	29
199.045	29.17
199.511	29.23
199.978	29.32
200.445	29.69
200.911	29.18
201.378	28.65
201.844	28.73
202.31	28.4
202.777	28.65
203.243	28.61
203.709	28.28
204.176	27.92
204.642	27.68
205.108	27.48
205.574	26.88
206.04	26.64
206.506	26.69
206.972	26.1
207.438	25.97
207.903	25.5
208.369	24.96
208.835	24.43
209.301	23.98
209.766	23.04
210.232	22.65
210.697	22.16
211.163	21.58
211.628	20.75
212.094	20.25
212.559	19.79
213.024	19.22
213.49	18.92
213.955	18.52
214.42	17.88
214.885	17.57
215.35	16.83
215.815	16.29
216.28	15.18
216.745	14.02
217.21	13.05
217.675	11.89
218.14	10.93
218.604	10.02
219.069	9.35
219.534	8.83
219.998	8.31
220.463	7.89
220.927	7.37
221.392	7.1
221.856	6.88
222.32	6.63
222.785	6.47
223.249	6.32
223.713	6.19
224.177	6.06
224.642	5.91
225.106	5.77
225.57	5.64
226.034	5.61
226.497	5.52
226.961	5.42
227.425	5.33
227.889	5.24
228.353	5.17
228.816	5.07
229.28	5.01
229.744	4.93
230.207	4.87
230.671	4.81
231.134	4.73
231.597	4.68
232.061	4.62
232.524	4.55
232.987	4.5
233.45	4.47
233.914	4.42
234.377	4.35
234.84	4.32
235.303	4.3
235.766	4.26
236.229	4.22
236.691	4.16
237.154	4.13
237.617	4.1
238.08	4.07
238.542	4.01
239.005	3.98
239.468	3.95
239.93	3.92
240.393	3.87
240.855	3.82
241.317	3.79
241.78	3.76
242.242	3.72
242.704	3.7
243.166	3.65
243.629	3.64
244.091	3.61
244.553	3.57
245.015	3.54
245.477	3.51
245.939	3.48
246.4	3.46
246.862	3.43
247.324	3.4
247.786	3.37
248.247	3.35
248.709	3.3
249.17	3.26
249.632	3.25
250.093	3.24
250.555	3.21
251.016	3.19
251.477	3.17
251.939	3.16
252.4	3.14
252.861	3.11
253.322	3.1
253.783	3.09
254.244	3.08
254.705	3.05
255.166	3.04
255.627	3.02
256.088	3.02
256.549	3.01
257.009	2.98
257.47	2.96
257.931	2.94
258.391	2.91
258.852	2.89
259.312	2.86
259.773	2.84
260.233	2.82
260.694	2.8
261.154	2.77
261.614	2.76
262.074	2.74
262.534	2.73
262.994	2.72
263.455	2.71
263.915	2.7
264.374	2.69
264.834	2.68
265.294	2.67
265.754	2.66
266.214	2.65
266.673	2.64
267.133	2.64
267.593	2.64
268.052	2.63
268.512	2.63
268.971	2.62
269.431	2.62
269.89	2.62
270.349	2.61
270.809	2.6
271.268	2.6
271.727	2.59
272.186	2.58
272.645	2.57
273.104	2.56
273.563	2.55
274.022	2.54
274.481	2.54
274.94	2.54
275.399	2.53
275.857	2.52
276.316	2.51
276.775	2.51
277.233	2.51
277.692	2.51
278.15	2.51
278.609	2.51
279.067	2.51
279.525	2.5
279.984	2.5
280.442	2.49
280.9	2.5
281.358	2.49
281.816	2.49
282.274	2.48
282.732	2.47
283.19	2.46
283.648	2.45
284.106	2.43
284.564	2.42
285.021	2.42
285.479	2.41
285.937	2.39
286.394	2.38
286.852	2.36
287.309	2.36
287.767	2.35
288.224	2.34
288.682	2.33
289.139	2.32
289.596	2.32
290.053	2.31
290.511	2.29
290.968	2.29
291.425	2.28
291.882	2.28
292.339	2.28
292.796	2.28
293.252	2.27
293.709	2.27
294.166	2.27
294.623	2.26
295.079	2.25
295.536	2.25
295.992	2.25
296.449	2.24
296.905	2.24
297.362	2.23
297.818	2.22
298.274	2.22
298.731	2.21
299.187	2.19
299.643	2.19
300.099	2.18
300.555	2.17
301.011	2.16
301.467	2.17
301.923	2.16
302.379	2.15
302.835	2.15
303.291	2.15
303.746	2.15
304.202	2.15
304.658	2.15
305.113	2.15
305.569	2.15
306.024	2.15
306.479	2.14
306.935	2.14
307.39	2.14
307.845	2.14
308.301	2.14
308.756	2.14
309.211	2.14
309.666	2.14
310.121	2.14
310.576	2.14
311.031	2.13
311.486	2.13
311.94	2.13
312.395	2.13
312.85	2.13
313.305	2.11
313.759	2.12
314.214	2.1
314.668	2.1
315.123	2.09
315.577	2.1
316.032	2.09
316.486	2.09
316.94	2.09
317.394	2.08
317.849	2.08
318.303	2.07
318.757	2.06
319.211	2.06
319.665	2.05
320.119	2.05
320.572	2.04
321.026	2.04
321.48	2.03
321.934	2.01
322.387	2.01
322.841	2.01
323.295	2.02
323.748	2.01
324.202	2.01
324.655	2.01
325.108	2.01
325.562	2.01
326.015	2.01
326.468	2.02
326.921	2.01
327.374	2.02
327.827	2.02
328.28	2.02
328.733	2.03
329.186	2.03
329.639	2.03
330.092	2.03
330.545	2.02
330.997	2.02
331.45	2.02
331.903	2.04
332.355	2.04
332.808	2.03
333.26	2.02
333.713	2
334.165	2
334.617	2
335.069	1.99
335.522	1.99
335.974	2
336.426	1.99
336.878	1.98
337.33	1.97
337.782	1.97
338.234	1.99
338.686	2
339.137	2.01
339.589	2
340.041	2
340.493	1.99
340.944	1.98
341.396	1.98
341.847	1.98
342.299	1.98
342.75	1.97
343.201	1.95
343.653	1.94
344.104	1.92
344.555	1.92
345.006	1.92
345.457	1.93
345.908	1.92
346.359	1.93
346.81	1.92
347.261	1.91
347.712	1.91
348.163	1.91
348.613	1.93
349.064	1.94
349.515	1.94
349.965	1.95
350.416	1.93
350.866	1.93
351.317	1.92
351.767	1.93
352.217	1.93
352.668	1.94
353.118	1.94
353.568	1.93
354.018	1.93
354.468	1.93
354.918	1.93
355.368	1.95
355.818	1.96
356.268	1.97
356.718	1.98
357.168	1.97
357.617	1.96
358.067	1.96
358.517	1.97
358.966	1.99
359.416	1.99
359.865	1.99
360.315	2
360.764	2
361.213	2
361.663	2
362.112	2.01
362.561	2.02
363.01	2.03
363.459	2.02
363.908	2.02
364.357	2.02
364.806	2.02
365.255	2.02
365.703	2.03
366.152	2.04
366.601	2.06
367.05	2.06
367.498	2.07
367.947	2.07
368.395	2.09
368.844	2.11
369.292	2.11
369.74	2.13
370.189	2.14
370.637	2.15
371.085	2.15
371.533	2.17
371.981	2.18
372.429	2.21
372.877	2.22
373.325	2.23
373.773	2.24
374.221	2.26
374.669	2.27
375.116	2.29
375.564	2.31
376.012	2.33
376.459	2.35
376.907	2.38
377.354	2.39
377.801	2.42
378.249	2.43
378.696	2.45
379.143	2.47
379.591	2.49
380.038	2.52
380.485	2.54
380.932	2.56
381.379	2.59
381.826	2.61
382.273	2.63
382.72	2.64
383.166	2.68
383.613	2.71
384.06	2.74
384.506	2.77
384.953	2.79
385.4	2.81
385.846	2.84
386.292	2.86
386.739	2.89
387.185	2.91
387.631	2.95
388.078	2.98
388.524	3.01
388.97	3.04
389.416	3.07
389.862	3.1
390.308	3.14
390.754	3.17
391.2	3.21
391.645	3.23
392.091	3.28
392.537	3.31
392.983	3.33
393.428	3.36
393.874	3.38
394.319	3.42
394.765	3.43
395.21	3.46
395.655	3.48
396.101	3.5
396.546	3.52
396.991	3.54
397.436	3.56
397.881	3.6
398.326	3.62
398.771	3.64
399.216	3.65
399.661	3.66
400.106	3.67
400.551	3.69
400.995	3.69
401.44	3.7
401.885	3.71
402.329	3.71
402.774	3.72
403.218	3.74
403.663	3.75
404.107	3.76
404.551	3.78
404.995	3.79
405.44	3.78
405.884	3.79
406.328	3.8
406.772	3.79
407.216	3.8
407.66	3.79
408.104	3.78
408.547	3.77
408.991	3.77
409.435	3.77
409.879	3.78
410.322	3.8
410.766	3.81
411.209	3.82
411.653	3.83
412.096	3.85
412.54	3.85
412.983	3.85
413.426	3.89
413.869	3.9
414.312	3.93
414.756	3.93
415.199	3.92
415.642	3.91
416.085	3.91
416.527	3.9
416.97	3.89
417.413	3.89
417.856	3.89
418.298	3.88
418.741	3.88
419.184	3.87
419.626	3.86
420.069	3.88
420.511	3.9
420.953	3.91
421.396	3.93
421.838	3.92
422.28	3.94
422.722	3.95
423.164	3.94
423.606	3.93
424.048	3.92
424.49	3.92
424.932	3.91
425.374	3.87
425.816	3.83
426.258	3.83
426.699	3.83
427.141	3.82
427.582	3.81
428.024	3.82
428.465	3.82
428.907	3.81
429.348	3.8
429.789	3.81
430.231	3.84
430.672	3.86
431.113	3.86
431.554	3.87
431.995	3.87
432.436	3.89
432.877	3.89
433.318	3.92
433.759	3.94
434.2	3.96
434.64	3.97
435.081	3.97
435.522	3.97
435.962	3.98
436.403	4
436.843	4.02
437.284	4.01
437.724	4.02
438.164	4.01
438.604	4.02
439.045	4.02
439.485	4.03
439.925	4.04
440.365	4.06
440.805	4.07
441.245	4.09
441.685	4.11
442.125	4.14
442.564	4.15
443.004	4.17
443.444	4.18
443.883	4.21
444.323	4.22
444.762	4.23
445.202	4.24
445.641	4.28
446.081	4.28
446.52	4.29
446.959	4.32
447.398	4.36
447.837	4.37
448.276	4.41
448.716	4.43
449.154	4.47
449.593	4.51
450.032	4.53
450.471	4.52
450.91	4.54
451.349	4.57
451.787	4.56
452.226	4.54
452.664	4.55
453.103	4.54
453.541	4.55
453.98	4.56
454.418	4.55
454.856	4.55
455.295	4.55
455.733	4.53
456.171	4.53
456.609	4.54
457.047	4.54
457.485	4.54
457.923	4.56
458.361	4.54
458.798	4.54
459.236	4.54
459.674	4.54
460.111	4.53
460.549	4.54
460.987	4.54
461.424	4.54
461.862	4.53
462.299	4.54
462.736	4.54
463.173	4.54
463.611	4.55
464.048	4.55
464.485	4.55
464.922	4.56
465.359	4.56
465.796	4.6
466.233	4.6
466.67	4.62
467.106	4.63
467.543	4.63
467.98	4.61
468.416	4.6
468.853	4.59
469.29	4.58
469.726	4.58
470.162	4.57
470.599	4.53
471.035	4.52
471.471	4.5
471.907	4.49
472.344	4.49
472.78	4.5
473.216	4.49
473.652	4.5
474.088	4.49
474.523	4.5
474.959	4.5
475.395	4.49
475.831	4.51
476.266	4.52
476.702	4.51
477.138	4.52
477.573	4.52
478.008	4.54
478.444	4.54
478.879	4.56
479.314	4.56
479.75	4.56
480.185	4.56
480.62	4.55
481.055	4.55
481.49	4.55
481.925	4.56
482.36	4.57
482.795	4.57
483.229	4.57
483.664	4.58
484.099	4.58
484.534	4.59
484.968	4.61
485.403	4.62
485.837	4.64
486.271	4.66
486.706	4.67
487.14	4.68
487.574	4.69
488.009	4.72
488.443	4.75
488.877	4.77
489.311	4.81
489.745	4.84
490.179	4.89
490.613	4.93
491.046	4.97
491.48	5.01
491.914	5.06
492.348	5.11
492.781	5.16
493.215	5.21
493.648	5.26
494.082	5.32
494.515	5.37
494.948	5.43
495.382	5.48
495.815	5.55
496.248	5.61
496.681	5.69
497.114	5.76
497.547	5.84
497.98	5.91
498.413	6
498.846	6.08
499.279	6.17
499.711	6.25
500.144	6.36
500.577	6.46
501.009	6.56
501.442	6.66
501.874	6.77
502.306	6.88
502.739	7.03
503.171	7.15
503.603	7.27
504.036	7.4
504.468	7.53
504.9	7.65
505.332	7.79
505.764	7.93
506.196	8.08
506.627	8.23
507.059	8.38
507.491	8.51
507.923	8.67
508.354	8.85
508.786	9.02
509.217	9.2
509.649	9.37
510.08	9.54
510.512	9.73
510.943	9.9
511.374	10.1
511.805	10.28
512.237	10.47
512.668	10.66
513.099	10.85
513.53	11.03
513.961	11.22
514.391	11.43
514.822	11.64
515.253	11.83
515.684	12.03
516.114	12.23
516.545	12.43
516.975	12.63
517.406	12.82
517.836	13.02
518.267	13.23
518.697	13.42
519.127	13.59
519.558	13.75
519.988	13.94
520.418	14.11
520.848	14.28
521.278	14.45
521.708	14.89
522.138	15.05
522.567	15.2
522.997	15.35
523.427	15.49
523.857	15.64
524.286	15.79
524.716	15.92
525.145	16.05
525.575	16.18
526.004	16.32
526.433	16.16
526.863	16.27
527.292	16.38
527.721	16.49
528.15	16.61
528.579	16.71
529.008	16.82
529.437	16.89
529.866	16.97
530.295	17.06
530.724	17.14
531.152	17.21
531.581	17.29
532.01	17.36
532.438	17.42
532.867	17.48
533.295	17.53
533.723	17.58
534.152	17.63
534.58	17.68
535.008	17.71
535.436	17.75
535.865	17.78
536.293	17.82
536.721	17.85
537.149	17.89
537.576	17.92
538.004	17.96
538.432	17.97
538.86	18.01
539.287	18.03
539.715	18.07
540.143	18.08
540.57	18.1
540.998	18.12
541.425	18.13
541.852	18.14
542.28	18.16
542.707	18.17
543.134	18.18
543.561	18.2
543.988	18.21
544.415	18.21
544.842	18.23
545.269	18.24
545.696	18.26
546.123	18.29
546.549	18.31
546.976	18.33
547.403	18.34
547.829	18.36
548.256	18.37
548.682	18.37
549.108	18.39
549.535	18.41
549.961	18.43
550.387	18.43
550.813	18.43
551.24	18.41
551.666	18.41
552.092	18.41
552.518	18.41
552.943	18.4
553.369	18.4
553.795	18.39
554.221	18.39
554.646	18.37
555.072	18.35
555.498	18.31
555.923	18.29
556.349	18.26
556.774	18.22
557.199	18.18
557.625	18.14
558.05	18.09
558.475	18.05
558.9	17.99
559.325	17.95
559.75	17.91
560.175	17.86
560.6	17.8
561.025	17.74
561.449	17.69
561.874	17.63
562.299	17.57
562.723	17.5
563.148	17.42
563.572	17.34
563.997	17.26
564.421	17.16
564.846	17.07
565.27	17
565.694	16.92
566.118	16.84
566.542	16.75
566.966	16.66
567.39	16.58
567.814	16.5
568.238	16.4
568.662	16.31
569.086	16.23
569.509	16.15
569.933	16.07
570.357	15.99
570.78	15.9
571.204	15.82
571.627	15.74
572.05	15.64
572.474	15.58
572.897	15.5
573.32	15.43
573.743	15.36
574.166	15.28
574.589	15.2
575.012	15.13
575.435	15.06
575.858	14.99
576.281	14.92
576.704	14.87
577.126	14.79
577.549	14.73
577.972	14.67
578.394	14.61
578.817	14.56
579.239	14.5
579.661	14.43
580.084	14.39
580.506	14.34
580.928	14.28
581.35	14.24
581.772	14.19
582.194	14.13
582.616	14.08
583.038	14.02
583.46	13.96
583.882	13.92
584.303	13.85
584.725	13.8
585.147	13.78
585.568	13.74
585.99	13.69
586.411	13.65
586.833	13.62
587.254	13.57
587.675	13.53
588.096	13.5
588.518	13.46
588.939	13.44
589.36	13.4
589.781	13.34
590.202	13.31
590.623	13.27
591.043	13.24
591.464	13.21
591.885	13.18
592.305	13.14
592.726	13.12
593.147	13.1
593.567	13.07
593.987	13.04
594.408	13.01
594.828	12.97
595.248	12.96
595.669	12.95
596.089	12.92
596.509	12.9
596.929	12.89
597.349	12.86
597.769	12.84
598.189	12.82
598.608	12.8
599.028	12.78
599.448	12.76
599.867	12.73
600.287	12.69
600.706	12.68
601.126	12.66
601.545	12.64
601.965	12.61
602.384	12.58
602.803	12.54
603.222	12.51
603.641	12.47
604.061	12.45
604.48	12.41
604.898	12.35
605.317	12.3
605.736	12.26
606.155	12.21
606.574	12.16
606.992	12.11
607.411	12.07
607.829	12
608.248	11.93
608.666	11.87
609.085	11.82
609.503	11.79
609.921	11.75
610.339	11.7
610.758	11.64
611.176	11.57
611.594	11.52
612.012	11.45
612.43	11.43
612.847	11.38
613.265	11.32
613.683	11.27
614.101	11.2
614.518	11.14
614.936	11.09
615.353	11.04
615.771	11.01
616.188	10.96
616.606	10.93
617.023	10.88
617.44	10.84
617.857	10.81
618.274	10.77
618.691	10.73
619.108	10.69
619.525	10.65
619.942	10.63
620.359	10.6
620.776	10.58
621.192	10.54
621.609	10.51
622.026	10.48
622.442	10.47
622.859	10.45
623.275	10.43
623.691	10.43
624.108	10.41
624.524	10.4
624.94	10.39
625.356	10.37
625.772	10.36
626.188	10.35
626.604	10.34
627.02	10.32
627.436	10.32
627.852	10.31
628.268	10.3
628.683	10.29
629.099	10.28
629.514	10.26
629.93	10.26
630.345	10.25
630.761	10.23
631.176	10.21
631.591	10.2
632.007	10.16
632.422	10.13
632.837	10.1
633.252	10.05
633.667	10.01
634.082	9.95
634.497	9.9
634.911	9.84
635.326	9.79
635.741	9.73
636.155	9.65
636.57	9.59
636.984	9.52
637.399	9.45
637.813	9.37
638.228	9.28
638.642	9.19
639.056	9.09
639.47	9.01
639.884	8.93
640.298	8.84
640.712	8.75
641.126	8.65
641.54	8.55
641.954	8.44
642.368	8.36
642.781	8.28
643.195	8.21
643.609	8.12
644.022	8.03
644.436	7.95
644.849	7.86
645.262	7.77
645.676	7.69
646.089	7.62
646.502	7.57
646.915	7.51
647.328	7.45
647.741	7.39
648.154	7.34
648.567	7.3
648.98	7.24
649.393	7.21
649.805	7.18
650.218	7.14
650.631	7.11
651.043	7.07
651.456	7.04
651.868	6.99
652.28	6.96
652.693	6.93
653.105	6.89
653.517	6.85
653.929	6.81
654.341	6.75
654.753	6.7
655.165	6.66
655.577	6.6
655.989	6.54
656.401	6.48
656.813	6.43
657.224	6.35
657.636	6.26
658.047	6.2
658.459	6.13
658.87	6.05
659.282	5.97
659.693	5.9
660.104	5.81
660.515	5.74
660.926	5.67
661.338	5.58
661.749	5.51
662.159	5.45
662.57	5.37
662.981	5.3
663.392	5.23
663.803	5.18
664.213	5.1
664.624	5.05
665.035	4.99
665.445	4.94
665.855	4.9
666.266	4.86
666.676	4.81
667.086	4.78
667.497	4.75
667.907	4.72
668.317	4.69
668.727	4.68
669.137	4.65
669.547	4.63
669.956	4.61
670.366	4.6
670.776	4.58
671.186	4.57
671.595	4.56
672.005	4.54
672.414	4.54
672.824	4.54
673.233	4.54
673.642	4.54
674.052	4.55
674.461	4.56
674.87	4.57
675.279	4.6
675.688	4.63
676.097	4.65
676.506	4.68
676.915	4.71
677.323	4.74
677.732	4.76
678.141	4.8
678.549	4.85
678.958	4.88
679.366	4.93
679.775	4.97
680.183	5.03
680.592	5.11
681	5.18
681.408	5.27
681.816	5.37
682.224	5.48
682.632	5.6
683.04	5.71
683.448	5.86
683.856	6
684.264	6.17
684.671	6.34
685.079	6.52
685.487	6.74
685.894	6.96
686.302	7.19
686.709	7.44
687.116	7.71
687.524	8
687.931	8.31
688.338	8.62
688.745	8.94
689.152	9.27
689.559	9.63
689.966	9.98
690.373	10.34
690.78	10.72
691.187	11.09
691.593	11.47
692	11.85
692.407	12.22
692.813	12.63
693.22	13.02
693.626	13.42
694.032	13.82
694.439	14.2
694.845	14.59
695.251	14.95
695.657	15.31
696.063	15.67
696.469	16.03
696.875	16.41
697.281	16.75
697.687	17.1
698.093	17.44
698.498	17.75
698.904	18.07
699.31	18.38
699.715	18.7
700.12	19.01
700.526	19.3
700.931	19.6
701.337	19.86
701.742	20.13
702.147	20.37
702.552	20.63
702.957	20.87
703.362	21.12
703.767	21.35
704.172	21.57
704.577	21.8
704.981	22.05
705.386	22.26
705.791	22.46
706.195	22.66
706.6	22.88
707.004	23.07
707.408	23.26
707.813	23.47
708.217	23.66
708.621	23.85
709.025	24.03
709.43	24.19
709.834	24.36
710.237	24.53
710.641	24.71
711.045	24.88
711.449	25.05
711.853	25.24
712.256	25.36
712.66	25.5
713.064	25.65
713.467	25.79
713.87	25.94
714.274	26.08
714.677	26.23
715.08	26.36
715.484	26.49
715.887	26.62
716.29	26.71
716.693	26.86
717.096	26.98
717.499	27.12
717.901	27.23
718.304	27.34
718.707	27.45
719.109	27.55
719.512	27.65
719.915	27.75
720.317	27.83
720.719	27.91
721.122	28.01
721.524	28.08
721.926	28.16
722.328	28.25
722.731	28.3
723.133	28.37
723.535	28.45
723.937	28.53
724.338	28.58
724.74	28.67
725.142	28.97
725.544	29.02
725.945	29.15
726.347	29.19
726.748	29.24
727.15	29.31
727.551	29.4
727.952	29.44
728.354	29.49
728.755	29.54
729.156	29.58
729.557	29.41
729.958	29.44
730.359	29.44
730.76	29.49
731.161	29.54
731.562	29.59
731.962	29.58
732.363	29.63
732.763	29.65
733.164	29.68
733.564	29.72
733.965	29.75
734.365	29.8
734.766	29.83
735.166	29.87
735.566	29.92
735.966	29.94
736.366	29.97
736.766	29.99
737.166	30.03
737.566	30.04
737.966	30.06
738.365	30.08
738.765	30.1
739.165	30.1
739.564	30.11
739.964	30.09
740.363	30.11
740.763	30.14
741.162	30.15
741.561	30.15
741.96	30.16
742.36	30.18
742.759	30.18
743.158	30.17
743.557	30.17
743.955	30.19
744.354	30.19
744.753	30.18
745.152	30.18
745.55	30.18
745.949	30.2
746.348	30.22
746.746	30.2
747.144	30.23
747.543	30.23
747.941	30.24
748.339	30.21
748.737	30.23
749.136	30.23
749.534	30.22
749.932	30.22
750.33	30.22
750.727	30.2
751.125	30.21
751.523	30.18
751.921	30.2
752.318	30.21
752.716	30.22
753.113	30.23
753.511	30.25
753.908	30.28
754.305	30.33
754.703	30.32
755.1	30.35
755.497	30.34
755.894	30.33
756.291	30.32
756.688	30.31
757.085	30.31
757.482	30.3
757.878	30.29
758.275	30.26
758.672	30.2
759.068	30.21
759.465	30.18
759.861	30.18
760.258	30.19
760.654	30.18
761.05	30.19
761.447	30.19
761.843	30.18
762.239	30.18
762.635	30.19
763.031	30.19
763.427	30.19
763.822	30.19
764.218	30.2
764.614	30.21
765.01	30.2
765.405	30.19
765.801	30.19
766.196	30.2
766.592	30.18
766.987	30.18
767.382	30.19
767.778	30.22
768.173	30.23
768.568	30.24
768.963	30.22
769.358	30.25
769.753	30.26
770.148	30.29
770.542	30.28
770.937	30.31
771.332	30.32
771.726	30.31
772.121	30.29
772.515	30.27
772.91	30.24
773.304	30.28
773.699	30.28
774.093	30.25
774.487	30.24
774.881	30.27
775.275	30.27
775.669	30.25
776.063	30.25
776.457	30.26
776.851	30.27
777.245	30.27
777.638	30.26
778.032	30.27
778.425	30.32
778.819	30.34
779.212	30.33
779.606	30.34
779.999	30.34
780.392	30.37
780.786	30.33
781.179	30.34
781.572	30.37
781.965	30.37
782.358	30.36
782.751	30.33
783.143	30.3
783.536	30.28
