Data from N_3_DEC_VA_2N_Splice17_14-19-46-973.txt Node
Date: Sat Mar 07 14:19:46 EST 2020
User: sa697716
Spectrometer: NQ5500242
Trigger mode: 0
Integration Time (sec): 1.450000E-1
Scans to average: 20
Nonlinearity correction enabled: false
Boxcar width: 5
Storing dark spectrum: false
XAxis mode: Wavelengths
Number of Pixels in Spectrum: 512
>>>>>Begin Spectral Data<<<<<
187.83	119.54
188.298	130.47
188.766	121.48
189.233	95.52
189.701	94.85
190.169	98.24
190.636	113.51
191.104	201.79
191.571	370.46
192.039	385.3
192.506	976.15
192.974	-9.1
193.441	178.92
193.908	103
194.375	73.69
194.842	42.88
195.31	62.31
195.777	111.52
196.244	87.89
196.711	89.75
197.177	89.28
197.644	88.68
198.111	87.56
198.578	86.96
199.045	87.63
199.511	87.17
199.978	87.35
200.445	87.44
200.911	87.73
201.378	88.03
201.844	87.81
202.31	87.65
202.777	87.6
203.243	87.55
203.709	87.01
204.176	86.13
204.642	85.67
205.108	85.34
205.574	84.89
206.04	84.06
206.506	83.07
206.972	82.79
207.438	81.76
207.903	80.72
208.369	79.05
208.835	77.45
209.301	76.07
209.766	74.05
210.232	71.87
210.697	69.73
211.163	68.03
211.628	66.56
212.094	64.48
212.559	63.21
213.024	61.55
213.49	60.27
213.955	59.05
214.42	57.73
214.885	56.4
215.35	54.45
215.815	51.67
216.28	48.38
216.745	44.62
217.21	40.94
217.675	37.42
218.14	34.4
218.604	31.65
219.069	29.44
219.534	27.48
219.998	25.81
220.463	24.46
220.927	23.34
221.392	22.39
221.856	21.63
222.32	20.94
222.785	20.35
223.249	19.83
223.713	19.4
224.177	18.97
224.642	18.57
225.106	18.18
225.57	17.83
226.034	17.5
226.497	17.2
226.961	16.88
227.425	16.6
227.889	16.33
228.353	16.06
228.816	15.79
229.28	15.54
229.744	15.3
230.207	15.09
230.671	14.86
231.134	14.65
231.597	14.45
232.061	14.25
232.524	14.06
232.987	13.87
233.45	13.69
233.914	13.5
234.377	13.32
234.84	13.16
235.303	13.01
235.766	12.86
236.229	12.72
236.691	12.57
237.154	12.44
237.617	12.33
238.08	12.21
238.542	12.1
239.005	12.01
239.468	11.88
239.93	11.77
240.393	11.67
240.855	11.54
241.317	11.44
241.78	11.32
242.242	11.21
242.704	11.1
243.166	10.99
243.629	10.9
244.091	10.79
244.553	10.69
245.015	10.59
245.477	10.48
245.939	10.4
246.4	10.31
246.862	10.23
247.324	10.13
247.786	10.04
248.247	9.94
248.709	9.84
249.17	9.73
249.632	9.65
250.093	9.57
250.555	9.5
251.016	9.42
251.477	9.34
251.939	9.26
252.4	9.2
252.861	9.14
253.322	9.08
253.783	9.02
254.244	8.98
254.705	8.92
255.166	8.87
255.627	8.82
256.088	8.78
256.549	8.74
257.009	8.68
257.47	8.62
257.931	8.57
258.391	8.52
258.852	8.46
259.312	8.4
259.773	8.34
260.233	8.29
260.694	8.23
261.154	8.16
261.614	8.11
262.074	8.06
262.534	8.01
262.994	7.97
263.455	7.93
263.915	7.89
264.374	7.85
264.834	7.82
265.294	7.78
265.754	7.76
266.214	7.72
266.673	7.69
267.133	7.67
267.593	7.64
268.052	7.61
268.512	7.6
268.971	7.57
269.431	7.55
269.89	7.52
270.349	7.5
270.809	7.48
271.268	7.47
271.727	7.44
272.186	7.42
272.645	7.41
273.104	7.39
273.563	7.36
274.022	7.35
274.481	7.33
274.94	7.32
275.399	7.3
275.857	7.28
276.316	7.26
276.775	7.25
277.233	7.24
277.692	7.22
278.15	7.2
278.609	7.19
279.067	7.17
279.525	7.16
279.984	7.14
280.442	7.13
280.9	7.12
281.358	7.11
281.816	7.11
282.274	7.09
282.732	7.08
283.19	7.07
283.648	7.06
284.106	7.05
284.564	7.04
285.021	7.04
285.479	7.03
285.937	7.02
286.394	7.01
286.852	6.99
287.309	6.99
287.767	6.97
288.224	6.95
288.682	6.94
289.139	6.91
289.596	6.88
290.053	6.85
290.511	6.81
290.968	6.78
291.425	6.75
291.882	6.72
292.339	6.68
292.796	6.66
293.252	6.63
293.709	6.61
294.166	6.59
294.623	6.57
295.079	6.55
295.536	6.54
295.992	6.52
296.449	6.5
296.905	6.49
297.362	6.48
297.818	6.46
298.274	6.45
298.731	6.43
299.187	6.41
299.643	6.4
300.099	6.4
300.555	6.38
301.011	6.37
301.467	6.36
301.923	6.34
302.379	6.34
302.835	6.33
303.291	6.32
303.746	6.31
304.202	6.31
304.658	6.31
305.113	6.29
305.569	6.29
306.024	6.29
306.479	6.28
306.935	6.27
307.39	6.27
307.845	6.27
308.301	6.27
308.756	6.26
309.211	6.27
309.666	6.27
310.121	6.27
310.576	6.27
311.031	6.26
311.486	6.27
311.94	6.28
312.395	6.28
312.85	6.28
313.305	6.27
313.759	6.27
314.214	6.26
314.668	6.24
315.123	6.24
315.577	6.23
316.032	6.23
316.486	6.21
316.94	6.19
317.394	6.17
317.849	6.15
318.303	6.13
318.757	6.11
319.211	6.08
319.665	6.06
320.119	6.04
320.572	6.02
321.026	6
321.48	5.99
321.934	5.98
322.387	5.96
322.841	5.95
323.295	5.95
323.748	5.93
324.202	5.93
324.655	5.92
325.108	5.91
325.562	5.91
326.015	5.91
326.468	5.9
326.921	5.89
327.374	5.89
327.827	5.88
328.28	5.87
328.733	5.86
329.186	5.86
329.639	5.86
330.092	5.86
330.545	5.86
330.997	5.86
331.45	5.86
331.903	5.86
332.355	5.87
332.808	5.87
333.26	5.87
333.713	5.87
334.165	5.87
334.617	5.88
335.069	5.87
335.522	5.88
335.974	5.89
336.426	5.89
336.878	5.89
337.33	5.88
337.782	5.88
338.234	5.89
338.686	5.89
339.137	5.89
339.589	5.88
340.041	5.88
340.493	5.86
340.944	5.83
341.396	5.81
341.847	5.79
342.299	5.78
342.75	5.76
343.201	5.73
343.653	5.71
344.104	5.68
344.555	5.66
345.006	5.64
345.457	5.63
345.908	5.62
346.359	5.61
346.81	5.6
347.261	5.59
347.712	5.57
348.163	5.56
348.613	5.56
349.064	5.56
349.515	5.56
349.965	5.56
350.416	5.55
350.866	5.56
351.317	5.55
351.767	5.56
352.217	5.56
352.668	5.56
353.118	5.57
353.568	5.56
354.018	5.56
354.468	5.56
354.918	5.56
355.368	5.57
355.818	5.57
356.268	5.57
356.718	5.56
357.168	5.56
357.617	5.56
358.067	5.55
358.517	5.56
358.966	5.56
359.416	5.56
359.865	5.56
360.315	5.56
360.764	5.57
361.213	5.56
361.663	5.56
362.112	5.57
362.561	5.57
363.01	5.56
363.459	5.54
363.908	5.53
364.357	5.54
364.806	5.53
365.255	5.52
365.703	5.52
366.152	5.52
366.601	5.53
367.05	5.52
367.498	5.52
367.947	5.52
368.395	5.53
368.844	5.53
369.292	5.52
369.74	5.52
370.189	5.52
370.637	5.51
371.085	5.49
371.533	5.48
371.981	5.48
372.429	5.48
372.877	5.48
373.325	5.48
373.773	5.47
374.221	5.46
374.669	5.46
375.116	5.45
375.564	5.44
376.012	5.45
376.459	5.45
376.907	5.45
377.354	5.44
377.801	5.44
378.249	5.44
378.696	5.44
379.143	5.44
379.591	5.45
380.038	5.45
380.485	5.46
380.932	5.44
381.379	5.44
381.826	5.44
382.273	5.44
382.72	5.43
383.166	5.42
383.613	5.43
384.06	5.42
384.506	5.42
384.953	5.42
385.4	5.43
385.846	5.45
386.292	5.46
386.739	5.46
387.185	5.47
387.631	5.49
388.078	5.49
388.524	5.5
388.97	5.51
389.416	5.52
389.862	5.54
390.308	5.55
390.754	5.58
391.2	5.6
391.645	5.62
392.091	5.64
392.537	5.67
392.983	5.71
393.428	5.73
393.874	5.76
394.319	5.79
394.765	5.8
395.21	5.8
395.655	5.82
396.101	5.85
396.546	5.86
396.991	5.89
397.436	5.9
397.881	5.94
398.326	5.98
398.771	6.01
399.216	6.04
399.661	6.09
400.106	6.13
400.551	6.15
400.995	6.15
401.44	6.16
401.885	6.17
402.329	6.2
402.774	6.2
403.218	6.22
403.663	6.24
404.107	6.25
404.551	6.24
404.995	6.26
405.44	6.28
405.884	6.3
406.328	6.34
406.772	6.35
407.216	6.37
407.66	6.39
408.104	6.38
408.547	6.39
408.991	6.41
409.435	6.42
409.879	6.43
410.322	6.46
410.766	6.48
411.209	6.5
411.653	6.53
412.096	6.55
412.54	6.57
412.983	6.59
413.426	6.63
413.869	6.64
414.312	6.69
414.756	6.73
415.199	6.75
415.642	6.77
416.085	6.77
416.527	6.78
416.97	6.78
417.413	6.77
417.856	6.76
418.298	6.75
418.741	6.75
419.184	6.74
419.626	6.72
420.069	6.72
420.511	6.72
420.953	6.73
421.396	6.74
421.838	6.75
422.28	6.76
422.722	6.81
423.164	6.83
423.606	6.84
424.048	6.87
424.49	6.88
424.932	6.89
425.374	6.87
425.816	6.85
426.258	6.83
426.699	6.81
427.141	6.81
427.582	6.81
428.024	6.82
428.465	6.83
428.907	6.82
429.348	6.82
429.789	6.8
430.231	6.82
430.672	6.84
431.113	6.86
431.554	6.89
431.995	6.92
432.436	6.92
432.877	6.92
433.318	6.93
433.759	6.96
434.2	6.98
434.64	7.02
435.081	7.03
435.522	7.06
435.962	7.09
436.403	7.13
436.843	7.15
437.284	7.15
437.724	7.16
438.164	7.17
438.604	7.18
439.045	7.18
439.485	7.18
439.925	7.19
440.365	7.18
440.805	7.17
441.245	7.17
441.685	7.19
442.125	7.24
442.564	7.26
443.004	7.26
443.444	7.26
443.883	7.29
444.323	7.29
444.762	7.32
445.202	7.35
445.641	7.39
446.081	7.43
446.52	7.43
446.959	7.44
447.398	7.46
447.837	7.49
448.276	7.51
448.716	7.54
449.154	7.57
449.593	7.57
450.032	7.57
450.471	7.56
450.91	7.54
451.349	7.55
451.787	7.53
452.226	7.51
452.664	7.49
453.103	7.48
453.541	7.46
453.98	7.45
454.418	7.41
454.856	7.39
455.295	7.36
455.733	7.33
456.171	7.31
456.609	7.29
457.047	7.26
457.485	7.24
457.923	7.21
458.361	7.19
458.798	7.18
459.236	7.18
459.674	7.17
460.111	7.17
460.549	7.18
460.987	7.18
461.424	7.17
461.862	7.18
462.299	7.18
462.736	7.18
463.173	7.18
463.611	7.17
464.048	7.17
464.485	7.18
464.922	7.18
465.359	7.18
465.796	7.18
466.233	7.19
466.67	7.19
467.106	7.2
467.543	7.21
467.98	7.21
468.416	7.21
468.853	7.2
469.29	7.2
469.726	7.21
470.162	7.2
470.599	7.19
471.035	7.17
471.471	7.15
471.907	7.14
472.344	7.14
472.78	7.13
473.216	7.11
473.652	7.11
474.088	7.09
474.523	7.08
474.959	7.08
475.395	7.07
475.831	7.07
476.266	7.06
476.702	7.04
477.138	7.03
477.573	7.02
478.008	7.02
478.444	7
478.879	7
479.314	6.99
479.75	6.97
480.185	6.94
480.62	6.93
481.055	6.92
481.49	6.9
481.925	6.9
482.36	6.89
482.795	6.88
483.229	6.87
483.664	6.86
484.099	6.85
484.534	6.84
484.968	6.85
485.403	6.85
485.837	6.87
486.271	6.89
486.706	6.9
487.14	6.91
487.574	6.92
488.009	6.94
488.443	6.95
488.877	6.98
489.311	7.01
489.745	7.03
490.179	7.07
490.613	7.09
491.046	7.12
491.48	7.15
491.914	7.19
492.348	7.23
492.781	7.28
493.215	7.34
493.648	7.39
494.082	7.44
494.515	7.49
494.948	7.55
495.382	7.61
495.815	7.68
496.248	7.74
496.681	7.81
497.114	7.89
497.547	7.97
497.98	8.05
498.413	8.12
498.846	8.22
499.279	8.31
499.711	8.41
500.144	8.53
500.577	8.64
501.009	8.75
501.442	8.88
501.874	9.02
502.306	9.14
502.739	9.28
503.171	9.44
503.603	9.6
504.036	9.76
504.468	9.93
504.9	10.09
505.332	10.27
505.764	10.46
506.196	10.64
506.627	10.83
507.059	11.05
507.491	11.26
507.923	11.47
508.354	11.71
508.786	11.94
509.217	12.19
509.649	12.43
510.08	12.68
510.512	12.95
510.943	13.21
511.374	13.48
511.805	13.76
512.237	14.05
512.668	14.34
513.099	14.63
513.53	14.92
513.961	15.23
514.391	15.55
514.822	15.88
515.253	16.19
515.684	16.53
516.114	16.86
516.545	17.19
516.975	17.52
517.406	17.84
517.836	18.18
518.267	18.51
518.697	18.84
519.127	19.15
519.558	19.48
519.988	19.8
520.418	20.12
520.848	20.42
521.278	20.75
521.708	21.16
522.138	21.49
522.567	21.79
522.997	22.07
523.427	22.36
523.857	22.65
524.286	22.91
524.716	23.18
525.145	23.45
525.575	23.7
526.004	23.94
526.433	24.07
526.863	24.28
527.292	24.5
527.721	24.7
528.15	24.89
528.579	25.09
529.008	25.27
529.437	25.44
529.866	25.59
530.295	25.76
530.724	25.9
531.152	26.03
531.581	26.17
532.01	26.3
532.438	26.44
532.867	26.56
533.295	26.66
533.723	26.75
534.152	26.84
534.58	26.94
535.008	26.99
535.436	27.05
535.865	27.11
536.293	27.16
536.721	27.21
537.149	27.24
537.576	27.27
538.004	27.31
538.432	27.35
538.86	27.37
539.287	27.38
539.715	27.43
540.143	27.46
540.57	27.5
540.998	27.52
541.425	27.53
541.852	27.57
542.28	27.61
542.707	27.64
543.134	27.68
543.561	27.72
543.988	27.75
544.415	27.78
544.842	27.82
545.269	27.86
545.696	27.91
546.123	27.96
546.549	27.98
546.976	28.02
547.403	28.05
547.829	28.09
548.256	28.12
548.682	28.15
549.108	28.18
549.535	28.19
549.961	28.21
550.387	28.22
550.813	28.23
551.24	28.24
551.666	28.23
552.092	28.22
552.518	28.21
552.943	28.19
553.369	28.17
553.795	28.15
554.221	28.12
554.646	28.07
555.072	28.03
555.498	27.99
555.923	27.92
556.349	27.87
556.774	27.81
557.199	27.73
557.625	27.66
558.05	27.57
558.475	27.47
558.9	27.36
559.325	27.28
559.75	27.18
560.175	27.09
560.6	26.97
561.025	26.85
561.449	26.72
561.874	26.57
562.299	26.43
562.723	26.28
563.148	26.13
563.572	25.96
563.997	25.78
564.421	25.58
564.846	25.39
565.27	25.21
565.694	25.03
566.118	24.85
566.542	24.65
566.966	24.45
567.39	24.26
567.814	24.05
568.238	23.86
568.662	23.67
569.086	23.49
569.509	23.29
569.933	23.1
570.357	22.91
570.78	22.71
571.204	22.54
571.627	22.38
572.05	22.2
572.474	22.06
572.897	21.92
573.32	21.75
573.743	21.62
574.166	21.48
574.589	21.32
575.012	21.18
575.435	21.03
575.858	20.9
576.281	20.75
576.704	20.63
577.126	20.51
577.549	20.38
577.972	20.27
578.394	20.14
578.817	20.02
579.239	19.93
579.661	19.84
580.084	19.76
580.506	19.68
580.928	19.58
581.35	19.5
581.772	19.39
582.194	19.31
582.616	19.22
583.038	19.14
583.46	19.05
583.882	18.97
584.303	18.88
584.725	18.79
585.147	18.71
585.568	18.65
585.99	18.57
586.411	18.5
586.833	18.42
587.254	18.35
587.675	18.28
588.096	18.23
588.518	18.16
588.939	18.1
589.36	18.04
589.781	17.99
590.202	17.93
590.623	17.87
591.043	17.82
591.464	17.78
591.885	17.73
592.305	17.7
592.726	17.64
593.147	17.59
593.567	17.55
593.987	17.51
594.408	17.46
594.828	17.41
595.248	17.37
595.669	17.33
596.089	17.3
596.509	17.26
596.929	17.22
597.349	17.18
597.769	17.14
598.189	17.1
598.608	17.05
599.028	17.01
599.448	16.96
599.867	16.91
600.287	16.87
600.706	16.82
601.126	16.78
601.545	16.72
601.965	16.66
602.384	16.61
602.803	16.54
603.222	16.48
603.641	16.42
604.061	16.36
604.48	16.28
604.898	16.21
605.317	16.12
605.736	16.04
606.155	15.96
606.574	15.89
606.992	15.81
607.411	15.75
607.829	15.64
608.248	15.55
608.666	15.47
609.085	15.39
609.503	15.31
609.921	15.24
610.339	15.15
610.758	15.09
611.176	15
611.594	14.92
612.012	14.81
612.43	14.75
612.847	14.67
613.265	14.59
613.683	14.52
614.101	14.45
614.518	14.36
614.936	14.29
615.353	14.2
615.771	14.13
616.188	14.06
616.606	14
617.023	13.95
617.44	13.91
617.857	13.86
618.274	13.79
618.691	13.72
619.108	13.67
619.525	13.62
619.942	13.58
620.359	13.54
620.776	13.5
621.192	13.45
621.609	13.42
622.026	13.37
622.442	13.35
622.859	13.33
623.275	13.31
623.691	13.28
624.108	13.26
624.524	13.23
624.94	13.21
625.356	13.19
625.772	13.17
626.188	13.15
626.604	13.14
627.02	13.1
627.436	13.09
627.852	13.08
628.268	13.06
628.683	13.05
629.099	13.03
629.514	13.01
629.93	12.99
630.345	12.96
630.761	12.92
631.176	12.87
631.591	12.82
632.007	12.78
632.422	12.72
632.837	12.66
633.252	12.59
633.667	12.5
634.082	12.42
634.497	12.34
634.911	12.25
635.326	12.16
635.741	12.08
636.155	11.98
636.57	11.87
636.984	11.76
637.399	11.65
637.813	11.53
638.228	11.41
638.642	11.28
639.056	11.15
639.47	11.02
639.884	10.9
640.298	10.77
640.712	10.65
641.126	10.52
641.54	10.4
641.954	10.28
642.368	10.17
642.781	10.06
643.195	9.95
643.609	9.85
644.022	9.75
644.436	9.65
644.849	9.55
645.262	9.47
645.676	9.38
646.089	9.3
646.502	9.23
646.915	9.16
647.328	9.11
647.741	9.05
648.154	8.99
648.567	8.95
648.98	8.9
649.393	8.86
649.805	8.82
650.218	8.77
650.631	8.74
651.043	8.71
651.456	8.68
651.868	8.64
652.28	8.6
652.693	8.57
653.105	8.54
653.517	8.49
653.929	8.46
654.341	8.41
654.753	8.36
655.165	8.32
655.577	8.25
655.989	8.2
656.401	8.14
656.813	8.08
657.224	8.01
657.636	7.94
658.047	7.87
658.459	7.8
658.87	7.73
659.282	7.66
659.693	7.59
660.104	7.51
660.515	7.44
660.926	7.36
661.338	7.29
661.749	7.23
662.159	7.17
662.57	7.12
662.981	7.05
663.392	7.01
663.803	6.96
664.213	6.91
664.624	6.87
665.035	6.84
665.445	6.82
665.855	6.79
666.266	6.77
666.676	6.75
667.086	6.73
667.497	6.71
667.907	6.7
668.317	6.69
668.727	6.68
669.137	6.67
669.547	6.67
669.956	6.67
670.366	6.68
670.776	6.68
671.186	6.69
671.595	6.7
672.005	6.72
672.414	6.74
672.824	6.75
673.233	6.77
673.642	6.79
674.052	6.8
674.461	6.82
674.87	6.83
675.279	6.85
675.688	6.88
676.097	6.91
676.506	6.94
676.915	6.98
677.323	7.02
677.732	7.06
678.141	7.11
678.549	7.17
678.958	7.22
679.366	7.29
679.775	7.35
680.183	7.41
680.592	7.5
681	7.58
681.408	7.66
681.816	7.76
682.224	7.87
682.632	7.98
683.04	8.11
683.448	8.26
683.856	8.4
684.264	8.58
684.671	8.76
685.079	8.97
685.487	9.2
685.894	9.45
686.302	9.73
686.709	10.03
687.116	10.37
687.524	10.71
687.931	11.09
688.338	11.51
688.745	11.95
689.152	12.42
689.559	12.91
689.966	13.44
690.373	13.98
690.78	14.55
691.187	15.14
691.593	15.75
692	16.38
692.407	17.01
692.813	17.67
693.22	18.33
693.626	19.02
694.032	19.71
694.439	20.4
694.845	21.1
695.251	21.81
695.657	22.51
696.063	23.23
696.469	23.95
696.875	24.68
697.281	25.39
697.687	26.1
698.093	26.8
698.498	27.49
698.904	28.18
699.31	28.86
699.715	29.53
700.12	30.19
700.526	30.84
700.931	31.48
701.337	32.11
701.742	32.72
702.147	33.36
702.552	33.96
702.957	34.54
703.362	35.12
703.767	35.67
704.172	36.24
704.577	36.8
704.981	37.35
705.386	37.88
705.791	38.43
706.195	38.96
706.6	39.46
707.004	39.96
707.408	40.48
707.813	41
708.217	41.47
708.621	41.94
709.025	42.41
709.43	42.87
709.834	43.34
710.237	43.78
710.641	44.23
711.045	44.66
711.449	45.12
711.853	45.56
712.256	45.96
712.66	46.39
713.064	46.8
713.467	47.2
713.87	47.59
714.274	47.96
714.677	48.36
715.08	48.7
715.484	49.07
715.887	49.43
716.29	49.76
716.693	50.11
717.096	50.46
717.499	50.81
717.901	51.15
718.304	51.46
718.707	51.79
719.109	52.08
719.512	52.39
719.915	52.68
720.317	52.96
720.719	53.21
721.122	53.48
721.524	53.74
721.926	54
722.328	54.26
722.731	54.51
723.133	54.75
723.535	54.99
723.937	55.21
724.338	55.42
724.74	55.62
725.142	55.89
725.544	56.08
725.945	56.27
726.347	56.43
726.748	56.59
727.15	56.76
727.551	56.93
727.952	57.08
728.354	57.26
728.755	57.43
729.156	57.59
729.557	57.69
729.958	57.82
730.359	57.98
730.76	58.1
731.161	58.23
731.562	58.37
731.962	58.47
732.363	58.61
732.763	58.71
733.164	58.84
733.564	58.93
733.965	59.03
734.365	59.13
734.766	59.2
735.166	59.32
735.566	59.4
735.966	59.47
736.366	59.56
736.766	59.59
737.166	59.66
737.566	59.69
737.966	59.77
738.365	59.83
738.765	59.93
739.165	60
739.564	60.05
739.964	60.1
740.363	60.16
740.763	60.19
741.162	60.27
741.561	60.31
741.96	60.34
742.36	60.37
742.759	60.42
743.158	60.43
743.557	60.43
743.955	60.48
744.354	60.52
744.753	60.57
745.152	60.66
745.55	60.69
745.949	60.76
746.348	60.83
746.746	60.88
747.144	60.91
747.543	60.95
747.941	61
748.339	61.01
748.737	61.04
749.136	61.06
749.534	61.05
749.932	61.06
750.33	61.06
750.727	61.05
751.125	61.05
751.523	61.05
751.921	61.05
752.318	61.04
752.716	61.04
753.113	61.06
753.511	61.05
753.908	61.06
754.305	61.05
754.703	61.02
755.1	60.98
755.497	60.98
755.894	60.97
756.291	60.95
756.688	60.92
757.085	60.9
757.482	60.86
757.878	60.85
758.275	60.84
758.672	60.84
759.068	60.88
759.465	60.92
759.861	60.88
760.258	60.89
760.654	60.91
761.05	60.93
761.447	60.93
761.843	60.93
762.239	60.93
762.635	60.9
763.031	60.87
763.427	60.83
763.822	60.82
764.218	60.87
764.614	60.91
765.01	60.88
765.405	60.87
765.801	60.85
766.196	60.86
766.592	60.84
766.987	60.82
767.382	60.83
767.778	60.83
768.173	60.86
768.568	60.83
768.963	60.79
769.358	60.83
769.753	60.84
770.148	60.86
770.542	60.87
770.937	60.88
771.332	60.91
771.726	60.92
772.121	60.93
772.515	60.91
772.91	60.93
773.304	60.95
773.699	60.93
774.093	60.94
774.487	60.93
774.881	60.94
775.275	60.92
775.669	60.9
776.063	60.9
776.457	60.9
776.851	60.88
777.245	60.82
777.638	60.83
778.032	60.83
778.425	60.84
778.819	60.85
779.212	60.83
779.606	60.87
779.999	60.91
