Data from N_3_DIV_IL_4N_Splice17_14-16-36-998.txt Node
Date: Sat Mar 07 14:16:36 EST 2020
User: sa697716
Spectrometer: NQ5500242
Trigger mode: 0
Integration Time (sec): 1.450000E-1
Scans to average: 20
Nonlinearity correction enabled: false
Boxcar width: 5
Storing dark spectrum: false
XAxis mode: Wavelengths
Number of Pixels in Spectrum: 512
>>>>>Begin Spectral Data<<<<<
187.83	115.04
188.298	126.21
188.766	112.25
189.233	102.68
189.701	93.53
190.169	94.05
190.636	66.2
191.104	-57.69
191.571	-364.31
192.039	-363.75
192.506	-600.16
192.974	155.82
193.441	172.71
193.908	35.73
194.375	54.52
194.842	-7.76
195.31	-12.61
195.777	-109.37
196.244	51.89
196.711	71.09
197.177	74.75
197.644	75.88
198.111	76.64
198.578	76.69
199.045	77.32
199.511	77.2
199.978	77.33
200.445	77.64
200.911	77.52
201.378	77.72
201.844	77.85
202.31	77.33
202.777	76.77
203.243	76.45
203.709	76.19
204.176	75.6
204.642	75.32
205.108	74.79
205.574	74.1
206.04	73.57
206.506	73.11
206.972	72.59
207.438	71.97
207.903	71.51
208.369	70.14
208.835	68.87
209.301	67.28
209.766	65.35
210.232	63.98
210.697	62.4
211.163	60.79
211.628	59.32
212.094	57.86
212.559	56.82
213.024	55.61
213.49	54.53
213.955	53.54
214.42	52.7
214.885	51.63
215.35	49.79
215.815	47.49
216.28	44.83
216.745	41.82
217.21	38.68
217.675	35.87
218.14	33.27
218.604	31.06
219.069	29.13
219.534	27.54
219.998	26.2
220.463	25.12
220.927	24.15
221.392	23.38
221.856	22.7
222.32	22.14
222.785	21.6
223.249	21.17
223.713	20.74
224.177	20.37
224.642	19.99
225.106	19.62
225.57	19.23
226.034	18.92
226.497	18.62
226.961	18.33
227.425	18.04
227.889	17.78
228.353	17.5
228.816	17.22
229.28	16.97
229.744	16.73
230.207	16.49
230.671	16.29
231.134	16.07
231.597	15.88
232.061	15.66
232.524	15.48
232.987	15.27
233.45	15.09
233.914	14.92
234.377	14.73
234.84	14.55
235.303	14.4
235.766	14.24
236.229	14.08
236.691	13.92
237.154	13.78
237.617	13.63
238.08	13.48
238.542	13.33
239.005	13.22
239.468	13.1
239.93	12.99
240.393	12.87
240.855	12.73
241.317	12.61
241.78	12.48
242.242	12.35
242.704	12.25
243.166	12.14
243.629	12.04
244.091	11.92
244.553	11.8
245.015	11.68
245.477	11.57
245.939	11.48
246.4	11.38
246.862	11.29
247.324	11.19
247.786	11.09
248.247	10.98
248.709	10.87
249.17	10.77
249.632	10.69
250.093	10.59
250.555	10.5
251.016	10.42
251.477	10.32
251.939	10.25
252.4	10.17
252.861	10.1
253.322	10.04
253.783	9.97
254.244	9.91
254.705	9.84
255.166	9.78
255.627	9.73
256.088	9.67
256.549	9.63
257.009	9.57
257.47	9.5
257.931	9.44
258.391	9.37
258.852	9.3
259.312	9.24
259.773	9.18
260.233	9.12
260.694	9.06
261.154	9
261.614	8.94
262.074	8.88
262.534	8.83
262.994	8.78
263.455	8.73
263.915	8.7
264.374	8.65
264.834	8.62
265.294	8.58
265.754	8.54
266.214	8.51
266.673	8.49
267.133	8.47
267.593	8.44
268.052	8.42
268.512	8.4
268.971	8.36
269.431	8.35
269.89	8.32
270.349	8.3
270.809	8.27
271.268	8.25
271.727	8.22
272.186	8.2
272.645	8.18
273.104	8.16
273.563	8.12
274.022	8.11
274.481	8.08
274.94	8.06
275.399	8.04
275.857	8.03
276.316	8.01
276.775	7.99
277.233	7.97
277.692	7.95
278.15	7.93
278.609	7.91
279.067	7.9
279.525	7.88
279.984	7.85
280.442	7.83
280.9	7.82
281.358	7.8
281.816	7.78
282.274	7.76
282.732	7.74
283.19	7.71
283.648	7.7
284.106	7.68
284.564	7.67
285.021	7.66
285.479	7.65
285.937	7.63
286.394	7.62
286.852	7.6
287.309	7.58
287.767	7.57
288.224	7.55
288.682	7.52
289.139	7.5
289.596	7.47
290.053	7.43
290.511	7.39
290.968	7.36
291.425	7.33
291.882	7.3
292.339	7.27
292.796	7.24
293.252	7.22
293.709	7.18
294.166	7.17
294.623	7.15
295.079	7.13
295.536	7.13
295.992	7.1
296.449	7.07
296.905	7.06
297.362	7.03
297.818	7.02
298.274	7
298.731	6.99
299.187	6.96
299.643	6.93
300.099	6.92
300.555	6.89
301.011	6.87
301.467	6.86
301.923	6.83
302.379	6.83
302.835	6.82
303.291	6.8
303.746	6.79
304.202	6.78
304.658	6.78
305.113	6.76
305.569	6.76
306.024	6.76
306.479	6.76
306.935	6.75
307.39	6.75
307.845	6.74
308.301	6.74
308.756	6.73
309.211	6.73
309.666	6.73
310.121	6.72
310.576	6.73
311.031	6.72
311.486	6.72
311.94	6.72
312.395	6.72
312.85	6.71
313.305	6.71
313.759	6.71
314.214	6.7
314.668	6.69
315.123	6.68
315.577	6.65
316.032	6.64
316.486	6.62
316.94	6.6
317.394	6.58
317.849	6.55
318.303	6.53
318.757	6.51
319.211	6.49
319.665	6.47
320.119	6.46
320.572	6.45
321.026	6.44
321.48	6.42
321.934	6.4
322.387	6.38
322.841	6.37
323.295	6.36
323.748	6.34
324.202	6.32
324.655	6.31
325.108	6.29
325.562	6.27
326.015	6.25
326.468	6.24
326.921	6.24
327.374	6.24
327.827	6.23
328.28	6.22
328.733	6.22
329.186	6.21
329.639	6.2
330.092	6.19
330.545	6.19
330.997	6.19
331.45	6.19
331.903	6.18
332.355	6.17
332.808	6.17
333.26	6.16
333.713	6.16
334.165	6.17
334.617	6.18
335.069	6.18
335.522	6.2
335.974	6.2
336.426	6.2
336.878	6.2
337.33	6.2
337.782	6.2
338.234	6.2
338.686	6.2
339.137	6.19
339.589	6.17
340.041	6.16
340.493	6.14
340.944	6.12
341.396	6.1
341.847	6.08
342.299	6.05
342.75	6.03
343.201	6.01
343.653	5.99
344.104	5.95
344.555	5.93
345.006	5.91
345.457	5.9
345.908	5.88
346.359	5.88
346.81	5.87
347.261	5.86
347.712	5.85
348.163	5.83
348.613	5.82
349.064	5.83
349.515	5.83
349.965	5.83
350.416	5.81
350.866	5.81
351.317	5.81
351.767	5.81
352.217	5.81
352.668	5.81
353.118	5.82
353.568	5.81
354.018	5.81
354.468	5.81
354.918	5.81
355.368	5.82
355.818	5.82
356.268	5.83
356.718	5.83
357.168	5.83
357.617	5.83
358.067	5.83
358.517	5.84
358.966	5.85
359.416	5.85
359.865	5.85
360.315	5.87
360.764	5.87
361.213	5.87
361.663	5.87
362.112	5.89
362.561	5.9
363.01	5.91
363.459	5.92
363.908	5.92
364.357	5.93
364.806	5.94
365.255	5.96
365.703	5.98
366.152	6
366.601	6.02
367.05	6.04
367.498	6.07
367.947	6.1
368.395	6.14
368.844	6.17
369.292	6.21
369.74	6.25
370.189	6.28
370.637	6.31
371.085	6.33
371.533	6.37
371.981	6.4
372.429	6.44
372.877	6.49
373.325	6.52
373.773	6.56
374.221	6.6
374.669	6.63
375.116	6.67
375.564	6.71
376.012	6.77
376.459	6.82
376.907	6.87
377.354	6.92
377.801	6.97
378.249	7.03
378.696	7.08
379.143	7.13
379.591	7.19
380.038	7.25
380.485	7.3
380.932	7.35
381.379	7.41
381.826	7.47
382.273	7.53
382.72	7.55
383.166	7.6
383.613	7.64
384.06	7.69
384.506	7.73
384.953	7.78
385.4	7.82
385.846	7.87
386.292	7.9
386.739	7.94
387.185	7.98
387.631	8.04
388.078	8.07
388.524	8.11
388.97	8.15
389.416	8.19
389.862	8.22
390.308	8.26
390.754	8.28
391.2	8.31
391.645	8.34
392.091	8.38
392.537	8.41
392.983	8.45
393.428	8.49
393.874	8.51
394.319	8.53
394.765	8.54
395.21	8.55
395.655	8.55
396.101	8.59
396.546	8.59
396.991	8.6
397.436	8.62
397.881	8.63
398.326	8.64
398.771	8.67
399.216	8.68
399.661	8.72
400.106	8.73
400.551	8.74
400.995	8.73
401.44	8.72
401.885	8.71
402.329	8.7
402.774	8.7
403.218	8.7
403.663	8.69
404.107	8.7
404.551	8.68
404.995	8.67
405.44	8.67
405.884	8.66
406.328	8.66
406.772	8.66
407.216	8.66
407.66	8.65
408.104	8.62
408.547	8.61
408.991	8.6
409.435	8.58
409.879	8.58
410.322	8.59
410.766	8.61
411.209	8.61
411.653	8.62
412.096	8.62
412.54	8.63
412.983	8.64
413.426	8.65
413.869	8.66
414.312	8.68
414.756	8.71
415.199	8.71
415.642	8.7
416.085	8.71
416.527	8.7
416.97	8.67
417.413	8.66
417.856	8.63
418.298	8.6
418.741	8.58
419.184	8.57
419.626	8.55
420.069	8.53
420.511	8.52
420.953	8.51
421.396	8.51
421.838	8.51
422.28	8.53
422.722	8.56
423.164	8.57
423.606	8.58
424.048	8.58
424.49	8.59
424.932	8.6
425.374	8.59
425.816	8.55
426.258	8.52
426.699	8.49
427.141	8.46
427.582	8.44
428.024	8.45
428.465	8.44
428.907	8.42
429.348	8.4
429.789	8.39
430.231	8.39
430.672	8.41
431.113	8.45
431.554	8.47
431.995	8.49
432.436	8.49
432.877	8.5
433.318	8.51
433.759	8.54
434.2	8.56
434.64	8.58
435.081	8.59
435.522	8.62
435.962	8.64
436.403	8.68
436.843	8.7
437.284	8.7
437.724	8.7
438.164	8.7
438.604	8.71
439.045	8.71
439.485	8.72
439.925	8.73
440.365	8.73
440.805	8.72
441.245	8.74
441.685	8.77
442.125	8.82
442.564	8.85
443.004	8.86
443.444	8.89
443.883	8.91
444.323	8.92
444.762	8.95
445.202	9
445.641	9.03
446.081	9.06
446.52	9.07
446.959	9.1
447.398	9.12
447.837	9.15
448.276	9.16
448.716	9.18
449.154	9.21
449.593	9.24
450.032	9.23
450.471	9.23
450.91	9.23
451.349	9.24
451.787	9.21
452.226	9.21
452.664	9.22
453.103	9.21
453.541	9.19
453.98	9.19
454.418	9.15
454.856	9.14
455.295	9.13
455.733	9.1
456.171	9.08
456.609	9.07
457.047	9.05
457.485	9.01
457.923	9
458.361	8.99
458.798	8.97
459.236	8.96
459.674	8.95
460.111	8.93
460.549	8.93
460.987	8.94
461.424	8.94
461.862	8.94
462.299	8.95
462.736	8.94
463.173	8.95
463.611	8.95
464.048	8.95
464.485	8.95
464.922	8.96
465.359	8.96
465.796	8.94
466.233	8.93
466.67	8.94
467.106	8.94
467.543	8.93
467.98	8.93
468.416	8.94
468.853	8.94
469.29	8.93
469.726	8.92
470.162	8.92
470.599	8.94
471.035	8.93
471.471	8.91
471.907	8.92
472.344	8.93
472.78	8.93
473.216	8.9
473.652	8.91
474.088	8.91
474.523	8.91
474.959	8.91
475.395	8.89
475.831	8.89
476.266	8.89
476.702	8.87
477.138	8.85
477.573	8.85
478.008	8.85
478.444	8.85
478.879	8.85
479.314	8.84
479.75	8.84
480.185	8.83
480.62	8.82
481.055	8.81
481.49	8.81
481.925	8.8
482.36	8.8
482.795	8.78
483.229	8.77
483.664	8.77
484.099	8.76
484.534	8.75
484.968	8.76
485.403	8.76
485.837	8.77
486.271	8.79
486.706	8.8
487.14	8.8
487.574	8.83
488.009	8.85
488.443	8.86
488.877	8.9
489.311	8.92
489.745	8.95
490.179	8.99
490.613	9.02
491.046	9.05
491.48	9.1
491.914	9.15
492.348	9.21
492.781	9.26
493.215	9.32
493.648	9.38
494.082	9.44
494.515	9.51
494.948	9.58
495.382	9.65
495.815	9.74
496.248	9.82
496.681	9.91
497.114	9.99
497.547	10.08
497.98	10.18
498.413	10.28
498.846	10.39
499.279	10.5
499.711	10.63
500.144	10.75
500.577	10.87
501.009	11
501.442	11.13
501.874	11.29
502.306	11.44
502.739	11.6
503.171	11.76
503.603	11.94
504.036	12.12
504.468	12.29
504.9	12.48
505.332	12.67
505.764	12.87
506.196	13.08
506.627	13.29
507.059	13.52
507.491	13.75
507.923	13.99
508.354	14.24
508.786	14.5
509.217	14.76
509.649	15.04
510.08	15.32
510.512	15.6
510.943	15.89
511.374	16.19
511.805	16.47
512.237	16.78
512.668	17.09
513.099	17.39
513.53	17.7
513.961	18.04
514.391	18.36
514.822	18.7
515.253	19.03
515.684	19.36
516.114	19.7
516.545	20.05
516.975	20.39
517.406	20.73
517.836	21.08
518.267	21.44
518.697	21.76
519.127	22.08
519.558	22.41
519.988	22.74
520.418	23.07
520.848	23.39
521.278	23.71
521.708	24.11
522.138	24.42
522.567	24.71
522.997	24.98
523.427	25.27
523.857	25.55
524.286	25.81
524.716	26.08
525.145	26.32
525.575	26.58
526.004	26.82
526.433	26.97
526.863	27.19
527.292	27.42
527.721	27.62
528.15	27.82
528.579	28.02
529.008	28.23
529.437	28.4
529.866	28.57
530.295	28.73
530.724	28.88
531.152	29.02
531.581	29.16
532.01	29.28
532.438	29.43
532.867	29.55
533.295	29.65
533.723	29.74
534.152	29.82
534.58	29.92
535.008	29.98
535.436	30.06
535.865	30.13
536.293	30.19
536.721	30.24
537.149	30.29
537.576	30.33
538.004	30.38
538.432	30.43
538.86	30.48
539.287	30.5
539.715	30.54
540.143	30.57
540.57	30.61
540.998	30.64
541.425	30.69
541.852	30.72
542.28	30.76
542.707	30.8
543.134	30.84
543.561	30.87
543.988	30.91
544.415	30.93
544.842	30.96
545.269	30.99
545.696	31.03
546.123	31.06
546.549	31.1
546.976	31.15
547.403	31.18
547.829	31.21
548.256	31.25
548.682	31.28
549.108	31.32
549.535	31.35
549.961	31.37
550.387	31.38
550.813	31.4
551.24	31.38
551.666	31.36
552.092	31.36
552.518	31.36
552.943	31.34
553.369	31.33
553.795	31.31
554.221	31.3
554.646	31.26
555.072	31.21
555.498	31.16
555.923	31.11
556.349	31.06
556.774	31
557.199	30.94
557.625	30.86
558.05	30.79
558.475	30.72
558.9	30.63
559.325	30.56
559.75	30.47
560.175	30.39
560.6	30.28
561.025	30.18
561.449	30.06
561.874	29.94
562.299	29.81
562.723	29.68
563.148	29.51
563.572	29.34
563.997	29.16
564.421	29.01
564.846	28.84
565.27	28.68
565.694	28.5
566.118	28.32
566.542	28.15
566.966	27.96
567.39	27.77
567.814	27.59
568.238	27.41
568.662	27.24
569.086	27.06
569.509	26.88
569.933	26.68
570.357	26.49
570.78	26.31
571.204	26.13
571.627	25.96
572.05	25.78
572.474	25.64
572.897	25.49
573.32	25.33
573.743	25.17
574.166	25.02
574.589	24.88
575.012	24.75
575.435	24.64
575.858	24.51
576.281	24.38
576.704	24.27
577.126	24.15
577.549	24.03
577.972	23.93
578.394	23.81
578.817	23.71
579.239	23.61
579.661	23.51
580.084	23.4
580.506	23.3
580.928	23.22
581.35	23.11
581.772	23.02
582.194	22.93
582.616	22.84
583.038	22.76
583.46	22.66
583.882	22.58
584.303	22.5
584.725	22.41
585.147	22.33
585.568	22.26
585.99	22.19
586.411	22.09
586.833	22.02
587.254	21.94
587.675	21.88
588.096	21.81
588.518	21.74
588.939	21.69
589.36	21.63
589.781	21.58
590.202	21.51
590.623	21.47
591.043	21.43
591.464	21.39
591.885	21.34
592.305	21.29
592.726	21.26
593.147	21.22
593.567	21.17
593.987	21.12
594.408	21.09
594.828	21.06
595.248	21.04
595.669	21
596.089	20.96
596.509	20.93
596.929	20.89
597.349	20.84
597.769	20.81
598.189	20.77
598.608	20.74
599.028	20.69
599.448	20.63
599.867	20.57
600.287	20.51
600.706	20.46
601.126	20.4
601.545	20.35
601.965	20.3
602.384	20.24
602.803	20.16
603.222	20.1
603.641	20.03
604.061	19.97
604.48	19.89
604.898	19.82
605.317	19.74
605.736	19.68
606.155	19.59
606.574	19.5
606.992	19.42
607.411	19.33
607.829	19.22
608.248	19.13
608.666	19.03
609.085	18.94
609.503	18.86
609.921	18.76
610.339	18.66
610.758	18.57
611.176	18.47
611.594	18.39
612.012	18.32
612.43	18.25
612.847	18.17
613.265	18.09
613.683	18.01
614.101	17.93
614.518	17.86
614.936	17.78
615.353	17.69
615.771	17.63
616.188	17.56
616.606	17.48
617.023	17.41
617.44	17.36
617.857	17.3
618.274	17.24
618.691	17.17
619.108	17.1
619.525	17.05
619.942	17.01
620.359	16.96
620.776	16.92
621.192	16.88
621.609	16.86
622.026	16.8
622.442	16.76
622.859	16.73
623.275	16.71
623.691	16.68
624.108	16.66
624.524	16.64
624.94	16.62
625.356	16.6
625.772	16.58
626.188	16.57
626.604	16.55
627.02	16.55
627.436	16.53
627.852	16.51
628.268	16.49
628.683	16.47
629.099	16.45
629.514	16.42
629.93	16.4
630.345	16.37
630.761	16.32
631.176	16.27
631.591	16.22
632.007	16.17
632.422	16.11
632.837	16.05
633.252	15.98
633.667	15.9
634.082	15.82
634.497	15.73
634.911	15.64
635.326	15.54
635.741	15.45
636.155	15.35
636.57	15.24
636.984	15.13
637.399	14.99
637.813	14.86
638.228	14.73
638.642	14.59
639.056	14.44
639.47	14.3
639.884	14.15
640.298	14
640.712	13.85
641.126	13.71
641.54	13.56
641.954	13.42
642.368	13.28
642.781	13.14
643.195	13.02
643.609	12.89
644.022	12.76
644.436	12.66
644.849	12.54
645.262	12.43
645.676	12.32
646.089	12.23
646.502	12.15
646.915	12.08
647.328	12
647.741	11.92
648.154	11.85
648.567	11.79
648.98	11.73
649.393	11.68
649.805	11.63
650.218	11.59
650.631	11.54
651.043	11.49
651.456	11.44
651.868	11.39
652.28	11.34
652.693	11.31
653.105	11.26
653.517	11.2
653.929	11.16
654.341	11.1
654.753	11.04
655.165	10.97
655.577	10.9
655.989	10.84
656.401	10.76
656.813	10.68
657.224	10.59
657.636	10.49
658.047	10.41
658.459	10.31
658.87	10.22
659.282	10.12
659.693	10.03
660.104	9.93
660.515	9.83
660.926	9.75
661.338	9.66
661.749	9.58
662.159	9.5
662.57	9.42
662.981	9.34
663.392	9.26
663.803	9.21
664.213	9.15
664.624	9.09
665.035	9.04
665.445	8.99
665.855	8.95
666.266	8.92
666.676	8.89
667.086	8.85
667.497	8.82
667.907	8.8
668.317	8.78
668.727	8.76
669.137	8.75
669.547	8.74
669.956	8.73
670.366	8.73
670.776	8.71
671.186	8.71
671.595	8.71
672.005	8.72
672.414	8.73
672.824	8.72
673.233	8.73
673.642	8.74
674.052	8.76
674.461	8.78
674.87	8.8
675.279	8.84
675.688	8.88
676.097	8.91
676.506	8.94
676.915	8.99
677.323	9.04
677.732	9.1
678.141	9.16
678.549	9.22
678.958	9.29
679.366	9.36
679.775	9.43
680.183	9.51
680.592	9.62
681	9.74
681.408	9.85
681.816	9.98
682.224	10.12
682.632	10.28
683.04	10.45
683.448	10.63
683.856	10.82
684.264	11.04
684.671	11.28
685.079	11.54
685.487	11.83
685.894	12.15
686.302	12.49
686.709	12.85
687.116	13.22
687.524	13.64
687.931	14.08
688.338	14.57
688.745	15.07
689.152	15.59
689.559	16.15
689.966	16.72
690.373	17.31
690.78	17.92
691.187	18.55
691.593	19.2
692	19.86
692.407	20.52
692.813	21.21
693.22	21.88
693.626	22.59
694.032	23.28
694.439	23.97
694.845	24.68
695.251	25.38
695.657	26.06
696.063	26.75
696.469	27.45
696.875	28.14
697.281	28.81
697.687	29.49
698.093	30.15
698.498	30.8
698.904	31.45
699.31	32.07
699.715	32.69
700.12	33.31
700.526	33.91
700.931	34.5
701.337	35.08
701.742	35.65
702.147	36.21
702.552	36.75
702.957	37.27
703.362	37.79
703.767	38.3
704.172	38.82
704.577	39.31
704.981	39.8
705.386	40.27
705.791	40.74
706.195	41.21
706.6	41.66
707.004	42.09
707.408	42.54
707.813	43
708.217	43.41
708.621	43.83
709.025	44.24
709.43	44.63
709.834	45.05
710.237	45.44
710.641	45.83
711.045	46.21
711.449	46.61
711.853	46.99
712.256	47.31
712.66	47.69
713.064	48.02
713.467	48.36
713.87	48.7
714.274	49.01
714.677	49.33
715.08	49.62
715.484	49.93
715.887	50.24
716.29	50.52
716.693	50.82
717.096	51.08
717.499	51.37
717.901	51.65
718.304	51.92
718.707	52.2
719.109	52.45
719.512	52.71
719.915	52.94
720.317	53.15
720.719	53.4
721.122	53.64
721.524	53.87
721.926	54.08
722.328	54.31
722.731	54.52
723.133	54.72
723.535	54.9
723.937	55.11
724.338	55.27
724.74	55.44
725.142	55.62
725.544	55.78
725.945	55.97
726.347	56.11
726.748	56.21
727.15	56.33
727.551	56.46
727.952	56.6
728.354	56.72
728.755	56.83
729.156	56.97
729.557	57.08
729.958	57.19
730.359	57.29
730.76	57.41
731.161	57.52
731.562	57.67
731.962	57.73
732.363	57.83
732.763	57.94
733.164	58.04
733.564	58.12
733.965	58.18
734.365	58.28
734.766	58.33
735.166	58.42
735.566	58.5
735.966	58.54
736.366	58.62
736.766	58.65
737.166	58.72
737.566	58.77
737.966	58.82
738.365	58.87
738.765	58.89
739.165	58.94
739.564	58.97
739.964	59.01
740.363	59.03
740.763	59.08
741.162	59.14
741.561	59.14
741.96	59.17
742.36	59.2
742.759	59.24
743.158	59.3
743.557	59.32
743.955	59.35
744.354	59.41
744.753	59.45
745.152	59.52
745.55	59.56
745.949	59.6
746.348	59.67
746.746	59.73
747.144	59.77
747.543	59.79
747.941	59.84
748.339	59.84
748.737	59.86
749.136	59.87
749.534	59.86
749.932	59.84
750.33	59.83
750.727	59.85
751.125	59.83
751.523	59.81
751.921	59.81
752.318	59.82
752.716	59.84
753.113	59.84
753.511	59.85
753.908	59.87
754.305	59.89
754.703	59.88
755.1	59.84
755.497	59.83
755.894	59.83
756.291	59.84
756.688	59.81
757.085	59.81
757.482	59.78
757.878	59.77
758.275	59.73
758.672	59.72
759.068	59.75
759.465	59.74
759.861	59.75
760.258	59.78
760.654	59.75
761.05	59.76
761.447	59.76
761.843	59.75
762.239	59.76
762.635	59.76
763.031	59.79
763.427	59.77
763.822	59.76
764.218	59.78
764.614	59.78
765.01	59.78
765.405	59.76
765.801	59.72
766.196	59.73
766.592	59.71
766.987	59.72
767.382	59.7
767.778	59.71
768.173	59.74
768.568	59.72
768.963	59.68
769.358	59.68
769.753	59.67
770.148	59.68
770.542	59.7
770.937	59.69
771.332	59.67
771.726	59.67
772.121	59.68
772.515	59.66
772.91	59.65
773.304	59.68
773.699	59.68
774.093	59.7
774.487	59.74
774.881	59.75
775.275	59.76
775.669	59.78
776.063	59.8
776.457	59.8
776.851	59.76
777.245	59.72
777.638	59.7
778.032	59.71
778.425	59.74
778.819	59.7
