Data from N_3_DEC_ON_6N_Splice17_14-25-58-212.txt Node
Date: Sat Mar 07 14:25:58 EST 2020
User: sa697716
Spectrometer: NQ5500242
Trigger mode: 0
Integration Time (sec): 1.450000E-1
Scans to average: 20
Nonlinearity correction enabled: false
Boxcar width: 5
Storing dark spectrum: false
XAxis mode: Wavelengths
Number of Pixels in Spectrum: 512
>>>>>Begin Spectral Data<<<<<
187.83	152.88
188.298	162.12
188.766	132.09
189.233	115.6
189.701	119.85
190.169	129.22
190.636	125.96
191.104	88.15
191.571	-63.82
192.039	59.56
192.506	185.76
192.974	41.14
193.441	-2.45
193.908	-45.05
194.375	-14.32
194.842	0.32
195.31	-7.48
195.777	-34.28
196.244	56.15
196.711	67.48
197.177	69.89
197.644	69.87
198.111	69.3
198.578	69.61
199.045	69.57
199.511	69.45
199.978	69.19
200.445	69.4
200.911	69.5
201.378	69.58
201.844	69.33
202.31	68.99
202.777	68.72
203.243	68.8
203.709	68.46
204.176	67.93
204.642	67.58
205.108	67.12
205.574	66.67
206.04	65.93
206.506	65.08
206.972	64.71
207.438	64.15
207.903	63.28
208.369	61.99
208.835	60.59
209.301	59.12
209.766	57.54
210.232	55.9
210.697	54.14
211.163	52.66
211.628	51.43
212.094	49.94
212.559	48.47
213.024	47.31
213.49	46.27
213.955	45.28
214.42	44.21
214.885	42.84
215.35	41.2
215.815	38.9
216.28	36.07
216.745	33.05
217.21	29.86
217.675	27.11
218.14	24.6
218.604	22.32
219.069	20.45
219.534	18.88
219.998	17.61
220.463	16.54
220.927	15.63
221.392	14.93
221.856	14.3
222.32	13.81
222.785	13.35
223.249	12.95
223.713	12.6
224.177	12.3
224.642	12.03
225.106	11.73
225.57	11.46
226.034	11.23
226.497	11.01
226.961	10.8
227.425	10.59
227.889	10.39
228.353	10.2
228.816	10.02
229.28	9.83
229.744	9.68
230.207	9.52
230.671	9.37
231.134	9.23
231.597	9.1
232.061	8.98
232.524	8.87
232.987	8.78
233.45	8.68
233.914	8.57
234.377	8.47
234.84	8.37
235.303	8.29
235.766	8.22
236.229	8.13
236.691	8.04
237.154	7.95
237.617	7.87
238.08	7.79
238.542	7.7
239.005	7.65
239.468	7.57
239.93	7.5
240.393	7.44
240.855	7.37
241.317	7.31
241.78	7.25
242.242	7.18
242.704	7.13
243.166	7.07
243.629	7.01
244.091	6.94
244.553	6.88
245.015	6.83
245.477	6.76
245.939	6.71
246.4	6.66
246.862	6.6
247.324	6.56
247.786	6.49
248.247	6.44
248.709	6.39
249.17	6.34
249.632	6.31
250.093	6.26
250.555	6.22
251.016	6.17
251.477	6.13
251.939	6.1
252.4	6.06
252.861	6.04
253.322	6.01
253.783	5.98
254.244	5.96
254.705	5.92
255.166	5.89
255.627	5.87
256.088	5.85
256.549	5.83
257.009	5.79
257.47	5.76
257.931	5.72
258.391	5.68
258.852	5.64
259.312	5.6
259.773	5.58
260.233	5.55
260.694	5.52
261.154	5.49
261.614	5.45
262.074	5.41
262.534	5.39
262.994	5.36
263.455	5.34
263.915	5.33
264.374	5.3
264.834	5.29
265.294	5.26
265.754	5.24
266.214	5.22
266.673	5.21
267.133	5.2
267.593	5.19
268.052	5.18
268.512	5.17
268.971	5.17
269.431	5.16
269.89	5.14
270.349	5.14
270.809	5.13
271.268	5.13
271.727	5.12
272.186	5.12
272.645	5.11
273.104	5.11
273.563	5.1
274.022	5.09
274.481	5.09
274.94	5.09
275.399	5.08
275.857	5.07
276.316	5.07
276.775	5.06
277.233	5.06
277.692	5.06
278.15	5.06
278.609	5.06
279.067	5.05
279.525	5.05
279.984	5.04
280.442	5.03
280.9	5.03
281.358	5.03
281.816	5.03
282.274	5.03
282.732	5.01
283.19	5.01
283.648	5
284.106	5.01
284.564	5.01
285.021	5.01
285.479	5.02
285.937	5.01
286.394	5.01
286.852	5
287.309	5
287.767	5
288.224	4.98
288.682	4.98
289.139	4.96
289.596	4.95
290.053	4.92
290.511	4.9
290.968	4.89
291.425	4.87
291.882	4.86
292.339	4.84
292.796	4.83
293.252	4.82
293.709	4.81
294.166	4.8
294.623	4.79
295.079	4.79
295.536	4.78
295.992	4.77
296.449	4.76
296.905	4.76
297.362	4.76
297.818	4.75
298.274	4.75
298.731	4.74
299.187	4.73
299.643	4.72
300.099	4.72
300.555	4.71
301.011	4.71
301.467	4.71
301.923	4.7
302.379	4.7
302.835	4.7
303.291	4.69
303.746	4.69
304.202	4.7
304.658	4.7
305.113	4.7
305.569	4.71
306.024	4.71
306.479	4.71
306.935	4.72
307.39	4.72
307.845	4.72
308.301	4.72
308.756	4.73
309.211	4.73
309.666	4.74
310.121	4.74
310.576	4.75
311.031	4.75
311.486	4.76
311.94	4.76
312.395	4.75
312.85	4.77
313.305	4.77
313.759	4.77
314.214	4.77
314.668	4.77
315.123	4.77
315.577	4.76
316.032	4.76
316.486	4.76
316.94	4.76
317.394	4.75
317.849	4.74
318.303	4.73
318.757	4.71
319.211	4.7
319.665	4.69
320.119	4.68
320.572	4.66
321.026	4.65
321.48	4.64
321.934	4.63
322.387	4.62
322.841	4.61
323.295	4.61
323.748	4.61
324.202	4.61
324.655	4.61
325.108	4.61
325.562	4.61
326.015	4.61
326.468	4.62
326.921	4.62
327.374	4.62
327.827	4.62
328.28	4.61
328.733	4.62
329.186	4.62
329.639	4.62
330.092	4.63
330.545	4.63
330.997	4.62
331.45	4.62
331.903	4.63
332.355	4.63
332.808	4.64
333.26	4.64
333.713	4.65
334.165	4.64
334.617	4.64
335.069	4.64
335.522	4.65
335.974	4.66
336.426	4.67
336.878	4.66
337.33	4.66
337.782	4.65
338.234	4.65
338.686	4.65
339.137	4.66
339.589	4.66
340.041	4.66
340.493	4.66
340.944	4.64
341.396	4.63
341.847	4.62
342.299	4.6
342.75	4.59
343.201	4.58
343.653	4.57
344.104	4.55
344.555	4.53
345.006	4.52
345.457	4.51
345.908	4.5
346.359	4.5
346.81	4.5
347.261	4.5
347.712	4.49
348.163	4.48
348.613	4.48
349.064	4.48
349.515	4.48
349.965	4.47
350.416	4.47
350.866	4.47
351.317	4.46
351.767	4.46
352.217	4.47
352.668	4.47
353.118	4.48
353.568	4.48
354.018	4.49
354.468	4.49
354.918	4.5
355.368	4.51
355.818	4.52
356.268	4.52
356.718	4.52
357.168	4.52
357.617	4.52
358.067	4.52
358.517	4.54
358.966	4.54
359.416	4.55
359.865	4.55
360.315	4.55
360.764	4.55
361.213	4.56
361.663	4.56
362.112	4.58
362.561	4.6
363.01	4.6
363.459	4.59
363.908	4.59
364.357	4.59
364.806	4.59
365.255	4.61
365.703	4.62
366.152	4.64
366.601	4.66
367.05	4.67
367.498	4.67
367.947	4.69
368.395	4.71
368.844	4.74
369.292	4.77
369.74	4.8
370.189	4.82
370.637	4.84
371.085	4.86
371.533	4.89
371.981	4.93
372.429	4.96
372.877	5
373.325	5.04
373.773	5.07
374.221	5.11
374.669	5.15
375.116	5.2
375.564	5.24
376.012	5.29
376.459	5.34
376.907	5.4
377.354	5.46
377.801	5.51
378.249	5.56
378.696	5.61
379.143	5.67
379.591	5.74
380.038	5.81
380.485	5.88
380.932	5.95
381.379	6.01
381.826	6.07
382.273	6.14
382.72	6.21
383.166	6.29
383.613	6.36
384.06	6.42
384.506	6.49
384.953	6.55
385.4	6.61
385.846	6.68
386.292	6.74
386.739	6.8
387.185	6.86
387.631	6.94
388.078	7
388.524	7.07
388.97	7.13
389.416	7.19
389.862	7.26
390.308	7.32
390.754	7.38
391.2	7.45
391.645	7.49
392.091	7.56
392.537	7.61
392.983	7.66
393.428	7.72
393.874	7.77
394.319	7.82
394.765	7.85
395.21	7.88
395.655	7.91
396.101	7.95
396.546	7.98
396.991	8.01
397.436	8.04
397.881	8.07
398.326	8.1
398.771	8.12
399.216	8.14
399.661	8.18
400.106	8.21
400.551	8.22
400.995	8.22
401.44	8.23
401.885	8.22
402.329	8.23
402.774	8.24
403.218	8.26
403.663	8.27
404.107	8.27
404.551	8.27
404.995	8.27
405.44	8.27
405.884	8.27
406.328	8.27
406.772	8.28
407.216	8.28
407.66	8.28
408.104	8.27
408.547	8.26
408.991	8.25
409.435	8.24
409.879	8.25
410.322	8.25
410.766	8.25
411.209	8.26
411.653	8.26
412.096	8.26
412.54	8.26
412.983	8.25
413.426	8.27
413.869	8.28
414.312	8.3
414.756	8.3
415.199	8.3
415.642	8.31
416.085	8.31
416.527	8.31
416.97	8.3
417.413	8.28
417.856	8.28
418.298	8.24
418.741	8.24
419.184	8.24
419.626	8.23
420.069	8.23
420.511	8.22
420.953	8.2
421.396	8.19
421.838	8.18
422.28	8.18
422.722	8.2
423.164	8.19
423.606	8.18
424.048	8.16
424.49	8.16
424.932	8.15
425.374	8.13
425.816	8.11
426.258	8.09
426.699	8.05
427.141	8.02
427.582	7.99
428.024	7.98
428.465	7.98
428.907	7.97
429.348	7.94
429.789	7.91
430.231	7.92
430.672	7.94
431.113	7.96
431.554	7.98
431.995	7.99
432.436	8
432.877	8.01
433.318	8.02
433.759	8.04
434.2	8.08
434.64	8.1
435.081	8.11
435.522	8.12
435.962	8.13
436.403	8.17
436.843	8.19
437.284	8.21
437.724	8.22
438.164	8.22
438.604	8.23
439.045	8.23
439.485	8.24
439.925	8.25
440.365	8.27
440.805	8.29
441.245	8.31
441.685	8.35
442.125	8.39
442.564	8.43
443.004	8.47
443.444	8.49
443.883	8.53
444.323	8.55
444.762	8.6
445.202	8.64
445.641	8.68
446.081	8.73
446.52	8.74
446.959	8.79
447.398	8.82
447.837	8.87
448.276	8.91
448.716	8.95
449.154	9.01
449.593	9.05
450.032	9.08
450.471	9.1
450.91	9.1
451.349	9.14
451.787	9.14
452.226	9.14
452.664	9.14
453.103	9.14
453.541	9.14
453.98	9.14
454.418	9.11
454.856	9.09
455.295	9.08
455.733	9.06
456.171	9.02
456.609	9.02
457.047	9.01
457.485	8.99
457.923	8.97
458.361	8.95
458.798	8.94
459.236	8.95
459.674	8.94
460.111	8.93
460.549	8.93
460.987	8.94
461.424	8.93
461.862	8.93
462.299	8.95
462.736	8.94
463.173	8.95
463.611	8.94
464.048	8.94
464.485	8.94
464.922	8.95
465.359	8.96
465.796	8.96
466.233	8.97
466.67	8.98
467.106	8.96
467.543	8.97
467.98	8.98
468.416	8.97
468.853	8.97
469.29	8.97
469.726	8.97
470.162	8.97
470.599	8.98
471.035	8.98
471.471	8.98
471.907	9
472.344	9
472.78	9.01
473.216	9.01
473.652	9.04
474.088	9.04
474.523	9.06
474.959	9.06
475.395	9.06
475.831	9.06
476.266	9.07
476.702	9.07
477.138	9.07
477.573	9.07
478.008	9.08
478.444	9.06
478.879	9.07
479.314	9.07
479.75	9.07
480.185	9.06
480.62	9.06
481.055	9.06
481.49	9.05
481.925	9.05
482.36	9.05
482.795	9.04
483.229	9.05
483.664	9.06
484.099	9.06
484.534	9.06
484.968	9.08
485.403	9.09
485.837	9.1
486.271	9.13
486.706	9.15
487.14	9.17
487.574	9.21
488.009	9.24
488.443	9.27
488.877	9.32
489.311	9.38
489.745	9.42
490.179	9.47
490.613	9.54
491.046	9.6
491.48	9.67
491.914	9.74
492.348	9.81
492.781	9.89
493.215	9.97
493.648	10.05
494.082	10.14
494.515	10.22
494.948	10.33
495.382	10.42
495.815	10.53
496.248	10.64
496.681	10.76
497.114	10.87
497.547	10.98
497.98	11.11
498.413	11.24
498.846	11.38
499.279	11.52
499.711	11.64
500.144	11.8
500.577	11.94
501.009	12.09
501.442	12.23
501.874	12.41
502.306	12.58
502.739	12.75
503.171	12.92
503.603	13.11
504.036	13.3
504.468	13.51
504.9	13.69
505.332	13.88
505.764	14.08
506.196	14.3
506.627	14.5
507.059	14.72
507.491	14.94
507.923	15.17
508.354	15.4
508.786	15.63
509.217	15.87
509.649	16.11
510.08	16.36
510.512	16.62
510.943	16.87
511.374	17.12
511.805	17.37
512.237	17.62
512.668	17.87
513.099	18.11
513.53	18.37
513.961	18.64
514.391	18.91
514.822	19.17
515.253	19.42
515.684	19.66
516.114	19.93
516.545	20.19
516.975	20.44
517.406	20.69
517.836	20.94
518.267	21.18
518.697	21.4
519.127	21.62
519.558	21.86
519.988	22.09
520.418	22.32
520.848	22.54
521.278	22.75
521.708	23.06
522.138	23.27
522.567	23.48
522.997	23.66
523.427	23.85
523.857	24.05
524.286	24.21
524.716	24.39
525.145	24.55
525.575	24.72
526.004	24.88
526.433	24.93
526.863	25.07
527.292	25.19
527.721	25.33
528.15	25.46
528.579	25.59
529.008	25.72
529.437	25.83
529.866	25.93
530.295	26.04
530.724	26.14
531.152	26.23
531.581	26.33
532.01	26.43
532.438	26.51
532.867	26.6
533.295	26.65
533.723	26.7
534.152	26.77
534.58	26.83
535.008	26.86
535.436	26.91
535.865	26.94
536.293	26.97
536.721	27
537.149	27.03
537.576	27.07
538.004	27.11
538.432	27.13
538.86	27.15
539.287	27.15
539.715	27.2
540.143	27.23
540.57	27.25
540.998	27.26
541.425	27.25
541.852	27.27
542.28	27.29
542.707	27.3
543.134	27.33
543.561	27.36
543.988	27.4
544.415	27.39
544.842	27.41
545.269	27.44
545.696	27.48
546.123	27.52
546.549	27.56
546.976	27.6
547.403	27.61
547.829	27.63
548.256	27.67
548.682	27.68
549.108	27.73
549.535	27.77
549.961	27.79
550.387	27.79
550.813	27.8
551.24	27.79
551.666	27.8
552.092	27.81
552.518	27.82
552.943	27.81
553.369	27.82
553.795	27.8
554.221	27.78
554.646	27.77
555.072	27.77
555.498	27.75
555.923	27.73
556.349	27.71
556.774	27.68
557.199	27.65
557.625	27.61
558.05	27.55
558.475	27.51
558.9	27.47
559.325	27.41
559.75	27.36
560.175	27.3
560.6	27.24
561.025	27.16
561.449	27.09
561.874	27.02
562.299	26.95
562.723	26.86
563.148	26.77
563.572	26.68
563.997	26.59
564.421	26.48
564.846	26.38
565.27	26.28
565.694	26.18
566.118	26.05
566.542	25.93
566.966	25.8
567.39	25.68
567.814	25.56
568.238	25.42
568.662	25.28
569.086	25.16
569.509	25.05
569.933	24.92
570.357	24.79
570.78	24.67
571.204	24.54
571.627	24.43
572.05	24.32
572.474	24.23
572.897	24.13
573.32	24.05
573.743	23.94
574.166	23.86
574.589	23.77
575.012	23.68
575.435	23.6
575.858	23.53
576.281	23.45
576.704	23.38
577.126	23.29
577.549	23.22
577.972	23.13
578.394	23.06
578.817	23
579.239	22.94
579.661	22.87
580.084	22.81
580.506	22.76
580.928	22.71
581.35	22.64
581.772	22.59
582.194	22.54
582.616	22.49
583.038	22.45
583.46	22.38
583.882	22.32
584.303	22.27
584.725	22.22
585.147	22.17
585.568	22.12
585.99	22.07
586.411	22.02
586.833	21.96
587.254	21.91
587.675	21.86
588.096	21.8
588.518	21.77
588.939	21.72
589.36	21.67
589.781	21.63
590.202	21.59
590.623	21.57
591.043	21.53
591.464	21.51
591.885	21.47
592.305	21.43
592.726	21.41
593.147	21.38
593.567	21.35
593.987	21.31
594.408	21.27
594.828	21.24
595.248	21.21
595.669	21.18
596.089	21.14
596.509	21.11
596.929	21.08
597.349	21.04
597.769	21.02
598.189	20.97
598.608	20.95
599.028	20.92
599.448	20.89
599.867	20.85
600.287	20.79
600.706	20.75
601.126	20.71
601.545	20.68
601.965	20.64
602.384	20.59
602.803	20.55
603.222	20.49
603.641	20.44
604.061	20.41
604.48	20.36
604.898	20.32
605.317	20.27
605.736	20.22
606.155	20.14
606.574	20.08
606.992	20.02
607.411	19.96
607.829	19.89
608.248	19.81
608.666	19.73
609.085	19.66
609.503	19.6
609.921	19.53
610.339	19.46
610.758	19.4
611.176	19.32
611.594	19.26
612.012	19.19
612.43	19.14
612.847	19.08
613.265	19.01
613.683	18.95
614.101	18.88
614.518	18.82
614.936	18.76
615.353	18.68
615.771	18.64
616.188	18.58
616.606	18.53
617.023	18.49
617.44	18.43
617.857	18.39
618.274	18.34
618.691	18.29
619.108	18.24
619.525	18.19
619.942	18.16
620.359	18.12
620.776	18.08
621.192	18.04
621.609	18
622.026	17.98
622.442	17.94
622.859	17.93
623.275	17.91
623.691	17.9
624.108	17.89
624.524	17.87
624.94	17.86
625.356	17.86
625.772	17.84
626.188	17.83
626.604	17.81
627.02	17.8
627.436	17.77
627.852	17.75
628.268	17.71
628.683	17.7
629.099	17.69
629.514	17.66
629.93	17.62
630.345	17.59
630.761	17.54
631.176	17.51
631.591	17.46
632.007	17.42
632.422	17.37
632.837	17.32
633.252	17.26
633.667	17.19
634.082	17.11
634.497	17.05
634.911	16.95
635.326	16.86
635.741	16.78
636.155	16.68
636.57	16.58
636.984	16.46
637.399	16.34
637.813	16.2
638.228	16.07
638.642	15.94
639.056	15.79
639.47	15.67
639.884	15.53
640.298	15.38
640.712	15.23
641.126	15.08
641.54	14.92
641.954	14.78
642.368	14.65
642.781	14.51
643.195	14.38
643.609	14.26
644.022	14.13
644.436	14
644.849	13.87
645.262	13.76
645.676	13.66
646.089	13.57
646.502	13.48
646.915	13.39
647.328	13.3
647.741	13.22
648.154	13.15
648.567	13.08
648.98	13.02
649.393	12.97
649.805	12.92
650.218	12.86
650.631	12.81
651.043	12.77
651.456	12.73
651.868	12.69
652.28	12.65
652.693	12.61
653.105	12.55
653.517	12.51
653.929	12.44
654.341	12.38
654.753	12.31
655.165	12.25
655.577	12.17
655.989	12.08
656.401	12
656.813	11.92
657.224	11.82
657.636	11.72
658.047	11.61
658.459	11.5
658.87	11.39
659.282	11.28
659.693	11.16
660.104	11.04
660.515	10.93
660.926	10.81
661.338	10.68
661.749	10.56
662.159	10.46
662.57	10.36
662.981	10.26
663.392	10.16
663.803	10.07
664.213	9.97
664.624	9.87
665.035	9.79
665.445	9.71
665.855	9.64
666.266	9.56
666.676	9.48
667.086	9.41
667.497	9.34
667.907	9.29
668.317	9.25
668.727	9.2
669.137	9.16
669.547	9.12
669.956	9.09
670.366	9.06
670.776	9.05
671.186	9.04
671.595	9.04
672.005	9.02
672.414	9.01
672.824	9.01
673.233	9.01
673.642	9.02
674.052	9.03
674.461	9.04
674.87	9.06
675.279	9.08
675.688	9.11
676.097	9.14
676.506	9.18
676.915	9.22
677.323	9.28
677.732	9.33
678.141	9.4
678.549	9.47
678.958	9.56
679.366	9.66
679.775	9.77
680.183	9.88
680.592	10.03
681	10.19
681.408	10.36
681.816	10.54
682.224	10.75
682.632	10.96
683.04	11.19
683.448	11.45
683.856	11.72
684.264	12.01
684.671	12.34
685.079	12.66
685.487	13.01
685.894	13.39
686.302	13.8
686.709	14.21
687.116	14.64
687.524	15.09
687.931	15.55
688.338	16.03
688.745	16.51
689.152	16.99
689.559	17.5
689.966	18.03
690.373	18.55
690.78	19.06
691.187	19.59
691.593	20.11
692	20.63
692.407	21.15
692.813	21.67
693.22	22.15
693.626	22.66
694.032	23.17
694.439	23.65
694.845	24.12
695.251	24.59
695.657	25.04
696.063	25.48
696.469	25.94
696.875	26.38
697.281	26.81
697.687	27.26
698.093	27.67
698.498	28.04
698.904	28.43
699.31	28.8
699.715	29.15
700.12	29.53
700.526	29.89
700.931	30.22
701.337	30.55
701.742	30.85
702.147	31.16
702.552	31.47
702.957	31.75
703.362	32.03
703.767	32.31
704.172	32.59
704.577	32.84
704.981	33.1
705.386	33.33
705.791	33.57
706.195	33.82
706.6	34.06
707.004	34.27
707.408	34.52
707.813	34.74
708.217	34.94
708.621	35.14
709.025	35.33
709.43	35.51
709.834	35.72
710.237	35.9
710.641	36.07
711.045	36.23
711.449	36.41
711.853	36.6
712.256	36.76
712.66	36.92
713.064	37.09
713.467	37.26
713.87	37.42
714.274	37.57
714.677	37.72
715.08	37.86
715.484	38.02
715.887	38.17
716.29	38.27
716.693	38.4
717.096	38.55
717.499	38.69
717.901	38.81
718.304	38.93
718.707	39.05
719.109	39.17
719.512	39.28
719.915	39.39
720.317	39.44
720.719	39.54
721.122	39.62
721.524	39.72
721.926	39.8
722.328	39.9
722.731	39.98
723.133	40.06
723.535	40.14
723.937	40.24
724.338	40.33
724.74	40.45
725.142	40.57
725.544	40.64
725.945	40.71
726.347	40.76
726.748	40.81
727.15	40.85
727.551	40.91
727.952	40.96
728.354	41
728.755	41.01
729.156	41.04
729.557	41.04
729.958	41.11
730.359	41.16
730.76	41.19
731.161	41.23
731.562	41.31
731.962	41.33
732.363	41.38
732.763	41.41
733.164	41.48
733.564	41.51
733.965	41.55
734.365	41.58
734.766	41.6
735.166	41.64
735.566	41.68
735.966	41.7
736.366	41.73
736.766	41.75
737.166	41.77
737.566	41.79
737.966	41.81
738.365	41.84
738.765	41.87
739.165	41.89
739.564	41.93
739.964	41.94
740.363	41.93
740.763	41.94
741.162	41.97
741.561	41.98
741.96	41.98
742.36	41.99
742.759	42
743.158	41.98
743.557	42
743.955	41.99
744.354	42
744.753	42.05
745.152	42.07
745.55	42.09
745.949	42.11
746.348	42.17
746.746	42.19
747.144	42.21
747.543	42.26
747.941	42.28
748.339	42.28
748.737	42.28
749.136	42.28
749.534	42.28
749.932	42.28
750.33	42.29
750.727	42.28
751.125	42.27
751.523	42.29
751.921	42.28
752.318	42.28
752.716	42.31
753.113	42.3
753.511	42.31
753.908	42.31
754.305	42.34
754.703	42.3
755.1	42.29
755.497	42.28
755.894	42.24
756.291	42.2
756.688	42.16
757.085	42.15
757.482	42.17
757.878	42.15
758.275	42.13
758.672	42.1
759.068	42.12
759.465	42.11
759.861	42.12
760.258	42.14
760.654	42.14
761.05	42.15
761.447	42.15
761.843	42.12
762.239	42.11
762.635	42.12
763.031	42.12
763.427	42.12
763.822	42.13
764.218	42.14
764.614	42.13
765.01	42.12
765.405	42.15
765.801	42.12
766.196	42.12
766.592	42.13
766.987	42.11
767.382	42.09
767.778	42.09
768.173	42.08
768.568	42.08
768.963	42.05
769.358	42.05
769.753	42.03
770.148	42.07
770.542	42.06
770.937	42.08
771.332	42.1
771.726	42.11
772.121	42.09
772.515	42.09
772.91	42.08
773.304	42.11
773.699	42.14
774.093	42.14
774.487	42.12
774.881	42.16
775.275	42.13
775.669	42.12
776.063	42.11
776.457	42.14
776.851	42.13
777.245	42.14
777.638	42.12
778.032	42.12
778.425	42.14
778.819	42.16
779.212	42.14
