Data from N_3_DEC_OH_4N_Splice17_14-22-15-593.txt Node
Date: Sat Mar 07 14:22:15 EST 2020
User: sa697716
Spectrometer: NQ5500242
Trigger mode: 0
Integration Time (sec): 1.450000E-1
Scans to average: 20
Nonlinearity correction enabled: false
Boxcar width: 5
Storing dark spectrum: false
XAxis mode: Wavelengths
Number of Pixels in Spectrum: 512
>>>>>Begin Spectral Data<<<<<
187.83	129.16
188.298	147.32
188.766	138.79
189.233	116.6
189.701	112.27
190.169	126.37
190.636	122.92
191.104	89.82
191.571	168.13
192.039	232.45
192.506	529.36
192.974	60.83
193.441	147.61
193.908	102.54
194.375	91.73
194.842	84.9
195.31	70.29
195.777	-131.44
196.244	46.33
196.711	69.7
197.177	72.06
197.644	71.69
198.111	71.77
198.578	71.74
199.045	72.4
199.511	72.35
199.978	72.51
200.445	73.07
200.911	73.7
201.378	73.85
201.844	73.96
202.31	73.78
202.777	73.74
203.243	73.69
203.709	73.48
204.176	72.64
204.642	72.3
205.108	71.69
205.574	71.09
206.04	70.23
206.506	69.63
206.972	68.78
207.438	68.06
207.903	67.22
208.369	65.59
208.835	64.24
209.301	62.77
209.766	60.83
210.232	59.1
210.697	57.28
211.163	55.56
211.628	54.05
212.094	52.67
212.559	51.25
213.024	49.73
213.49	48.72
213.955	47.43
214.42	46.25
214.885	44.66
215.35	42.86
215.815	40.44
216.28	37.53
216.745	34.17
217.21	30.72
217.675	27.78
218.14	25.27
218.604	22.89
219.069	20.93
219.534	19.29
219.998	18.02
220.463	16.91
220.927	15.91
221.392	15.15
221.856	14.55
222.32	14.02
222.785	13.53
223.249	13.07
223.713	12.7
224.177	12.37
224.642	12.06
225.106	11.75
225.57	11.44
226.034	11.19
226.497	10.94
226.961	10.67
227.425	10.44
227.889	10.23
228.353	10.03
228.816	9.82
229.28	9.63
229.744	9.45
230.207	9.26
230.671	9.11
231.134	8.96
231.597	8.84
232.061	8.71
232.524	8.59
232.987	8.47
233.45	8.36
233.914	8.25
234.377	8.14
234.84	8.04
235.303	7.97
235.766	7.9
236.229	7.82
236.691	7.72
237.154	7.63
237.617	7.55
238.08	7.48
238.542	7.4
239.005	7.34
239.468	7.27
239.93	7.21
240.393	7.16
240.855	7.05
241.317	6.98
241.78	6.92
242.242	6.84
242.704	6.78
243.166	6.72
243.629	6.66
244.091	6.58
244.553	6.52
245.015	6.45
245.477	6.37
245.939	6.34
246.4	6.28
246.862	6.24
247.324	6.19
247.786	6.14
248.247	6.09
248.709	6.03
249.17	5.98
249.632	5.94
250.093	5.91
250.555	5.87
251.016	5.83
251.477	5.78
251.939	5.74
252.4	5.7
252.861	5.66
253.322	5.63
253.783	5.61
254.244	5.59
254.705	5.57
255.166	5.54
255.627	5.5
256.088	5.47
256.549	5.45
257.009	5.42
257.47	5.4
257.931	5.37
258.391	5.32
258.852	5.28
259.312	5.24
259.773	5.2
260.233	5.17
260.694	5.14
261.154	5.1
261.614	5.06
262.074	5.03
262.534	5
262.994	4.97
263.455	4.95
263.915	4.93
264.374	4.91
264.834	4.89
265.294	4.86
265.754	4.85
266.214	4.83
266.673	4.81
267.133	4.8
267.593	4.79
268.052	4.78
268.512	4.77
268.971	4.75
269.431	4.75
269.89	4.74
270.349	4.73
270.809	4.71
271.268	4.7
271.727	4.7
272.186	4.69
272.645	4.68
273.104	4.66
273.563	4.65
274.022	4.64
274.481	4.64
274.94	4.63
275.399	4.62
275.857	4.61
276.316	4.61
276.775	4.6
277.233	4.59
277.692	4.59
278.15	4.59
278.609	4.58
279.067	4.58
279.525	4.57
279.984	4.56
280.442	4.56
280.9	4.56
281.358	4.56
281.816	4.56
282.274	4.56
282.732	4.56
283.19	4.55
283.648	4.55
284.106	4.55
284.564	4.55
285.021	4.54
285.479	4.54
285.937	4.53
286.394	4.53
286.852	4.51
287.309	4.5
287.767	4.49
288.224	4.48
288.682	4.47
289.139	4.44
289.596	4.42
290.053	4.39
290.511	4.38
290.968	4.37
291.425	4.35
291.882	4.33
292.339	4.32
292.796	4.3
293.252	4.29
293.709	4.28
294.166	4.27
294.623	4.27
295.079	4.26
295.536	4.25
295.992	4.24
296.449	4.23
296.905	4.22
297.362	4.21
297.818	4.2
298.274	4.2
298.731	4.18
299.187	4.17
299.643	4.16
300.099	4.15
300.555	4.14
301.011	4.13
301.467	4.13
301.923	4.12
302.379	4.12
302.835	4.12
303.291	4.12
303.746	4.11
304.202	4.12
304.658	4.12
305.113	4.12
305.569	4.12
306.024	4.13
306.479	4.13
306.935	4.13
307.39	4.13
307.845	4.12
308.301	4.12
308.756	4.12
309.211	4.12
309.666	4.13
310.121	4.13
310.576	4.13
311.031	4.12
311.486	4.12
311.94	4.12
312.395	4.12
312.85	4.13
313.305	4.14
313.759	4.14
314.214	4.14
314.668	4.13
315.123	4.13
315.577	4.12
316.032	4.12
316.486	4.12
316.94	4.11
317.394	4.1
317.849	4.08
318.303	4.07
318.757	4.06
319.211	4.04
319.665	4.04
320.119	4.03
320.572	4.02
321.026	4
321.48	3.99
321.934	3.99
322.387	3.98
322.841	3.98
323.295	3.97
323.748	3.97
324.202	3.97
324.655	3.96
325.108	3.96
325.562	3.96
326.015	3.96
326.468	3.97
326.921	3.96
327.374	3.95
327.827	3.95
328.28	3.95
328.733	3.95
329.186	3.95
329.639	3.96
330.092	3.96
330.545	3.96
330.997	3.96
331.45	3.95
331.903	3.96
332.355	3.97
332.808	3.98
333.26	3.99
333.713	3.99
334.165	3.99
334.617	4
335.069	4
335.522	4
335.974	4.01
336.426	4.01
336.878	4.02
337.33	4.01
337.782	4.01
338.234	4.02
338.686	4.02
339.137	4.03
339.589	4.02
340.041	4.02
340.493	4
340.944	3.99
341.396	3.98
341.847	3.97
342.299	3.95
342.75	3.93
343.201	3.91
343.653	3.89
344.104	3.87
344.555	3.87
345.006	3.85
345.457	3.85
345.908	3.84
346.359	3.84
346.81	3.83
347.261	3.83
347.712	3.83
348.163	3.82
348.613	3.82
349.064	3.82
349.515	3.82
349.965	3.82
350.416	3.81
350.866	3.81
351.317	3.8
351.767	3.81
352.217	3.8
352.668	3.8
353.118	3.8
353.568	3.79
354.018	3.79
354.468	3.8
354.918	3.81
355.368	3.81
355.818	3.82
356.268	3.81
356.718	3.82
357.168	3.82
357.617	3.82
358.067	3.82
358.517	3.84
358.966	3.85
359.416	3.85
359.865	3.84
360.315	3.84
360.764	3.85
361.213	3.85
361.663	3.85
362.112	3.85
362.561	3.86
363.01	3.87
363.459	3.86
363.908	3.85
364.357	3.85
364.806	3.85
365.255	3.85
365.703	3.85
366.152	3.86
366.601	3.86
367.05	3.87
367.498	3.86
367.947	3.86
368.395	3.87
368.844	3.87
369.292	3.88
369.74	3.89
370.189	3.9
370.637	3.89
371.085	3.88
371.533	3.88
371.981	3.88
372.429	3.88
372.877	3.89
373.325	3.88
373.773	3.89
374.221	3.88
374.669	3.88
375.116	3.87
375.564	3.87
376.012	3.87
376.459	3.87
376.907	3.88
377.354	3.88
377.801	3.88
378.249	3.88
378.696	3.88
379.143	3.89
379.591	3.89
380.038	3.89
380.485	3.91
380.932	3.91
381.379	3.91
381.826	3.91
382.273	3.91
382.72	3.91
383.166	3.92
383.613	3.91
384.06	3.9
384.506	3.9
384.953	3.91
385.4	3.9
385.846	3.92
386.292	3.92
386.739	3.93
387.185	3.94
387.631	3.95
388.078	3.95
388.524	3.97
388.97	3.98
389.416	3.98
389.862	3.98
390.308	4
390.754	4.01
391.2	4.02
391.645	4.03
392.091	4.06
392.537	4.07
392.983	4.08
393.428	4.1
393.874	4.1
394.319	4.13
394.765	4.14
395.21	4.15
395.655	4.15
396.101	4.17
396.546	4.17
396.991	4.18
397.436	4.18
397.881	4.21
398.326	4.22
398.771	4.24
399.216	4.26
399.661	4.28
400.106	4.3
400.551	4.31
400.995	4.31
401.44	4.33
401.885	4.34
402.329	4.35
402.774	4.36
403.218	4.38
403.663	4.4
404.107	4.42
404.551	4.43
404.995	4.44
405.44	4.45
405.884	4.47
406.328	4.49
406.772	4.49
407.216	4.51
407.66	4.52
408.104	4.51
408.547	4.51
408.991	4.52
409.435	4.51
409.879	4.53
410.322	4.55
410.766	4.57
411.209	4.58
411.653	4.61
412.096	4.62
412.54	4.63
412.983	4.64
413.426	4.68
413.869	4.69
414.312	4.73
414.756	4.76
415.199	4.76
415.642	4.77
416.085	4.79
416.527	4.78
416.97	4.78
417.413	4.8
417.856	4.82
418.298	4.81
418.741	4.8
419.184	4.79
419.626	4.78
420.069	4.79
420.511	4.79
420.953	4.8
421.396	4.82
421.838	4.83
422.28	4.84
422.722	4.86
423.164	4.87
423.606	4.89
424.048	4.91
424.49	4.92
424.932	4.91
425.374	4.91
425.816	4.88
426.258	4.86
426.699	4.85
427.141	4.85
427.582	4.85
428.024	4.87
428.465	4.88
428.907	4.88
429.348	4.87
429.789	4.89
430.231	4.91
430.672	4.94
431.113	4.97
431.554	4.99
431.995	5.01
432.436	5.01
432.877	5.02
433.318	5.03
433.759	5.05
434.2	5.09
434.64	5.11
435.081	5.12
435.522	5.16
435.962	5.18
436.403	5.21
436.843	5.22
437.284	5.23
437.724	5.24
438.164	5.25
438.604	5.26
439.045	5.26
439.485	5.26
439.925	5.26
440.365	5.26
440.805	5.25
441.245	5.26
441.685	5.27
442.125	5.3
442.564	5.31
443.004	5.31
443.444	5.32
443.883	5.33
444.323	5.34
444.762	5.34
445.202	5.33
445.641	5.35
446.081	5.36
446.52	5.36
446.959	5.37
447.398	5.39
447.837	5.4
448.276	5.4
448.716	5.41
449.154	5.44
449.593	5.46
450.032	5.47
450.471	5.46
450.91	5.44
451.349	5.44
451.787	5.42
452.226	5.39
452.664	5.39
453.103	5.36
453.541	5.34
453.98	5.33
454.418	5.3
454.856	5.27
455.295	5.25
455.733	5.23
456.171	5.22
456.609	5.2
457.047	5.19
457.485	5.16
457.923	5.16
458.361	5.14
458.798	5.13
459.236	5.13
459.674	5.12
460.111	5.14
460.549	5.15
460.987	5.15
461.424	5.16
461.862	5.17
462.299	5.18
462.736	5.19
463.173	5.2
463.611	5.2
464.048	5.21
464.485	5.21
464.922	5.2
465.359	5.2
465.796	5.21
466.233	5.21
466.67	5.21
467.106	5.23
467.543	5.22
467.98	5.22
468.416	5.22
468.853	5.23
469.29	5.24
469.726	5.25
470.162	5.25
470.599	5.24
471.035	5.24
471.471	5.25
471.907	5.25
472.344	5.26
472.78	5.25
473.216	5.24
473.652	5.23
474.088	5.23
474.523	5.24
474.959	5.24
475.395	5.22
475.831	5.21
476.266	5.2
476.702	5.18
477.138	5.17
477.573	5.19
478.008	5.18
478.444	5.16
478.879	5.15
479.314	5.13
479.75	5.13
480.185	5.12
480.62	5.11
481.055	5.1
481.49	5.09
481.925	5.09
482.36	5.07
482.795	5.06
483.229	5.06
483.664	5.06
484.099	5.06
484.534	5.04
484.968	5.04
485.403	5.04
485.837	5.04
486.271	5.05
486.706	5.05
487.14	5.05
487.574	5.07
488.009	5.07
488.443	5.08
488.877	5.08
489.311	5.1
489.745	5.11
490.179	5.13
490.613	5.15
491.046	5.16
491.48	5.18
491.914	5.2
492.348	5.22
492.781	5.25
493.215	5.28
493.648	5.31
494.082	5.34
494.515	5.37
494.948	5.4
495.382	5.43
495.815	5.47
496.248	5.51
496.681	5.56
497.114	5.6
497.547	5.63
497.98	5.68
498.413	5.72
498.846	5.77
499.279	5.82
499.711	5.87
500.144	5.93
500.577	5.99
501.009	6.04
501.442	6.09
501.874	6.16
502.306	6.22
502.739	6.29
503.171	6.36
503.603	6.43
504.036	6.51
504.468	6.58
504.9	6.64
505.332	6.72
505.764	6.81
506.196	6.91
506.627	7
507.059	7.09
507.491	7.18
507.923	7.28
508.354	7.38
508.786	7.49
509.217	7.6
509.649	7.71
510.08	7.82
510.512	7.93
510.943	8.02
511.374	8.13
511.805	8.25
512.237	8.35
512.668	8.47
513.099	8.59
513.53	8.7
513.961	8.84
514.391	8.97
514.822	9.1
515.253	9.22
515.684	9.36
516.114	9.48
516.545	9.61
516.975	9.74
517.406	9.87
517.836	9.99
518.267	10.13
518.697	10.23
519.127	10.36
519.558	10.47
519.988	10.59
520.418	10.71
520.848	10.83
521.278	10.93
521.708	11.14
522.138	11.26
522.567	11.36
522.997	11.46
523.427	11.57
523.857	11.66
524.286	11.75
524.716	11.85
525.145	11.95
525.575	12.03
526.004	12.13
526.433	12.12
526.863	12.21
527.292	12.3
527.721	12.38
528.15	12.46
528.579	12.55
529.008	12.63
529.437	12.69
529.866	12.74
530.295	12.82
530.724	12.89
531.152	12.95
531.581	13.01
532.01	13.07
532.438	13.12
532.867	13.17
533.295	13.21
533.723	13.25
534.152	13.3
534.58	13.36
535.008	13.39
535.436	13.43
535.865	13.46
536.293	13.49
536.721	13.51
537.149	13.55
537.576	13.58
538.004	13.61
538.432	13.64
538.86	13.67
539.287	13.69
539.715	13.73
540.143	13.75
540.57	13.78
540.998	13.79
541.425	13.81
541.852	13.83
542.28	13.86
542.707	13.87
543.134	13.89
543.561	13.92
543.988	13.95
544.415	13.96
544.842	13.98
545.269	14.01
545.696	14.06
546.123	14.09
546.549	14.13
546.976	14.16
547.403	14.2
547.829	14.23
548.256	14.26
548.682	14.28
549.108	14.32
549.535	14.36
549.961	14.39
550.387	14.4
550.813	14.42
551.24	14.42
551.666	14.44
552.092	14.46
552.518	14.48
552.943	14.49
553.369	14.5
553.795	14.49
554.221	14.5
554.646	14.48
555.072	14.49
555.498	14.49
555.923	14.49
556.349	14.48
556.774	14.47
557.199	14.45
557.625	14.44
558.05	14.44
558.475	14.42
558.9	14.4
559.325	14.38
559.75	14.37
560.175	14.35
560.6	14.32
561.025	14.3
561.449	14.27
561.874	14.24
562.299	14.19
562.723	14.15
563.148	14.1
563.572	14.05
563.997	14.01
564.421	13.95
564.846	13.89
565.27	13.84
565.694	13.79
566.118	13.73
566.542	13.68
566.966	13.61
567.39	13.56
567.814	13.5
568.238	13.43
568.662	13.37
569.086	13.31
569.509	13.26
569.933	13.2
570.357	13.15
570.78	13.09
571.204	13.03
571.627	12.99
572.05	12.95
572.474	12.9
572.897	12.86
573.32	12.82
573.743	12.78
574.166	12.74
574.589	12.69
575.012	12.66
575.435	12.63
575.858	12.59
576.281	12.56
576.704	12.52
577.126	12.5
577.549	12.46
577.972	12.44
578.394	12.41
578.817	12.38
579.239	12.37
579.661	12.34
580.084	12.32
580.506	12.31
580.928	12.3
581.35	12.28
581.772	12.26
582.194	12.24
582.616	12.22
583.038	12.2
583.46	12.17
583.882	12.15
584.303	12.11
584.725	12.08
585.147	12.06
585.568	12.03
585.99	12
586.411	11.98
586.833	11.96
587.254	11.93
587.675	11.91
588.096	11.89
588.518	11.88
588.939	11.86
589.36	11.85
589.781	11.83
590.202	11.82
590.623	11.81
591.043	11.8
591.464	11.79
591.885	11.77
592.305	11.76
592.726	11.75
593.147	11.73
593.567	11.71
593.987	11.68
594.408	11.65
594.828	11.63
595.248	11.61
595.669	11.58
596.089	11.56
596.509	11.55
596.929	11.52
597.349	11.5
597.769	11.49
598.189	11.47
598.608	11.47
599.028	11.47
599.448	11.45
599.867	11.44
600.287	11.43
600.706	11.42
601.126	11.41
601.545	11.4
601.965	11.39
602.384	11.37
602.803	11.36
603.222	11.34
603.641	11.33
604.061	11.32
604.48	11.3
604.898	11.27
605.317	11.25
605.736	11.24
606.155	11.22
606.574	11.21
606.992	11.19
607.411	11.17
607.829	11.13
608.248	11.09
608.666	11.06
609.085	11.05
609.503	11.04
609.921	11.03
610.339	11.01
610.758	10.98
611.176	10.96
611.594	10.93
612.012	10.92
612.43	10.91
612.847	10.9
613.265	10.87
613.683	10.86
614.101	10.84
614.518	10.82
614.936	10.78
615.353	10.77
615.771	10.75
616.188	10.74
616.606	10.72
617.023	10.7
617.44	10.7
617.857	10.69
618.274	10.66
618.691	10.63
619.108	10.61
619.525	10.6
619.942	10.59
620.359	10.59
620.776	10.58
621.192	10.57
621.609	10.57
622.026	10.56
622.442	10.55
622.859	10.55
623.275	10.55
623.691	10.56
624.108	10.56
624.524	10.56
624.94	10.56
625.356	10.55
625.772	10.55
626.188	10.55
626.604	10.55
627.02	10.55
627.436	10.55
627.852	10.55
628.268	10.54
628.683	10.53
629.099	10.53
629.514	10.52
629.93	10.51
630.345	10.5
630.761	10.48
631.176	10.46
631.591	10.43
632.007	10.4
632.422	10.37
632.837	10.34
633.252	10.29
633.667	10.25
634.082	10.2
634.497	10.15
634.911	10.08
635.326	10.03
635.741	9.97
636.155	9.91
636.57	9.85
636.984	9.79
637.399	9.72
637.813	9.64
638.228	9.56
638.642	9.47
639.056	9.39
639.47	9.31
639.884	9.23
640.298	9.14
640.712	9.05
641.126	8.97
641.54	8.87
641.954	8.78
642.368	8.7
642.781	8.63
643.195	8.56
643.609	8.5
644.022	8.44
644.436	8.37
644.849	8.31
645.262	8.25
645.676	8.2
646.089	8.16
646.502	8.12
646.915	8.09
647.328	8.06
647.741	8.03
648.154	8
648.567	7.98
648.98	7.96
649.393	7.95
649.805	7.96
650.218	7.94
650.631	7.95
651.043	7.94
651.456	7.93
651.868	7.93
652.28	7.92
652.693	7.92
653.105	7.92
653.517	7.92
653.929	7.92
654.341	7.9
654.753	7.88
655.165	7.86
655.577	7.86
655.989	7.83
656.401	7.82
656.813	7.8
657.224	7.78
657.636	7.74
658.047	7.71
658.459	7.68
658.87	7.65
659.282	7.62
659.693	7.59
660.104	7.54
660.515	7.51
660.926	7.47
661.338	7.43
661.749	7.4
662.159	7.37
662.57	7.35
662.981	7.32
663.392	7.3
663.803	7.28
664.213	7.25
664.624	7.22
665.035	7.2
665.445	7.19
665.855	7.18
666.266	7.16
666.676	7.15
667.086	7.12
667.497	7.11
667.907	7.1
668.317	7.09
668.727	7.08
669.137	7.09
669.547	7.1
669.956	7.1
670.366	7.1
670.776	7.09
671.186	7.09
671.595	7.1
672.005	7.11
672.414	7.13
672.824	7.14
673.233	7.16
673.642	7.18
674.052	7.2
674.461	7.21
674.87	7.24
675.279	7.29
675.688	7.32
676.097	7.37
676.506	7.39
676.915	7.43
677.323	7.48
677.732	7.52
678.141	7.58
678.549	7.62
678.958	7.69
679.366	7.75
679.775	7.81
680.183	7.89
680.592	7.98
681	8.08
681.408	8.19
681.816	8.3
682.224	8.43
682.632	8.54
683.04	8.68
683.448	8.83
683.856	8.99
684.264	9.17
684.671	9.36
685.079	9.54
685.487	9.76
685.894	9.99
686.302	10.24
686.709	10.48
687.116	10.77
687.524	11.05
687.931	11.34
688.338	11.65
688.745	11.97
689.152	12.29
689.559	12.63
689.966	12.98
690.373	13.32
690.78	13.67
691.187	14.03
691.593	14.39
692	14.76
692.407	15.1
692.813	15.47
693.22	15.81
693.626	16.17
694.032	16.54
694.439	16.88
694.845	17.23
695.251	17.56
695.657	17.88
696.063	18.21
696.469	18.53
696.875	18.87
697.281	19.15
697.687	19.48
698.093	19.78
698.498	20.06
698.904	20.35
699.31	20.62
699.715	20.89
700.12	21.18
700.526	21.44
700.931	21.69
701.337	21.94
701.742	22.19
702.147	22.42
702.552	22.65
702.957	22.86
703.362	23.07
703.767	23.28
704.172	23.48
704.577	23.67
704.981	23.88
705.386	24.09
705.791	24.28
706.195	24.46
706.6	24.64
707.004	24.81
707.408	25.01
707.813	25.18
708.217	25.36
708.621	25.54
709.025	25.71
709.43	25.86
709.834	26.02
710.237	26.16
710.641	26.34
711.045	26.48
711.449	26.65
711.853	26.81
712.256	26.96
712.66	27.11
713.064	27.25
713.467	27.37
713.87	27.52
714.274	27.64
714.677	27.78
715.08	27.88
715.484	28.01
715.887	28.16
716.29	28.25
716.693	28.37
717.096	28.51
717.499	28.62
717.901	28.75
718.304	28.86
718.707	28.97
719.109	29.09
719.512	29.2
719.915	29.31
720.317	29.39
720.719	29.48
721.122	29.57
721.524	29.64
721.926	29.72
722.328	29.82
722.731	29.91
723.133	30.01
723.535	30.09
723.937	30.14
724.338	30.21
724.74	30.29
725.142	30.39
725.544	30.46
725.945	30.53
726.347	30.58
726.748	30.65
727.15	30.7
727.551	30.76
727.952	30.82
728.354	30.9
728.755	30.98
729.156	31.03
729.557	31.06
729.958	31.11
730.359	31.17
730.76	31.25
731.161	31.29
731.562	31.33
731.962	31.36
732.363	31.41
732.763	31.43
733.164	31.45
733.564	31.5
733.965	31.55
734.365	31.63
734.766	31.66
735.166	31.69
735.566	31.73
735.966	31.79
736.366	31.83
736.766	31.83
737.166	31.9
737.566	31.93
737.966	31.96
738.365	31.97
738.765	31.98
739.165	32.01
739.564	32.03
739.964	32.04
740.363	32.06
740.763	32.1
741.162	32.15
741.561	32.15
741.96	32.18
742.36	32.21
742.759	32.24
743.158	32.25
743.557	32.27
743.955	32.31
744.354	32.35
744.753	32.39
745.152	32.43
745.55	32.47
745.949	32.5
746.348	32.53
746.746	32.57
747.144	32.6
747.543	32.65
747.941	32.68
748.339	32.71
748.737	32.72
749.136	32.72
749.534	32.71
749.932	32.73
750.33	32.75
750.727	32.77
751.125	32.77
751.523	32.76
751.921	32.75
752.318	32.74
752.716	32.76
753.113	32.76
753.511	32.77
753.908	32.77
754.305	32.77
754.703	32.76
755.1	32.76
755.497	32.76
755.894	32.77
756.291	32.78
756.688	32.79
757.085	32.79
757.482	32.8
757.878	32.8
758.275	32.81
758.672	32.82
759.068	32.83
759.465	32.83
759.861	32.85
760.258	32.87
760.654	32.88
761.05	32.89
761.447	32.91
761.843	32.9
762.239	32.91
762.635	32.92
763.031	32.93
763.427	32.93
763.822	32.94
764.218	32.96
764.614	32.98
765.01	32.98
765.405	32.97
765.801	32.96
766.196	33
766.592	33.02
766.987	33.04
767.382	33.05
767.778	33.08
768.173	33.11
768.568	33.1
768.963	33.11
769.358	33.12
769.753	33.15
770.148	33.17
770.542	33.18
770.937	33.21
771.332	33.21
771.726	33.23
772.121	33.24
772.515	33.27
772.91	33.28
773.304	33.31
773.699	33.33
774.093	33.36
774.487	33.37
774.881	33.39
775.275	33.39
775.669	33.42
776.063	33.43
776.457	33.44
776.851	33.45
777.245	33.43
777.638	33.44
778.032	33.47
778.425	33.51
778.819	33.53
779.212	33.56
779.606	33.58
779.999	33.61
780.392	33.64
780.786	33.66
781.179	33.67
781.572	33.71
781.965	33.73
782.358	33.74
782.751	33.72
