Data from N_3_DIV_PA_2N_Splice17_14-11-04-535.txt Node
Date: Sat Mar 07 14:11:04 EST 2020
User: sa697716
Spectrometer: NQ5500242
Trigger mode: 0
Integration Time (sec): 1.450000E-1
Scans to average: 20
Nonlinearity correction enabled: false
Boxcar width: 5
Storing dark spectrum: false
XAxis mode: Wavelengths
Number of Pixels in Spectrum: 512
>>>>>Begin Spectral Data<<<<<
187.83	114.03
188.298	136.27
188.766	126.42
189.233	102.93
189.701	114.9
190.169	134.07
190.636	174.12
191.104	291.88
191.571	489.01
192.039	531.82
192.506	603.15
192.974	41.52
193.441	138.1
193.908	141.12
194.375	72.56
194.842	71.98
195.31	71.47
195.777	-32.98
196.244	34.14
196.711	53.42
197.177	57.44
197.644	57.49
198.111	57.18
198.578	57.3
199.045	57.34
199.511	57.48
199.978	57.52
200.445	57.9
200.911	58.26
201.378	58.55
201.844	58.51
202.31	58.57
202.777	58.51
203.243	58.31
203.709	58.15
204.176	57.67
204.642	57.48
205.108	57.55
205.574	57.32
206.04	57.11
206.506	56.74
206.972	56.53
207.438	55.89
207.903	55.46
208.369	54.65
208.835	53.96
209.301	53.16
209.766	51.95
210.232	50.81
210.697	49.64
211.163	48.7
211.628	47.78
212.094	46.71
212.559	45.7
213.024	44.83
213.49	44.07
213.955	43.1
214.42	42.48
214.885	41.67
215.35	40.55
215.815	39.15
216.28	37.16
216.745	35.13
217.21	33.05
217.675	31.18
218.14	29.48
218.604	28.01
219.069	26.82
219.534	25.73
219.998	24.86
220.463	24.09
220.927	23.36
221.392	22.79
221.856	22.31
222.32	21.92
222.785	21.55
223.249	21.2
223.713	20.9
224.177	20.59
224.642	20.28
225.106	19.94
225.57	19.63
226.034	19.35
226.497	19.07
226.961	18.81
227.425	18.55
227.889	18.29
228.353	18.02
228.816	17.75
229.28	17.49
229.744	17.25
230.207	17.03
230.671	16.81
231.134	16.61
231.597	16.45
232.061	16.23
232.524	16.04
232.987	15.85
233.45	15.68
233.914	15.48
234.377	15.31
234.84	15.14
235.303	14.99
235.766	14.84
236.229	14.68
236.691	14.5
237.154	14.36
237.617	14.21
238.08	14.08
238.542	13.94
239.005	13.83
239.468	13.69
239.93	13.56
240.393	13.43
240.855	13.29
241.317	13.16
241.78	13.04
242.242	12.9
242.704	12.78
243.166	12.64
243.629	12.52
244.091	12.38
244.553	12.26
245.015	12.15
245.477	12.02
245.939	11.91
246.4	11.8
246.862	11.69
247.324	11.6
247.786	11.49
248.247	11.39
248.709	11.28
249.17	11.19
249.632	11.09
250.093	11
250.555	10.9
251.016	10.82
251.477	10.73
251.939	10.65
252.4	10.56
252.861	10.47
253.322	10.4
253.783	10.33
254.244	10.25
254.705	10.19
255.166	10.13
255.627	10.06
256.088	9.99
256.549	9.93
257.009	9.86
257.47	9.8
257.931	9.73
258.391	9.66
258.852	9.59
259.312	9.53
259.773	9.47
260.233	9.41
260.694	9.35
261.154	9.28
261.614	9.22
262.074	9.16
262.534	9.1
262.994	9.05
263.455	9.01
263.915	8.97
264.374	8.91
264.834	8.87
265.294	8.82
265.754	8.78
266.214	8.75
266.673	8.71
267.133	8.68
267.593	8.65
268.052	8.62
268.512	8.59
268.971	8.55
269.431	8.53
269.89	8.5
270.349	8.47
270.809	8.43
271.268	8.4
271.727	8.37
272.186	8.34
272.645	8.32
273.104	8.28
273.563	8.25
274.022	8.22
274.481	8.19
274.94	8.15
275.399	8.12
275.857	8.1
276.316	8.07
276.775	8.04
277.233	8.01
277.692	7.98
278.15	7.95
278.609	7.92
279.067	7.9
279.525	7.87
279.984	7.84
280.442	7.82
280.9	7.79
281.358	7.77
281.816	7.74
282.274	7.72
282.732	7.7
283.19	7.66
283.648	7.64
284.106	7.61
284.564	7.59
285.021	7.57
285.479	7.55
285.937	7.53
286.394	7.5
286.852	7.47
287.309	7.45
287.767	7.43
288.224	7.41
288.682	7.38
289.139	7.35
289.596	7.31
290.053	7.27
290.511	7.23
290.968	7.2
291.425	7.16
291.882	7.13
292.339	7.1
292.796	7.07
293.252	7.04
293.709	7.01
294.166	6.99
294.623	6.96
295.079	6.93
295.536	6.91
295.992	6.89
296.449	6.86
296.905	6.84
297.362	6.81
297.818	6.78
298.274	6.76
298.731	6.73
299.187	6.7
299.643	6.67
300.099	6.66
300.555	6.63
301.011	6.61
301.467	6.58
301.923	6.56
302.379	6.53
302.835	6.51
303.291	6.5
303.746	6.48
304.202	6.47
304.658	6.46
305.113	6.43
305.569	6.42
306.024	6.4
306.479	6.4
306.935	6.38
307.39	6.38
307.845	6.36
308.301	6.34
308.756	6.32
309.211	6.31
309.666	6.3
310.121	6.28
310.576	6.27
311.031	6.27
311.486	6.25
311.94	6.24
312.395	6.23
312.85	6.22
313.305	6.21
313.759	6.2
314.214	6.19
314.668	6.17
315.123	6.16
315.577	6.15
316.032	6.13
316.486	6.11
316.94	6.1
317.394	6.08
317.849	6.05
318.303	6.03
318.757	6.01
319.211	5.99
319.665	5.96
320.119	5.94
320.572	5.91
321.026	5.89
321.48	5.87
321.934	5.85
322.387	5.83
322.841	5.81
323.295	5.8
323.748	5.77
324.202	5.75
324.655	5.74
325.108	5.73
325.562	5.72
326.015	5.71
326.468	5.7
326.921	5.68
327.374	5.66
327.827	5.64
328.28	5.63
328.733	5.62
329.186	5.62
329.639	5.62
330.092	5.61
330.545	5.61
330.997	5.59
331.45	5.58
331.903	5.58
332.355	5.58
332.808	5.58
333.26	5.58
333.713	5.58
334.165	5.57
334.617	5.56
335.069	5.54
335.522	5.54
335.974	5.55
336.426	5.54
336.878	5.54
337.33	5.52
337.782	5.52
338.234	5.51
338.686	5.5
339.137	5.5
339.589	5.49
340.041	5.49
340.493	5.48
340.944	5.45
341.396	5.43
341.847	5.4
342.299	5.38
342.75	5.36
343.201	5.34
343.653	5.32
344.104	5.29
344.555	5.27
345.006	5.23
345.457	5.2
345.908	5.18
346.359	5.17
346.81	5.16
347.261	5.14
347.712	5.13
348.163	5.11
348.613	5.1
349.064	5.09
349.515	5.09
349.965	5.08
350.416	5.07
350.866	5.06
351.317	5.05
351.767	5.04
352.217	5.03
352.668	5.02
353.118	5.02
353.568	5.01
354.018	5
354.468	5
354.918	5
355.368	5.01
355.818	5
356.268	4.99
356.718	4.99
357.168	4.98
357.617	4.98
358.067	4.97
358.517	4.98
358.966	4.97
359.416	4.96
359.865	4.95
360.315	4.94
360.764	4.94
361.213	4.92
361.663	4.92
362.112	4.91
362.561	4.91
363.01	4.9
363.459	4.88
363.908	4.87
364.357	4.86
364.806	4.86
365.255	4.85
365.703	4.85
366.152	4.85
366.601	4.85
367.05	4.85
367.498	4.84
367.947	4.85
368.395	4.84
368.844	4.84
369.292	4.84
369.74	4.84
370.189	4.83
370.637	4.82
371.085	4.81
371.533	4.79
371.981	4.79
372.429	4.78
372.877	4.77
373.325	4.76
373.773	4.75
374.221	4.74
374.669	4.72
375.116	4.7
375.564	4.69
376.012	4.69
376.459	4.69
376.907	4.68
377.354	4.68
377.801	4.67
378.249	4.67
378.696	4.66
379.143	4.66
379.591	4.66
380.038	4.65
380.485	4.65
380.932	4.64
381.379	4.63
381.826	4.63
382.273	4.62
382.72	4.6
383.166	4.6
383.613	4.59
384.06	4.57
384.506	4.56
384.953	4.56
385.4	4.56
385.846	4.56
386.292	4.56
386.739	4.55
387.185	4.55
387.631	4.57
388.078	4.56
388.524	4.56
388.97	4.57
389.416	4.58
389.862	4.58
390.308	4.59
390.754	4.58
391.2	4.59
391.645	4.6
392.091	4.62
392.537	4.63
392.983	4.64
393.428	4.65
393.874	4.66
394.319	4.67
394.765	4.67
395.21	4.67
395.655	4.68
396.101	4.69
396.546	4.7
396.991	4.71
397.436	4.71
397.881	4.73
398.326	4.75
398.771	4.76
399.216	4.79
399.661	4.82
400.106	4.85
400.551	4.87
400.995	4.87
401.44	4.88
401.885	4.9
402.329	4.92
402.774	4.93
403.218	4.95
403.663	4.97
404.107	4.99
404.551	5
404.995	5.01
405.44	5.02
405.884	5.04
406.328	5.07
406.772	5.08
407.216	5.1
407.66	5.11
408.104	5.12
408.547	5.13
408.991	5.14
409.435	5.15
409.879	5.17
410.322	5.19
410.766	5.22
411.209	5.24
411.653	5.26
412.096	5.28
412.54	5.3
412.983	5.32
413.426	5.35
413.869	5.37
414.312	5.4
414.756	5.44
415.199	5.46
415.642	5.47
416.085	5.49
416.527	5.51
416.97	5.52
417.413	5.53
417.856	5.53
418.298	5.52
418.741	5.54
419.184	5.54
419.626	5.54
420.069	5.55
420.511	5.55
420.953	5.55
421.396	5.56
421.838	5.56
422.28	5.58
422.722	5.61
423.164	5.62
423.606	5.63
424.048	5.64
424.49	5.66
424.932	5.67
425.374	5.68
425.816	5.66
426.258	5.65
426.699	5.64
427.141	5.62
427.582	5.62
428.024	5.63
428.465	5.63
428.907	5.62
429.348	5.6
429.789	5.58
430.231	5.59
430.672	5.63
431.113	5.65
431.554	5.66
431.995	5.69
432.436	5.69
432.877	5.7
433.318	5.72
433.759	5.75
434.2	5.78
434.64	5.8
435.081	5.82
435.522	5.83
435.962	5.85
436.403	5.9
436.843	5.92
437.284	5.93
437.724	5.94
438.164	5.94
438.604	5.94
439.045	5.96
439.485	5.96
439.925	5.97
440.365	5.97
440.805	5.96
441.245	5.96
441.685	5.98
442.125	6
442.564	6.02
443.004	6.03
443.444	6.05
443.883	6.05
444.323	6.05
444.762	6.06
445.202	6.07
445.641	6.11
446.081	6.12
446.52	6.11
446.959	6.15
447.398	6.16
447.837	6.19
448.276	6.19
448.716	6.21
449.154	6.25
449.593	6.27
450.032	6.27
450.471	6.26
450.91	6.25
451.349	6.27
451.787	6.24
452.226	6.24
452.664	6.23
453.103	6.22
453.541	6.21
453.98	6.2
454.418	6.18
454.856	6.17
455.295	6.16
455.733	6.14
456.171	6.12
456.609	6.11
457.047	6.09
457.485	6.06
457.923	6.06
458.361	6.03
458.798	6.02
459.236	6.02
459.674	6.01
460.111	6
460.549	6
460.987	6
461.424	6
461.862	6
462.299	6.02
462.736	6
463.173	6.01
463.611	6.01
464.048	6.01
464.485	6.01
464.922	6.02
465.359	6.03
465.796	6.02
466.233	6.02
466.67	6.02
467.106	6.01
467.543	6.01
467.98	6
468.416	6.01
468.853	6
469.29	5.99
469.726	5.99
470.162	5.98
470.599	5.97
471.035	5.95
471.471	5.95
471.907	5.94
472.344	5.94
472.78	5.95
473.216	5.92
473.652	5.93
474.088	5.91
474.523	5.9
474.959	5.89
475.395	5.87
475.831	5.87
476.266	5.87
476.702	5.86
477.138	5.85
477.573	5.84
478.008	5.85
478.444	5.83
478.879	5.83
479.314	5.82
479.75	5.82
480.185	5.82
480.62	5.82
481.055	5.8
481.49	5.8
481.925	5.79
482.36	5.79
482.795	5.78
483.229	5.77
483.664	5.78
484.099	5.78
484.534	5.77
484.968	5.78
485.403	5.78
485.837	5.79
486.271	5.79
486.706	5.8
487.14	5.81
487.574	5.82
488.009	5.83
488.443	5.83
488.877	5.86
489.311	5.88
489.745	5.9
490.179	5.92
490.613	5.94
491.046	5.96
491.48	5.99
491.914	6.02
492.348	6.05
492.781	6.08
493.215	6.13
493.648	6.16
494.082	6.21
494.515	6.25
494.948	6.31
495.382	6.36
495.815	6.43
496.248	6.49
496.681	6.56
497.114	6.63
497.547	6.69
497.98	6.76
498.413	6.83
498.846	6.91
499.279	6.99
499.711	7.06
500.144	7.15
500.577	7.23
501.009	7.32
501.442	7.42
501.874	7.53
502.306	7.64
502.739	7.76
503.171	7.88
503.603	8
504.036	8.13
504.468	8.27
504.9	8.41
505.332	8.55
505.764	8.7
506.196	8.86
506.627	9.02
507.059	9.19
507.491	9.35
507.923	9.53
508.354	9.72
508.786	9.92
509.217	10.12
509.649	10.32
510.08	10.52
510.512	10.73
510.943	10.94
511.374	11.15
511.805	11.39
512.237	11.61
512.668	11.84
513.099	12.07
513.53	12.3
513.961	12.54
514.391	12.79
514.822	13.03
515.253	13.29
515.684	13.53
516.114	13.78
516.545	14.02
516.975	14.28
517.406	14.53
517.836	14.78
518.267	15.05
518.697	15.28
519.127	15.52
519.558	15.77
519.988	16.01
520.418	16.25
520.848	16.48
521.278	16.72
521.708	16.98
522.138	17.2
522.567	17.42
522.997	17.63
523.427	17.86
523.857	18.08
524.286	18.29
524.716	18.49
525.145	18.68
525.575	18.88
526.004	19.05
526.433	19.2
526.863	19.38
527.292	19.54
527.721	19.7
528.15	19.84
528.579	19.97
529.008	20.1
529.437	20.23
529.866	20.34
530.295	20.48
530.724	20.59
531.152	20.71
531.581	20.81
532.01	20.91
532.438	21
532.867	21.09
533.295	21.17
533.723	21.25
534.152	21.32
534.58	21.41
535.008	21.44
535.436	21.48
535.865	21.52
536.293	21.56
536.721	21.6
537.149	21.65
537.576	21.68
538.004	21.71
538.432	21.75
538.86	21.78
539.287	21.79
539.715	21.84
540.143	21.88
540.57	21.92
540.998	21.93
541.425	21.95
541.852	21.96
542.28	22
542.707	22.03
543.134	22.04
543.561	22.07
543.988	22.08
544.415	22.1
544.842	22.12
545.269	22.15
545.696	22.18
546.123	22.21
546.549	22.24
546.976	22.26
547.403	22.28
547.829	22.31
548.256	22.32
548.682	22.35
549.108	22.38
549.535	22.39
549.961	22.39
550.387	22.41
550.813	22.43
551.24	22.43
551.666	22.42
552.092	22.42
552.518	22.42
552.943	22.4
553.369	22.4
553.795	22.38
554.221	22.36
554.646	22.33
555.072	22.28
555.498	22.24
555.923	22.21
556.349	22.17
556.774	22.12
557.199	22.06
557.625	22.01
558.05	21.95
558.475	21.89
558.9	21.83
559.325	21.78
559.75	21.72
560.175	21.65
560.6	21.56
561.025	21.49
561.449	21.41
561.874	21.33
562.299	21.23
562.723	21.12
563.148	21.01
563.572	20.9
563.997	20.77
564.421	20.64
564.846	20.51
565.27	20.39
565.694	20.26
566.118	20.12
566.542	19.99
566.966	19.84
567.39	19.7
567.814	19.54
568.238	19.39
568.662	19.25
569.086	19.12
569.509	18.98
569.933	18.85
570.357	18.7
570.78	18.56
571.204	18.41
571.627	18.29
572.05	18.18
572.474	18.08
572.897	17.99
573.32	17.87
573.743	17.76
574.166	17.63
574.589	17.52
575.012	17.42
575.435	17.32
575.858	17.24
576.281	17.14
576.704	17.03
577.126	16.93
577.549	16.84
577.972	16.76
578.394	16.67
578.817	16.6
579.239	16.52
579.661	16.45
580.084	16.37
580.506	16.3
580.928	16.23
581.35	16.16
581.772	16.09
582.194	16.02
582.616	15.97
583.038	15.91
583.46	15.84
583.882	15.77
584.303	15.71
584.725	15.66
585.147	15.59
585.568	15.53
585.99	15.48
586.411	15.42
586.833	15.35
587.254	15.29
587.675	15.23
588.096	15.19
588.518	15.14
588.939	15.1
589.36	15.05
589.781	15.03
590.202	15
590.623	14.97
591.043	14.94
591.464	14.91
591.885	14.87
592.305	14.84
592.726	14.83
593.147	14.79
593.567	14.77
593.987	14.74
594.408	14.7
594.828	14.67
595.248	14.65
595.669	14.61
596.089	14.58
596.509	14.56
596.929	14.53
597.349	14.48
597.769	14.46
598.189	14.42
598.608	14.38
599.028	14.34
599.448	14.31
599.867	14.26
600.287	14.23
600.706	14.19
601.126	14.15
601.545	14.11
601.965	14.07
602.384	14.02
602.803	13.97
603.222	13.92
603.641	13.87
604.061	13.81
604.48	13.75
604.898	13.7
605.317	13.64
605.736	13.58
606.155	13.52
606.574	13.45
606.992	13.4
607.411	13.34
607.829	13.25
608.248	13.17
608.666	13.11
609.085	13.05
609.503	12.98
609.921	12.91
610.339	12.84
610.758	12.78
611.176	12.71
611.594	12.64
612.012	12.57
612.43	12.52
612.847	12.47
613.265	12.41
613.683	12.35
614.101	12.29
614.518	12.23
614.936	12.18
615.353	12.1
615.771	12.05
616.188	11.99
616.606	11.94
617.023	11.89
617.44	11.84
617.857	11.79
618.274	11.73
618.691	11.67
619.108	11.63
619.525	11.58
619.942	11.55
620.359	11.51
620.776	11.48
621.192	11.45
621.609	11.42
622.026	11.39
622.442	11.37
622.859	11.35
623.275	11.33
623.691	11.32
624.108	11.3
624.524	11.29
624.94	11.28
625.356	11.26
625.772	11.25
626.188	11.23
626.604	11.23
627.02	11.21
627.436	11.2
627.852	11.19
628.268	11.18
628.683	11.16
629.099	11.15
629.514	11.13
629.93	11.12
630.345	11.1
630.761	11.07
631.176	11.05
631.591	11.02
632.007	10.98
632.422	10.92
632.837	10.87
633.252	10.81
633.667	10.76
634.082	10.69
634.497	10.63
634.911	10.55
635.326	10.49
635.741	10.41
636.155	10.32
636.57	10.24
636.984	10.16
637.399	10.06
637.813	9.97
638.228	9.87
638.642	9.77
639.056	9.67
639.47	9.56
639.884	9.45
640.298	9.33
640.712	9.23
641.126	9.12
641.54	9.02
641.954	8.92
642.368	8.82
642.781	8.72
643.195	8.62
643.609	8.52
644.022	8.44
644.436	8.36
644.849	8.28
645.262	8.2
645.676	8.13
646.089	8.06
646.502	7.99
646.915	7.93
647.328	7.86
647.741	7.81
648.154	7.77
648.567	7.72
648.98	7.67
649.393	7.64
649.805	7.61
650.218	7.58
650.631	7.55
651.043	7.52
651.456	7.5
651.868	7.47
652.28	7.44
652.693	7.41
653.105	7.38
653.517	7.34
653.929	7.3
654.341	7.26
654.753	7.2
655.165	7.15
655.577	7.09
655.989	7.04
656.401	6.98
656.813	6.92
657.224	6.86
657.636	6.79
658.047	6.74
658.459	6.66
658.87	6.59
659.282	6.52
659.693	6.46
660.104	6.39
660.515	6.32
660.926	6.26
661.338	6.18
661.749	6.12
662.159	6.06
662.57	6.01
662.981	5.96
663.392	5.91
663.803	5.86
664.213	5.81
664.624	5.77
665.035	5.72
665.445	5.69
665.855	5.65
666.266	5.62
666.676	5.61
667.086	5.57
667.497	5.55
667.907	5.54
668.317	5.54
668.727	5.52
669.137	5.52
669.547	5.51
669.956	5.51
670.366	5.51
670.776	5.5
671.186	5.5
671.595	5.5
672.005	5.5
672.414	5.49
672.824	5.5
673.233	5.51
673.642	5.52
674.052	5.53
674.461	5.54
674.87	5.55
675.279	5.59
675.688	5.62
676.097	5.64
676.506	5.68
676.915	5.71
677.323	5.75
677.732	5.77
678.141	5.82
678.549	5.86
678.958	5.9
679.366	5.96
679.775	6.01
680.183	6.05
680.592	6.12
681	6.19
681.408	6.26
681.816	6.35
682.224	6.45
682.632	6.55
683.04	6.65
683.448	6.78
683.856	6.91
684.264	7.06
684.671	7.24
685.079	7.42
685.487	7.62
685.894	7.85
686.302	8.09
686.709	8.36
687.116	8.65
687.524	8.97
687.931	9.3
688.338	9.66
688.745	10.04
689.152	10.41
689.559	10.83
689.966	11.26
690.373	11.71
690.78	12.18
691.187	12.64
691.593	13.13
692	13.62
692.407	14.1
692.813	14.59
693.22	15.1
693.626	15.63
694.032	16.14
694.439	16.66
694.845	17.16
695.251	17.67
695.657	18.18
696.063	18.69
696.469	19.19
696.875	19.71
697.281	20.21
697.687	20.71
698.093	21.19
698.498	21.67
698.904	22.14
699.31	22.61
699.715	23.08
700.12	23.54
700.526	24
700.931	24.44
701.337	24.88
701.742	25.3
702.147	25.71
702.552	26.13
702.957	26.52
703.362	26.91
703.767	27.28
704.172	27.65
704.577	28
704.981	28.35
705.386	28.71
705.791	29.05
706.195	29.41
706.6	29.74
707.004	30.05
707.408	30.38
707.813	30.71
708.217	31.04
708.621	31.36
709.025	31.65
709.43	31.95
709.834	32.25
710.237	32.52
710.641	32.8
711.045	33.06
711.449	33.35
711.853	33.62
712.256	33.84
712.66	34.09
713.064	34.33
713.467	34.58
713.87	34.83
714.274	35.06
714.677	35.3
715.08	35.5
715.484	35.73
715.887	35.95
716.29	36.16
716.693	36.39
717.096	36.59
717.499	36.8
717.901	37.03
718.304	37.22
718.707	37.4
719.109	37.6
719.512	37.81
719.915	38.01
720.317	38.19
720.719	38.34
721.122	38.52
721.524	38.68
721.926	38.84
722.328	38.98
722.731	39.14
723.133	39.3
723.535	39.43
723.937	39.56
724.338	39.69
724.74	39.82
725.142	39.99
725.544	40.09
725.945	40.23
726.347	40.35
726.748	40.45
727.15	40.52
727.551	40.65
727.952	40.75
728.354	40.87
728.755	40.95
729.156	41.02
729.557	41.08
729.958	41.18
730.359	41.24
730.76	41.31
731.161	41.4
731.562	41.52
731.962	41.53
732.363	41.6
732.763	41.66
733.164	41.73
733.564	41.78
733.965	41.85
734.365	41.92
734.766	41.97
735.166	42.02
735.566	42.05
735.966	42.11
736.366	42.2
736.766	42.23
737.166	42.27
737.566	42.3
737.966	42.33
738.365	42.38
738.765	42.42
739.165	42.46
739.564	42.5
739.964	42.53
740.363	42.53
740.763	42.53
741.162	42.56
741.561	42.57
741.96	42.61
742.36	42.66
742.759	42.68
743.158	42.68
743.557	42.7
743.955	42.69
744.354	42.72
744.753	42.76
745.152	42.8
745.55	42.83
745.949	42.85
746.348	42.88
746.746	42.9
747.144	42.91
747.543	42.93
747.941	42.96
748.339	42.97
748.737	42.99
749.136	42.99
749.534	42.99
749.932	42.99
750.33	43
750.727	42.99
751.125	43
751.523	43.01
751.921	43.04
752.318	43.03
752.716	43.05
753.113	43.04
753.511	43.04
753.908	43.06
754.305	43.05
754.703	43.03
755.1	43.04
755.497	43.02
755.894	43
756.291	42.99
756.688	42.98
757.085	42.98
757.482	42.97
757.878	42.96
758.275	42.95
758.672	42.97
759.068	43
759.465	42.99
759.861	42.99
760.258	43
760.654	43
761.05	43.01
761.447	43.02
761.843	43.01
762.239	43.02
762.635	43
763.031	43
763.427	42.98
763.822	42.99
764.218	42.99
764.614	42.99
765.01	42.99
765.405	43
765.801	42.99
766.196	43
766.592	43
766.987	43.02
767.382	43.03
767.778	43.03
768.173	43.03
768.568	43.04
768.963	43.02
769.358	43.03
769.753	43
770.148	42.98
770.542	42.98
770.937	43
771.332	43
771.726	42.99
772.121	42.98
772.515	42.98
772.91	42.94
773.304	42.97
773.699	42.94
774.093	42.96
774.487	42.96
774.881	42.96
775.275	42.93
775.669	42.91
776.063	42.88
776.457	42.89
776.851	42.85
777.245	42.85
777.638	42.83
778.032	42.87
778.425	42.87
778.819	42.88
779.212	42.87
779.606	42.89
779.999	42.88
780.392	42.92
780.786	42.92
781.179	42.94
781.572	42.97
781.965	42.99
782.358	42.97
