Data from N_3_DEC_OH_4N_Splice17_14-22-42-114.txt Node
Date: Sat Mar 07 14:22:42 EST 2020
User: sa697716
Spectrometer: NQ5500242
Trigger mode: 0
Integration Time (sec): 1.450000E-1
Scans to average: 20
Nonlinearity correction enabled: false
Boxcar width: 5
Storing dark spectrum: false
XAxis mode: Wavelengths
Number of Pixels in Spectrum: 512
>>>>>Begin Spectral Data<<<<<
187.83	116.31
188.298	123.98
188.766	100.21
189.233	80.17
189.701	82.13
190.169	120.55
190.636	124.02
191.104	111.42
191.571	61.33
192.039	-28.38
192.506	319.91
192.974	201.84
193.441	284.13
193.908	109.61
194.375	35.88
194.842	22.49
195.31	109.7
195.777	90.96
196.244	58.08
196.711	68.59
197.177	69.48
197.644	70.69
198.111	70.07
198.578	70.06
199.045	71.17
199.511	71.74
199.978	72.13
200.445	72.46
200.911	72.77
201.378	73.3
201.844	73.16
202.31	72.95
202.777	73.12
203.243	73.24
203.709	73.07
204.176	72.41
204.642	71.79
205.108	71.21
205.574	70.47
206.04	69.76
206.506	68.87
206.972	68.65
207.438	67.96
207.903	66.77
208.369	65.08
208.835	63.63
209.301	62.05
209.766	60.31
210.232	58.41
210.697	56.64
211.163	55.11
211.628	53.71
212.094	52.02
212.559	50.62
213.024	49.49
213.49	48.38
213.955	47.16
214.42	45.93
214.885	44.28
215.35	42.65
215.815	40.31
216.28	37.27
216.745	33.97
217.21	30.66
217.675	27.59
218.14	24.92
218.604	22.55
219.069	20.58
219.534	18.92
219.998	17.69
220.463	16.52
220.927	15.55
221.392	14.79
221.856	14.17
222.32	13.65
222.785	13.22
223.249	12.74
223.713	12.36
224.177	12.05
224.642	11.73
225.106	11.39
225.57	11.13
226.034	10.91
226.497	10.67
226.961	10.4
227.425	10.18
227.889	9.97
228.353	9.79
228.816	9.59
229.28	9.42
229.744	9.26
230.207	9.1
230.671	8.94
231.134	8.78
231.597	8.65
232.061	8.53
232.524	8.42
232.987	8.29
233.45	8.19
233.914	8.08
234.377	7.96
234.84	7.86
235.303	7.78
235.766	7.69
236.229	7.61
236.691	7.53
237.154	7.44
237.617	7.36
238.08	7.29
238.542	7.21
239.005	7.15
239.468	7.08
239.93	7.02
240.393	6.96
240.855	6.87
241.317	6.8
241.78	6.73
242.242	6.66
242.704	6.6
243.166	6.53
243.629	6.48
244.091	6.41
244.553	6.35
245.015	6.28
245.477	6.22
245.939	6.17
246.4	6.11
246.862	6.06
247.324	6.01
247.786	5.96
248.247	5.9
248.709	5.85
249.17	5.8
249.632	5.76
250.093	5.72
250.555	5.68
251.016	5.65
251.477	5.61
251.939	5.58
252.4	5.55
252.861	5.51
253.322	5.48
253.783	5.45
254.244	5.43
254.705	5.39
255.166	5.36
255.627	5.33
256.088	5.3
256.549	5.28
257.009	5.25
257.47	5.21
257.931	5.18
258.391	5.14
258.852	5.1
259.312	5.07
259.773	5.04
260.233	5.01
260.694	4.97
261.154	4.93
261.614	4.9
262.074	4.86
262.534	4.84
262.994	4.81
263.455	4.78
263.915	4.76
264.374	4.74
264.834	4.72
265.294	4.7
265.754	4.69
266.214	4.67
266.673	4.66
267.133	4.65
267.593	4.63
268.052	4.62
268.512	4.61
268.971	4.61
269.431	4.59
269.89	4.58
270.349	4.58
270.809	4.56
271.268	4.55
271.727	4.54
272.186	4.53
272.645	4.53
273.104	4.52
273.563	4.51
274.022	4.51
274.481	4.5
274.94	4.49
275.399	4.48
275.857	4.47
276.316	4.47
276.775	4.46
277.233	4.45
277.692	4.45
278.15	4.44
278.609	4.43
279.067	4.43
279.525	4.42
279.984	4.41
280.442	4.41
280.9	4.41
281.358	4.41
281.816	4.41
282.274	4.41
282.732	4.4
283.19	4.41
283.648	4.41
284.106	4.4
284.564	4.4
285.021	4.4
285.479	4.4
285.937	4.4
286.394	4.4
286.852	4.39
287.309	4.38
287.767	4.37
288.224	4.36
288.682	4.35
289.139	4.33
289.596	4.32
290.053	4.3
290.511	4.28
290.968	4.26
291.425	4.24
291.882	4.22
292.339	4.21
292.796	4.19
293.252	4.17
293.709	4.16
294.166	4.14
294.623	4.13
295.079	4.12
295.536	4.11
295.992	4.1
296.449	4.09
296.905	4.09
297.362	4.08
297.818	4.07
298.274	4.06
298.731	4.06
299.187	4.04
299.643	4.03
300.099	4.03
300.555	4.02
301.011	4.01
301.467	4.01
301.923	4
302.379	3.99
302.835	3.99
303.291	3.99
303.746	3.99
304.202	4
304.658	3.99
305.113	4
305.569	4
306.024	4
306.479	4
306.935	4.01
307.39	4.01
307.845	4.02
308.301	4.02
308.756	4.02
309.211	4.02
309.666	4.04
310.121	4.04
310.576	4.04
311.031	4.04
311.486	4.05
311.94	4.05
312.395	4.05
312.85	4.05
313.305	4.05
313.759	4.05
314.214	4.05
314.668	4.04
315.123	4.04
315.577	4.03
316.032	4.02
316.486	4.01
316.94	4
317.394	3.99
317.849	3.98
318.303	3.96
318.757	3.94
319.211	3.93
319.665	3.92
320.119	3.91
320.572	3.89
321.026	3.89
321.48	3.89
321.934	3.87
322.387	3.87
322.841	3.86
323.295	3.86
323.748	3.86
324.202	3.85
324.655	3.86
325.108	3.85
325.562	3.85
326.015	3.84
326.468	3.84
326.921	3.84
327.374	3.84
327.827	3.84
328.28	3.85
328.733	3.85
329.186	3.85
329.639	3.86
330.092	3.86
330.545	3.86
330.997	3.86
331.45	3.88
331.903	3.88
332.355	3.89
332.808	3.89
333.26	3.89
333.713	3.89
334.165	3.89
334.617	3.89
335.069	3.89
335.522	3.9
335.974	3.91
336.426	3.91
336.878	3.9
337.33	3.89
337.782	3.9
338.234	3.9
338.686	3.91
339.137	3.92
339.589	3.91
340.041	3.9
340.493	3.89
340.944	3.87
341.396	3.86
341.847	3.85
342.299	3.84
342.75	3.83
343.201	3.82
343.653	3.8
344.104	3.77
344.555	3.76
345.006	3.75
345.457	3.74
345.908	3.74
346.359	3.74
346.81	3.73
347.261	3.73
347.712	3.72
348.163	3.71
348.613	3.72
349.064	3.72
349.515	3.72
349.965	3.72
350.416	3.72
350.866	3.71
351.317	3.7
351.767	3.7
352.217	3.7
352.668	3.7
353.118	3.7
353.568	3.69
354.018	3.7
354.468	3.71
354.918	3.7
355.368	3.72
355.818	3.72
356.268	3.73
356.718	3.73
357.168	3.73
357.617	3.73
358.067	3.74
358.517	3.76
358.966	3.75
359.416	3.75
359.865	3.75
360.315	3.75
360.764	3.76
361.213	3.76
361.663	3.76
362.112	3.77
362.561	3.78
363.01	3.77
363.459	3.76
363.908	3.76
364.357	3.76
364.806	3.76
365.255	3.76
365.703	3.76
366.152	3.77
366.601	3.77
367.05	3.78
367.498	3.76
367.947	3.77
368.395	3.78
368.844	3.79
369.292	3.78
369.74	3.79
370.189	3.8
370.637	3.79
371.085	3.78
371.533	3.78
371.981	3.77
372.429	3.77
372.877	3.77
373.325	3.76
373.773	3.76
374.221	3.76
374.669	3.76
375.116	3.74
375.564	3.75
376.012	3.75
376.459	3.75
376.907	3.76
377.354	3.78
377.801	3.79
378.249	3.8
378.696	3.8
379.143	3.8
379.591	3.81
380.038	3.82
380.485	3.82
380.932	3.83
381.379	3.83
381.826	3.82
382.273	3.82
382.72	3.81
383.166	3.81
383.613	3.81
384.06	3.81
384.506	3.8
384.953	3.81
385.4	3.82
385.846	3.83
386.292	3.83
386.739	3.83
387.185	3.83
387.631	3.85
388.078	3.86
388.524	3.85
388.97	3.86
389.416	3.87
389.862	3.88
390.308	3.89
390.754	3.91
391.2	3.92
391.645	3.94
392.091	3.96
392.537	3.97
392.983	3.99
393.428	4.01
393.874	4.02
394.319	4.04
394.765	4.05
395.21	4.05
395.655	4.06
396.101	4.07
396.546	4.08
396.991	4.1
397.436	4.11
397.881	4.13
398.326	4.15
398.771	4.17
399.216	4.19
399.661	4.22
400.106	4.25
400.551	4.27
400.995	4.27
401.44	4.3
401.885	4.3
402.329	4.32
402.774	4.33
403.218	4.34
403.663	4.38
404.107	4.39
404.551	4.39
404.995	4.4
405.44	4.41
405.884	4.42
406.328	4.44
406.772	4.45
407.216	4.46
407.66	4.48
408.104	4.49
408.547	4.48
408.991	4.49
409.435	4.51
409.879	4.52
410.322	4.54
410.766	4.56
411.209	4.58
411.653	4.6
412.096	4.61
412.54	4.62
412.983	4.64
413.426	4.67
413.869	4.69
414.312	4.72
414.756	4.74
415.199	4.76
415.642	4.77
416.085	4.78
416.527	4.79
416.97	4.79
417.413	4.79
417.856	4.8
418.298	4.8
418.741	4.8
419.184	4.79
419.626	4.8
420.069	4.81
420.511	4.81
420.953	4.81
421.396	4.82
421.838	4.83
422.28	4.85
422.722	4.87
423.164	4.87
423.606	4.89
424.048	4.9
424.49	4.91
424.932	4.92
425.374	4.91
425.816	4.89
426.258	4.88
426.699	4.87
427.141	4.87
427.582	4.87
428.024	4.88
428.465	4.89
428.907	4.88
429.348	4.87
429.789	4.86
430.231	4.88
430.672	4.91
431.113	4.93
431.554	4.95
431.995	4.98
432.436	4.98
432.877	4.99
433.318	5
433.759	5.02
434.2	5.06
434.64	5.08
435.081	5.09
435.522	5.11
435.962	5.14
436.403	5.17
436.843	5.18
437.284	5.18
437.724	5.19
438.164	5.21
438.604	5.23
439.045	5.23
439.485	5.24
439.925	5.23
440.365	5.23
440.805	5.22
441.245	5.24
441.685	5.24
442.125	5.28
442.564	5.28
443.004	5.28
443.444	5.28
443.883	5.3
444.323	5.3
444.762	5.32
445.202	5.33
445.641	5.35
446.081	5.35
446.52	5.35
446.959	5.36
447.398	5.37
447.837	5.38
448.276	5.38
448.716	5.37
449.154	5.39
449.593	5.4
450.032	5.39
450.471	5.38
450.91	5.36
451.349	5.37
451.787	5.36
452.226	5.35
452.664	5.34
453.103	5.32
453.541	5.31
453.98	5.32
454.418	5.3
454.856	5.29
455.295	5.26
455.733	5.23
456.171	5.21
456.609	5.19
457.047	5.17
457.485	5.16
457.923	5.16
458.361	5.14
458.798	5.13
459.236	5.12
459.674	5.11
460.111	5.11
460.549	5.12
460.987	5.13
461.424	5.15
461.862	5.15
462.299	5.15
462.736	5.15
463.173	5.15
463.611	5.16
464.048	5.17
464.485	5.18
464.922	5.19
465.359	5.19
465.796	5.19
466.233	5.2
466.67	5.21
467.106	5.22
467.543	5.22
467.98	5.22
468.416	5.22
468.853	5.23
469.29	5.23
469.726	5.24
470.162	5.23
470.599	5.23
471.035	5.22
471.471	5.22
471.907	5.21
472.344	5.21
472.78	5.22
473.216	5.21
473.652	5.21
474.088	5.2
474.523	5.2
474.959	5.2
475.395	5.18
475.831	5.17
476.266	5.17
476.702	5.16
477.138	5.14
477.573	5.13
478.008	5.13
478.444	5.1
478.879	5.11
479.314	5.1
479.75	5.09
480.185	5.07
480.62	5.06
481.055	5.05
481.49	5.04
481.925	5.04
482.36	5.03
482.795	5.01
483.229	5.01
483.664	5
484.099	5
484.534	4.99
484.968	5
485.403	5
485.837	5.01
486.271	5.01
486.706	5.01
487.14	5.02
487.574	5.03
488.009	5.04
488.443	5.05
488.877	5.07
489.311	5.08
489.745	5.1
490.179	5.12
490.613	5.14
491.046	5.16
491.48	5.19
491.914	5.21
492.348	5.23
492.781	5.26
493.215	5.29
493.648	5.32
494.082	5.35
494.515	5.38
494.948	5.41
495.382	5.45
495.815	5.49
496.248	5.53
496.681	5.57
497.114	5.61
497.547	5.65
497.98	5.7
498.413	5.74
498.846	5.79
499.279	5.84
499.711	5.89
500.144	5.95
500.577	6.01
501.009	6.07
501.442	6.13
501.874	6.2
502.306	6.27
502.739	6.35
503.171	6.43
503.603	6.5
504.036	6.59
504.468	6.66
504.9	6.74
505.332	6.83
505.764	6.92
506.196	7.02
506.627	7.11
507.059	7.2
507.491	7.29
507.923	7.41
508.354	7.52
508.786	7.63
509.217	7.76
509.649	7.87
510.08	7.99
510.512	8.11
510.943	8.24
511.374	8.36
511.805	8.49
512.237	8.62
512.668	8.75
513.099	8.87
513.53	9
513.961	9.13
514.391	9.27
514.822	9.4
515.253	9.53
515.684	9.66
516.114	9.8
516.545	9.94
516.975	10.07
517.406	10.2
517.836	10.33
518.267	10.46
518.697	10.58
519.127	10.69
519.558	10.83
519.988	10.96
520.418	11.08
520.848	11.2
521.278	11.32
521.708	11.54
522.138	11.67
522.567	11.78
522.997	11.89
523.427	12.01
523.857	12.14
524.286	12.23
524.716	12.34
525.145	12.44
525.575	12.53
526.004	12.62
526.433	12.62
526.863	12.7
527.292	12.78
527.721	12.87
528.15	12.94
528.579	13.02
529.008	13.1
529.437	13.17
529.866	13.24
530.295	13.32
530.724	13.37
531.152	13.44
531.581	13.5
532.01	13.56
532.438	13.62
532.867	13.69
533.295	13.74
533.723	13.78
534.152	13.82
534.58	13.86
535.008	13.89
535.436	13.94
535.865	13.96
536.293	14
536.721	14.03
537.149	14.05
537.576	14.06
538.004	14.09
538.432	14.11
538.86	14.15
539.287	14.16
539.715	14.19
540.143	14.22
540.57	14.25
540.998	14.28
541.425	14.28
541.852	14.31
542.28	14.35
542.707	14.37
543.134	14.4
543.561	14.43
543.988	14.46
544.415	14.49
544.842	14.5
545.269	14.53
545.696	14.54
546.123	14.57
546.549	14.59
546.976	14.61
547.403	14.64
547.829	14.67
548.256	14.68
548.682	14.71
549.108	14.74
549.535	14.78
549.961	14.81
550.387	14.83
550.813	14.86
551.24	14.88
551.666	14.89
552.092	14.9
552.518	14.92
552.943	14.92
553.369	14.92
553.795	14.92
554.221	14.92
554.646	14.91
555.072	14.91
555.498	14.91
555.923	14.91
556.349	14.89
556.774	14.88
557.199	14.87
557.625	14.86
558.05	14.85
558.475	14.84
558.9	14.8
559.325	14.8
559.75	14.77
560.175	14.74
560.6	14.69
561.025	14.67
561.449	14.63
561.874	14.58
562.299	14.53
562.723	14.49
563.148	14.44
563.572	14.39
563.997	14.33
564.421	14.26
564.846	14.21
565.27	14.16
565.694	14.09
566.118	14.03
566.542	13.97
566.966	13.9
567.39	13.83
567.814	13.74
568.238	13.67
568.662	13.59
569.086	13.53
569.509	13.46
569.933	13.39
570.357	13.33
570.78	13.26
571.204	13.21
571.627	13.15
572.05	13.1
572.474	13.07
572.897	13.03
573.32	12.99
573.743	12.95
574.166	12.91
574.589	12.86
575.012	12.82
575.435	12.78
575.858	12.74
576.281	12.7
576.704	12.67
577.126	12.65
577.549	12.6
577.972	12.58
578.394	12.54
578.817	12.51
579.239	12.49
579.661	12.47
580.084	12.43
580.506	12.41
580.928	12.39
581.35	12.37
581.772	12.33
582.194	12.3
582.616	12.27
583.038	12.25
583.46	12.22
583.882	12.19
584.303	12.16
584.725	12.15
585.147	12.13
585.568	12.1
585.99	12.06
586.411	12.04
586.833	12.02
587.254	11.99
587.675	11.96
588.096	11.94
588.518	11.92
588.939	11.91
589.36	11.89
589.781	11.86
590.202	11.84
590.623	11.83
591.043	11.81
591.464	11.79
591.885	11.77
592.305	11.75
592.726	11.75
593.147	11.72
593.567	11.69
593.987	11.67
594.408	11.65
594.828	11.63
595.248	11.62
595.669	11.61
596.089	11.59
596.509	11.58
596.929	11.56
597.349	11.53
597.769	11.53
598.189	11.51
598.608	11.5
599.028	11.49
599.448	11.47
599.867	11.45
600.287	11.44
600.706	11.43
601.126	11.41
601.545	11.4
601.965	11.38
602.384	11.36
602.803	11.34
603.222	11.31
603.641	11.29
604.061	11.28
604.48	11.26
604.898	11.23
605.317	11.21
605.736	11.19
606.155	11.16
606.574	11.15
606.992	11.12
607.411	11.11
607.829	11.07
608.248	11.04
608.666	11.02
609.085	10.99
609.503	10.98
609.921	10.95
610.339	10.93
610.758	10.91
611.176	10.88
611.594	10.87
612.012	10.83
612.43	10.83
612.847	10.8
613.265	10.76
613.683	10.74
614.101	10.71
614.518	10.67
614.936	10.64
615.353	10.61
615.771	10.59
616.188	10.56
616.606	10.55
617.023	10.52
617.44	10.52
617.857	10.5
618.274	10.48
618.691	10.46
619.108	10.45
619.525	10.44
619.942	10.42
620.359	10.41
620.776	10.39
621.192	10.37
621.609	10.37
622.026	10.36
622.442	10.36
622.859	10.35
623.275	10.33
623.691	10.33
624.108	10.33
624.524	10.34
624.94	10.34
625.356	10.34
625.772	10.34
626.188	10.34
626.604	10.33
627.02	10.34
627.436	10.35
627.852	10.35
628.268	10.34
628.683	10.34
629.099	10.33
629.514	10.33
629.93	10.33
630.345	10.31
630.761	10.3
631.176	10.28
631.591	10.24
632.007	10.21
632.422	10.19
632.837	10.15
633.252	10.11
633.667	10.07
634.082	10.01
634.497	9.95
634.911	9.9
635.326	9.84
635.741	9.78
636.155	9.71
636.57	9.65
636.984	9.57
637.399	9.49
637.813	9.41
638.228	9.32
638.642	9.24
639.056	9.16
639.47	9.08
639.884	9
640.298	8.92
640.712	8.83
641.126	8.75
641.54	8.66
641.954	8.59
642.368	8.51
642.781	8.43
643.195	8.35
643.609	8.28
644.022	8.19
644.436	8.14
644.849	8.07
645.262	8.01
645.676	7.97
646.089	7.93
646.502	7.88
646.915	7.85
647.328	7.81
647.741	7.79
648.154	7.77
648.567	7.76
648.98	7.73
649.393	7.72
649.805	7.71
650.218	7.68
650.631	7.67
651.043	7.67
651.456	7.66
651.868	7.65
652.28	7.64
652.693	7.62
653.105	7.62
653.517	7.61
653.929	7.61
654.341	7.6
654.753	7.6
655.165	7.58
655.577	7.56
655.989	7.54
656.401	7.53
656.813	7.51
657.224	7.49
657.636	7.45
658.047	7.43
658.459	7.39
658.87	7.36
659.282	7.31
659.693	7.29
660.104	7.25
660.515	7.21
660.926	7.17
661.338	7.15
661.749	7.11
662.159	7.08
662.57	7.05
662.981	7.02
663.392	6.99
663.803	6.97
664.213	6.94
664.624	6.92
665.035	6.89
665.445	6.89
665.855	6.86
666.266	6.84
666.676	6.83
667.086	6.81
667.497	6.8
667.907	6.79
668.317	6.79
668.727	6.78
669.137	6.78
669.547	6.8
669.956	6.79
670.366	6.8
670.776	6.8
671.186	6.81
671.595	6.83
672.005	6.84
672.414	6.86
672.824	6.87
673.233	6.9
673.642	6.92
674.052	6.94
674.461	6.97
674.87	7
675.279	7.04
675.688	7.08
676.097	7.11
676.506	7.15
676.915	7.18
677.323	7.22
677.732	7.26
678.141	7.3
678.549	7.36
678.958	7.41
679.366	7.47
679.775	7.53
680.183	7.6
680.592	7.68
681	7.78
681.408	7.88
681.816	7.99
682.224	8.11
682.632	8.23
683.04	8.37
683.448	8.52
683.856	8.67
684.264	8.85
684.671	9.03
685.079	9.22
685.487	9.42
685.894	9.65
686.302	9.88
686.709	10.12
687.116	10.39
687.524	10.66
687.931	10.95
688.338	11.26
688.745	11.57
689.152	11.88
689.559	12.22
689.966	12.57
690.373	12.91
690.78	13.26
691.187	13.61
691.593	13.97
692	14.32
692.407	14.67
692.813	15.01
693.22	15.36
693.626	15.71
694.032	16.05
694.439	16.38
694.845	16.73
695.251	17.08
695.657	17.41
696.063	17.74
696.469	18.07
696.875	18.4
697.281	18.73
697.687	19.05
698.093	19.35
698.498	19.66
698.904	19.95
699.31	20.24
699.715	20.5
700.12	20.78
700.526	21.04
700.931	21.29
701.337	21.54
701.742	21.78
702.147	22.01
702.552	22.24
702.957	22.45
703.362	22.65
703.767	22.85
704.172	23.06
704.577	23.26
704.981	23.46
705.386	23.65
705.791	23.83
706.195	24.01
706.6	24.22
707.004	24.39
707.408	24.59
707.813	24.78
708.217	24.96
708.621	25.14
709.025	25.29
709.43	25.45
709.834	25.62
710.237	25.77
710.641	25.93
711.045	26.06
711.449	26.23
711.853	26.36
712.256	26.5
712.66	26.65
713.064	26.79
713.467	26.93
713.87	27.08
714.274	27.2
714.677	27.33
715.08	27.45
715.484	27.58
715.887	27.71
716.29	27.82
716.693	27.97
717.096	28.08
717.499	28.2
717.901	28.33
718.304	28.44
718.707	28.56
719.109	28.66
719.512	28.78
719.915	28.88
720.317	28.95
720.719	29.03
721.122	29.11
721.524	29.18
721.926	29.27
722.328	29.32
722.731	29.41
723.133	29.5
723.535	29.58
723.937	29.65
724.338	29.71
724.74	29.8
725.142	29.91
725.544	29.97
725.945	30.06
726.347	30.1
726.748	30.15
727.15	30.2
727.551	30.24
727.952	30.31
728.354	30.38
728.755	30.44
729.156	30.5
729.557	30.51
729.958	30.57
730.359	30.61
730.76	30.68
731.161	30.76
731.562	30.82
731.962	30.84
732.363	30.88
732.763	30.91
733.164	30.94
733.564	30.97
733.965	31.02
734.365	31.07
734.766	31.12
735.166	31.14
735.566	31.16
735.966	31.21
736.366	31.25
736.766	31.27
737.166	31.33
737.566	31.36
737.966	31.4
738.365	31.42
738.765	31.43
739.165	31.44
739.564	31.47
739.964	31.49
740.363	31.5
740.763	31.52
741.162	31.55
741.561	31.53
741.96	31.54
742.36	31.57
742.759	31.6
743.158	31.61
743.557	31.64
743.955	31.67
744.354	31.68
744.753	31.71
745.152	31.76
745.55	31.8
745.949	31.84
746.348	31.89
746.746	31.9
747.144	31.93
747.543	31.95
747.941	31.98
748.339	32
748.737	32.04
749.136	32.05
749.534	32.05
749.932	32.08
750.33	32.09
750.727	32.07
751.125	32.08
751.523	32.07
751.921	32.08
752.318	32.08
752.716	32.09
753.113	32.06
753.511	32.08
753.908	32.08
754.305	32.06
754.703	32.06
755.1	32.05
755.497	32.05
755.894	32.04
756.291	32.05
756.688	32.02
757.085	32.02
757.482	32.04
757.878	32.03
758.275	32.01
758.672	32.02
759.068	32.04
759.465	32.05
759.861	32.07
760.258	32.08
760.654	32.09
761.05	32.11
761.447	32.12
761.843	32.1
762.239	32.11
762.635	32.13
763.031	32.14
763.427	32.12
763.822	32.14
764.218	32.16
764.614	32.18
765.01	32.16
765.405	32.17
765.801	32.17
766.196	32.2
766.592	32.2
766.987	32.21
767.382	32.21
767.778	32.23
768.173	32.24
768.568	32.22
768.963	32.23
769.358	32.3
769.753	32.31
770.148	32.32
770.542	32.32
770.937	32.35
771.332	32.37
771.726	32.37
772.121	32.38
772.515	32.41
772.91	32.41
773.304	32.44
773.699	32.43
774.093	32.43
774.487	32.45
774.881	32.47
775.275	32.46
775.669	32.46
776.063	32.47
776.457	32.5
776.851	32.48
777.245	32.51
777.638	32.48
778.032	32.5
778.425	32.53
778.819	32.54
779.212	32.54
779.606	32.58
779.999	32.6
780.392	32.64
780.786	32.65
781.179	32.68
781.572	32.71
781.965	32.76
782.358	32.75
782.751	32.77
783.143	32.8
783.536	32.82
