Data from N_3_HIR_IL_4N_Splice17_14-28-56-307.txt Node
Date: Sat Mar 07 14:28:56 EST 2020
User: sa697716
Spectrometer: NQ5500242
Trigger mode: 0
Integration Time (sec): 1.450000E-1
Scans to average: 20
Nonlinearity correction enabled: false
Boxcar width: 5
Storing dark spectrum: false
XAxis mode: Wavelengths
Number of Pixels in Spectrum: 512
>>>>>Begin Spectral Data<<<<<
187.83	91.57
188.298	104.53
188.766	68.65
189.233	50.44
189.701	55.59
190.169	72
190.636	57.89
191.104	54.62
191.571	61.09
192.039	117.99
192.506	158.01
192.974	39.67
193.441	117.56
193.908	29.1
194.375	-14.52
194.842	-37.63
195.31	-6.27
195.777	-120.73
196.244	39.73
196.711	48.33
197.177	51.06
197.644	50.12
198.111	49.86
198.578	49.88
199.045	49.68
199.511	50.09
199.978	50.41
200.445	50.49
200.911	50.25
201.378	50.28
201.844	50.2
202.31	49.73
202.777	49.76
203.243	49.74
203.709	49.34
204.176	49.16
204.642	48.54
205.108	48.03
205.574	47.65
206.04	47.32
206.506	46.88
206.972	46.35
207.438	46.02
207.903	45.53
208.369	44.55
208.835	43.66
209.301	42.55
209.766	41.51
210.232	40.57
210.697	39.42
211.163	38.5
211.628	37.43
212.094	36.47
212.559	35.45
213.024	34.57
213.49	33.94
213.955	33.22
214.42	32.57
214.885	31.77
215.35	30.53
215.815	29.01
216.28	26.99
216.745	24.91
217.21	22.96
217.675	21.06
218.14	19.24
218.604	17.67
219.069	16.42
219.534	15.38
219.998	14.44
220.463	13.72
220.927	13.05
221.392	12.58
221.856	12.19
222.32	11.81
222.785	11.5
223.249	11.25
223.713	10.99
224.177	10.79
224.642	10.57
225.106	10.36
225.57	10.15
226.034	10
226.497	9.8
226.961	9.63
227.425	9.47
227.889	9.31
228.353	9.17
228.816	9.03
229.28	8.88
229.744	8.73
230.207	8.61
230.671	8.49
231.134	8.38
231.597	8.28
232.061	8.18
232.524	8.08
232.987	7.97
233.45	7.88
233.914	7.79
234.377	7.7
234.84	7.62
235.303	7.56
235.766	7.48
236.229	7.4
236.691	7.32
237.154	7.25
237.617	7.19
238.08	7.13
238.542	7.06
239.005	7
239.468	6.94
239.93	6.87
240.393	6.81
240.855	6.75
241.317	6.69
241.78	6.63
242.242	6.55
242.704	6.49
243.166	6.43
243.629	6.38
244.091	6.31
244.553	6.25
245.015	6.2
245.477	6.14
245.939	6.08
246.4	6.03
246.862	5.98
247.324	5.94
247.786	5.88
248.247	5.83
248.709	5.76
249.17	5.71
249.632	5.67
250.093	5.62
250.555	5.57
251.016	5.53
251.477	5.48
251.939	5.44
252.4	5.41
252.861	5.36
253.322	5.32
253.783	5.29
254.244	5.26
254.705	5.22
255.166	5.19
255.627	5.16
256.088	5.13
256.549	5.11
257.009	5.07
257.47	5.03
257.931	5
258.391	4.96
258.852	4.93
259.312	4.89
259.773	4.86
260.233	4.82
260.694	4.78
261.154	4.74
261.614	4.71
262.074	4.67
262.534	4.63
262.994	4.61
263.455	4.58
263.915	4.56
264.374	4.53
264.834	4.51
265.294	4.49
265.754	4.47
266.214	4.45
266.673	4.43
267.133	4.42
267.593	4.41
268.052	4.39
268.512	4.38
268.971	4.36
269.431	4.35
269.89	4.33
270.349	4.32
270.809	4.3
271.268	4.29
271.727	4.27
272.186	4.26
272.645	4.24
273.104	4.23
273.563	4.21
274.022	4.2
274.481	4.19
274.94	4.19
275.399	4.17
275.857	4.17
276.316	4.15
276.775	4.14
277.233	4.13
277.692	4.12
278.15	4.11
278.609	4.1
279.067	4.09
279.525	4.08
279.984	4.07
280.442	4.06
280.9	4.05
281.358	4.04
281.816	4.03
282.274	4.03
282.732	4.02
283.19	4.01
283.648	4
284.106	3.99
284.564	3.99
285.021	3.99
285.479	3.97
285.937	3.97
286.394	3.97
286.852	3.96
287.309	3.95
287.767	3.93
288.224	3.92
288.682	3.91
289.139	3.89
289.596	3.88
290.053	3.86
290.511	3.84
290.968	3.82
291.425	3.79
291.882	3.78
292.339	3.76
292.796	3.75
293.252	3.73
293.709	3.72
294.166	3.71
294.623	3.69
295.079	3.68
295.536	3.67
295.992	3.66
296.449	3.65
296.905	3.64
297.362	3.63
297.818	3.62
298.274	3.62
298.731	3.61
299.187	3.6
299.643	3.59
300.099	3.59
300.555	3.58
301.011	3.57
301.467	3.56
301.923	3.55
302.379	3.55
302.835	3.55
303.291	3.54
303.746	3.54
304.202	3.53
304.658	3.53
305.113	3.52
305.569	3.53
306.024	3.52
306.479	3.52
306.935	3.51
307.39	3.52
307.845	3.52
308.301	3.52
308.756	3.52
309.211	3.52
309.666	3.52
310.121	3.52
310.576	3.52
311.031	3.52
311.486	3.52
311.94	3.53
312.395	3.52
312.85	3.51
313.305	3.51
313.759	3.51
314.214	3.51
314.668	3.5
315.123	3.5
315.577	3.49
316.032	3.5
316.486	3.49
316.94	3.49
317.394	3.49
317.849	3.49
318.303	3.48
318.757	3.46
319.211	3.45
319.665	3.45
320.119	3.44
320.572	3.43
321.026	3.41
321.48	3.4
321.934	3.39
322.387	3.38
322.841	3.37
323.295	3.37
323.748	3.37
324.202	3.37
324.655	3.36
325.108	3.36
325.562	3.36
326.015	3.36
326.468	3.36
326.921	3.36
327.374	3.36
327.827	3.36
328.28	3.36
328.733	3.37
329.186	3.37
329.639	3.37
330.092	3.37
330.545	3.37
330.997	3.37
331.45	3.37
331.903	3.38
332.355	3.38
332.808	3.38
333.26	3.37
333.713	3.37
334.165	3.36
334.617	3.37
335.069	3.37
335.522	3.38
335.974	3.39
336.426	3.39
336.878	3.38
337.33	3.38
337.782	3.39
338.234	3.39
338.686	3.4
339.137	3.41
339.589	3.4
340.041	3.4
340.493	3.39
340.944	3.37
341.396	3.36
341.847	3.36
342.299	3.34
342.75	3.33
343.201	3.32
343.653	3.31
344.104	3.29
344.555	3.28
345.006	3.27
345.457	3.26
345.908	3.25
346.359	3.25
346.81	3.25
347.261	3.25
347.712	3.25
348.163	3.25
348.613	3.24
349.064	3.24
349.515	3.25
349.965	3.26
350.416	3.25
350.866	3.25
351.317	3.24
351.767	3.25
352.217	3.25
352.668	3.24
353.118	3.24
353.568	3.24
354.018	3.24
354.468	3.25
354.918	3.24
355.368	3.25
355.818	3.26
356.268	3.27
356.718	3.26
357.168	3.26
357.617	3.26
358.067	3.26
358.517	3.28
358.966	3.28
359.416	3.28
359.865	3.28
360.315	3.29
360.764	3.29
361.213	3.29
361.663	3.28
362.112	3.29
362.561	3.3
363.01	3.29
363.459	3.28
363.908	3.26
364.357	3.27
364.806	3.27
365.255	3.27
365.703	3.27
366.152	3.27
366.601	3.28
367.05	3.29
367.498	3.29
367.947	3.3
368.395	3.31
368.844	3.32
369.292	3.32
369.74	3.32
370.189	3.32
370.637	3.32
371.085	3.32
371.533	3.31
371.981	3.31
372.429	3.31
372.877	3.31
373.325	3.31
373.773	3.32
374.221	3.33
374.669	3.32
375.116	3.32
375.564	3.32
376.012	3.32
376.459	3.32
376.907	3.33
377.354	3.35
377.801	3.36
378.249	3.36
378.696	3.37
379.143	3.38
379.591	3.4
380.038	3.41
380.485	3.42
380.932	3.43
381.379	3.44
381.826	3.45
382.273	3.45
382.72	3.45
383.166	3.46
383.613	3.47
384.06	3.48
384.506	3.48
384.953	3.49
385.4	3.51
385.846	3.53
386.292	3.55
386.739	3.55
387.185	3.57
387.631	3.59
388.078	3.62
388.524	3.63
388.97	3.65
389.416	3.67
389.862	3.7
390.308	3.72
390.754	3.75
391.2	3.78
391.645	3.81
392.091	3.84
392.537	3.88
392.983	3.9
393.428	3.93
393.874	3.95
394.319	3.98
394.765	4.01
395.21	4.03
395.655	4.06
396.101	4.08
396.546	4.09
396.991	4.13
397.436	4.15
397.881	4.19
398.326	4.23
398.771	4.27
399.216	4.3
399.661	4.34
400.106	4.38
400.551	4.41
400.995	4.44
401.44	4.47
401.885	4.49
402.329	4.51
402.774	4.54
403.218	4.58
403.663	4.61
404.107	4.63
404.551	4.66
404.995	4.69
405.44	4.71
405.884	4.74
406.328	4.78
406.772	4.8
407.216	4.83
407.66	4.84
408.104	4.85
408.547	4.86
408.991	4.88
409.435	4.9
409.879	4.92
410.322	4.94
410.766	4.96
411.209	4.99
411.653	5.03
412.096	5.06
412.54	5.08
412.983	5.1
413.426	5.15
413.869	5.18
414.312	5.22
414.756	5.24
415.199	5.27
415.642	5.29
416.085	5.32
416.527	5.32
416.97	5.32
417.413	5.34
417.856	5.35
418.298	5.34
418.741	5.35
419.184	5.35
419.626	5.36
420.069	5.37
420.511	5.39
420.953	5.39
421.396	5.4
421.838	5.42
422.28	5.43
422.722	5.45
423.164	5.47
423.606	5.49
424.048	5.5
424.49	5.51
424.932	5.52
425.374	5.51
425.816	5.5
426.258	5.49
426.699	5.48
427.141	5.48
427.582	5.48
428.024	5.49
428.465	5.5
428.907	5.51
429.348	5.5
429.789	5.51
430.231	5.52
430.672	5.55
431.113	5.58
431.554	5.61
431.995	5.62
432.436	5.63
432.877	5.64
433.318	5.65
433.759	5.66
434.2	5.69
434.64	5.71
435.081	5.72
435.522	5.74
435.962	5.75
436.403	5.78
436.843	5.8
437.284	5.81
437.724	5.81
438.164	5.83
438.604	5.84
439.045	5.85
439.485	5.85
439.925	5.86
440.365	5.87
440.805	5.88
441.245	5.89
441.685	5.9
442.125	5.93
442.564	5.95
443.004	5.97
443.444	6
443.883	6.02
444.323	6.04
444.762	6.08
445.202	6.11
445.641	6.14
446.081	6.16
446.52	6.19
446.959	6.23
447.398	6.26
447.837	6.28
448.276	6.29
448.716	6.31
449.154	6.34
449.593	6.35
450.032	6.36
450.471	6.35
450.91	6.36
451.349	6.38
451.787	6.37
452.226	6.37
452.664	6.36
453.103	6.37
453.541	6.38
453.98	6.39
454.418	6.38
454.856	6.37
455.295	6.37
455.733	6.35
456.171	6.34
456.609	6.32
457.047	6.3
457.485	6.31
457.923	6.3
458.361	6.28
458.798	6.25
459.236	6.25
459.674	6.23
460.111	6.22
460.549	6.24
460.987	6.24
461.424	6.25
461.862	6.25
462.299	6.25
462.736	6.24
463.173	6.25
463.611	6.25
464.048	6.26
464.485	6.26
464.922	6.27
465.359	6.26
465.796	6.26
466.233	6.26
466.67	6.28
467.106	6.3
467.543	6.3
467.98	6.3
468.416	6.31
468.853	6.32
469.29	6.32
469.726	6.32
470.162	6.33
470.599	6.33
471.035	6.34
471.471	6.34
471.907	6.34
472.344	6.35
472.78	6.37
473.216	6.36
473.652	6.37
474.088	6.37
474.523	6.39
474.959	6.38
475.395	6.38
475.831	6.37
476.266	6.36
476.702	6.35
477.138	6.34
477.573	6.34
478.008	6.35
478.444	6.34
478.879	6.36
479.314	6.35
479.75	6.35
480.185	6.34
480.62	6.34
481.055	6.34
481.49	6.33
481.925	6.34
482.36	6.34
482.795	6.33
483.229	6.33
483.664	6.32
484.099	6.33
484.534	6.33
484.968	6.35
485.403	6.35
485.837	6.36
486.271	6.38
486.706	6.39
487.14	6.41
487.574	6.42
488.009	6.43
488.443	6.44
488.877	6.46
489.311	6.49
489.745	6.51
490.179	6.54
490.613	6.57
491.046	6.6
491.48	6.63
491.914	6.68
492.348	6.72
492.781	6.78
493.215	6.83
493.648	6.89
494.082	6.93
494.515	6.98
494.948	7.04
495.382	7.09
495.815	7.15
496.248	7.22
496.681	7.29
497.114	7.35
497.547	7.41
497.98	7.49
498.413	7.56
498.846	7.65
499.279	7.73
499.711	7.82
500.144	7.92
500.577	8.01
501.009	8.1
501.442	8.2
501.874	8.31
502.306	8.42
502.739	8.54
503.171	8.65
503.603	8.76
504.036	8.89
504.468	9.02
504.9	9.15
505.332	9.28
505.764	9.43
506.196	9.58
506.627	9.73
507.059	9.89
507.491	10.05
507.923	10.22
508.354	10.4
508.786	10.58
509.217	10.77
509.649	10.96
510.08	11.16
510.512	11.35
510.943	11.54
511.374	11.75
511.805	11.94
512.237	12.14
512.668	12.34
513.099	12.54
513.53	12.74
513.961	12.95
514.391	13.16
514.822	13.37
515.253	13.59
515.684	13.81
516.114	14.02
516.545	14.24
516.975	14.47
517.406	14.7
517.836	14.92
518.267	15.14
518.697	15.35
519.127	15.56
519.558	15.76
519.988	15.98
520.418	16.18
520.848	16.38
521.278	16.58
521.708	16.89
522.138	17.07
522.567	17.27
522.997	17.45
523.427	17.64
523.857	17.81
524.286	17.98
524.716	18.13
525.145	18.29
525.575	18.46
526.004	18.61
526.433	18.64
526.863	18.78
527.292	18.92
527.721	19.05
528.15	19.17
528.579	19.29
529.008	19.41
529.437	19.53
529.866	19.64
530.295	19.75
530.724	19.85
531.152	19.95
531.581	20.04
532.01	20.12
532.438	20.19
532.867	20.27
533.295	20.35
533.723	20.42
534.152	20.47
534.58	20.54
535.008	20.57
535.436	20.63
535.865	20.66
536.293	20.7
536.721	20.73
537.149	20.77
537.576	20.8
538.004	20.83
538.432	20.86
538.86	20.89
539.287	20.9
539.715	20.94
540.143	20.95
540.57	20.97
540.998	21
541.425	21.03
541.852	21.06
542.28	21.09
542.707	21.11
543.134	21.12
543.561	21.16
543.988	21.19
544.415	21.21
544.842	21.24
545.269	21.28
545.696	21.31
546.123	21.34
546.549	21.36
546.976	21.38
547.403	21.41
547.829	21.45
548.256	21.48
548.682	21.5
549.108	21.52
549.535	21.55
549.961	21.57
550.387	21.58
550.813	21.6
551.24	21.59
551.666	21.6
552.092	21.6
552.518	21.6
552.943	21.59
553.369	21.58
553.795	21.56
554.221	21.55
554.646	21.53
555.072	21.51
555.498	21.49
555.923	21.47
556.349	21.43
556.774	21.41
557.199	21.37
557.625	21.34
558.05	21.31
558.475	21.28
558.9	21.24
559.325	21.2
559.75	21.14
560.175	21.08
560.6	21.01
561.025	20.95
561.449	20.88
561.874	20.81
562.299	20.74
562.723	20.67
563.148	20.59
563.572	20.51
563.997	20.42
564.421	20.32
564.846	20.22
565.27	20.14
565.694	20.06
566.118	19.95
566.542	19.84
566.966	19.73
567.39	19.61
567.814	19.49
568.238	19.37
568.662	19.27
569.086	19.16
569.509	19.06
569.933	18.95
570.357	18.84
570.78	18.73
571.204	18.61
571.627	18.52
572.05	18.4
572.474	18.33
572.897	18.23
573.32	18.13
573.743	18.03
574.166	17.95
574.589	17.86
575.012	17.78
575.435	17.71
575.858	17.65
576.281	17.56
576.704	17.5
577.126	17.42
577.549	17.36
577.972	17.3
578.394	17.25
578.817	17.19
579.239	17.13
579.661	17.06
580.084	17.01
580.506	16.95
580.928	16.9
581.35	16.85
581.772	16.79
582.194	16.74
582.616	16.68
583.038	16.62
583.46	16.57
583.882	16.51
584.303	16.46
584.725	16.4
585.147	16.35
585.568	16.31
585.99	16.26
586.411	16.23
586.833	16.17
587.254	16.14
587.675	16.1
588.096	16.05
588.518	16.02
588.939	16
589.36	15.98
589.781	15.96
590.202	15.94
590.623	15.91
591.043	15.87
591.464	15.85
591.885	15.81
592.305	15.78
592.726	15.77
593.147	15.75
593.567	15.71
593.987	15.68
594.408	15.65
594.828	15.61
595.248	15.59
595.669	15.57
596.089	15.55
596.509	15.52
596.929	15.5
597.349	15.46
597.769	15.41
598.189	15.38
598.608	15.35
599.028	15.32
599.448	15.28
599.867	15.23
600.287	15.19
600.706	15.15
601.126	15.12
601.545	15.09
601.965	15.06
602.384	15.03
602.803	15
603.222	14.95
603.641	14.91
604.061	14.87
604.48	14.83
604.898	14.78
605.317	14.74
605.736	14.7
606.155	14.64
606.574	14.59
606.992	14.53
607.411	14.48
607.829	14.39
608.248	14.33
608.666	14.27
609.085	14.2
609.503	14.15
609.921	14.1
610.339	14.04
610.758	13.99
611.176	13.92
611.594	13.87
612.012	13.8
612.43	13.75
612.847	13.7
613.265	13.64
613.683	13.59
614.101	13.54
614.518	13.47
614.936	13.41
615.353	13.35
615.771	13.3
616.188	13.25
616.606	13.21
617.023	13.18
617.44	13.13
617.857	13.09
618.274	13.05
618.691	13
619.108	12.95
619.525	12.92
619.942	12.9
620.359	12.88
620.776	12.85
621.192	12.81
621.609	12.79
622.026	12.77
622.442	12.75
622.859	12.73
623.275	12.72
623.691	12.71
624.108	12.68
624.524	12.65
624.94	12.63
625.356	12.62
625.772	12.6
626.188	12.59
626.604	12.57
627.02	12.56
627.436	12.54
627.852	12.53
628.268	12.51
628.683	12.5
629.099	12.49
629.514	12.47
629.93	12.47
630.345	12.46
630.761	12.44
631.176	12.42
631.591	12.39
632.007	12.36
632.422	12.31
632.837	12.27
633.252	12.23
633.667	12.19
634.082	12.13
634.497	12.06
634.911	11.98
635.326	11.9
635.741	11.84
636.155	11.76
636.57	11.68
636.984	11.62
637.399	11.53
637.813	11.46
638.228	11.36
638.642	11.27
639.056	11.17
639.47	11.09
639.884	10.99
640.298	10.9
640.712	10.81
641.126	10.72
641.54	10.62
641.954	10.52
642.368	10.42
642.781	10.32
643.195	10.23
643.609	10.15
644.022	10.06
644.436	9.98
644.849	9.89
645.262	9.8
645.676	9.72
646.089	9.65
646.502	9.58
646.915	9.52
647.328	9.47
647.741	9.41
648.154	9.36
648.567	9.32
648.98	9.28
649.393	9.23
649.805	9.2
650.218	9.17
650.631	9.14
651.043	9.11
651.456	9.07
651.868	9.04
652.28	9
652.693	8.96
653.105	8.92
653.517	8.87
653.929	8.82
654.341	8.77
654.753	8.72
655.165	8.65
655.577	8.6
655.989	8.54
656.401	8.47
656.813	8.4
657.224	8.33
657.636	8.25
658.047	8.19
658.459	8.11
658.87	8.03
659.282	7.94
659.693	7.87
660.104	7.78
660.515	7.69
660.926	7.61
661.338	7.53
661.749	7.46
662.159	7.39
662.57	7.33
662.981	7.26
663.392	7.21
663.803	7.16
664.213	7.1
664.624	7.05
665.035	7.02
665.445	6.97
665.855	6.94
666.266	6.89
666.676	6.86
667.086	6.81
667.497	6.78
667.907	6.74
668.317	6.72
668.727	6.7
669.137	6.68
669.547	6.66
669.956	6.65
670.366	6.64
670.776	6.63
671.186	6.63
671.595	6.63
672.005	6.63
672.414	6.64
672.824	6.64
673.233	6.64
673.642	6.64
674.052	6.64
674.461	6.65
674.87	6.66
675.279	6.68
675.688	6.71
676.097	6.73
676.506	6.75
676.915	6.78
677.323	6.81
677.732	6.85
678.141	6.89
678.549	6.94
678.958	6.99
679.366	7.06
679.775	7.11
680.183	7.16
680.592	7.24
681	7.33
681.408	7.42
681.816	7.53
682.224	7.64
682.632	7.76
683.04	7.89
683.448	8.04
683.856	8.18
684.264	8.36
684.671	8.55
685.079	8.75
685.487	8.97
685.894	9.21
686.302	9.46
686.709	9.73
687.116	10.02
687.524	10.33
687.931	10.65
688.338	10.98
688.745	11.33
689.152	11.69
689.559	12.07
689.966	12.45
690.373	12.85
690.78	13.25
691.187	13.64
691.593	14.06
692	14.48
692.407	14.9
692.813	15.32
693.22	15.73
693.626	16.16
694.032	16.57
694.439	17
694.845	17.43
695.251	17.83
695.657	18.24
696.063	18.65
696.469	19.04
696.875	19.45
697.281	19.84
697.687	20.25
698.093	20.62
698.498	21.01
698.904	21.36
699.31	21.7
699.715	22.06
700.12	22.4
700.526	22.74
700.931	23.07
701.337	23.39
701.742	23.69
702.147	24
702.552	24.31
702.957	24.57
703.362	24.84
703.767	25.11
704.172	25.37
704.577	25.63
704.981	25.89
705.386	26.12
705.791	26.37
706.195	26.63
706.6	26.87
707.004	27.1
707.408	27.36
707.813	27.6
708.217	27.83
708.621	28.06
709.025	28.28
709.43	28.48
709.834	28.7
710.237	28.91
710.641	29.11
711.045	29.29
711.449	29.48
711.853	29.66
712.256	29.83
712.66	30.01
713.064	30.18
713.467	30.36
713.87	30.54
714.274	30.69
714.677	30.85
715.08	30.99
715.484	31.15
715.887	31.31
716.29	31.46
716.693	31.62
717.096	31.76
717.499	31.9
717.901	32.03
718.304	32.18
718.707	32.33
719.109	32.47
719.512	32.58
719.915	32.71
720.317	32.81
720.719	32.9
721.122	33
721.524	33.11
721.926	33.23
722.328	33.32
722.731	33.4
723.133	33.5
723.535	33.59
723.937	33.69
724.338	33.78
724.74	33.89
725.142	34.03
725.544	34.1
725.945	34.19
726.347	34.26
726.748	34.33
727.15	34.4
727.551	34.48
727.952	34.53
728.354	34.58
728.755	34.62
729.156	34.67
729.557	34.69
729.958	34.73
730.359	34.75
730.76	34.79
731.161	34.83
731.562	34.88
731.962	34.9
732.363	34.97
732.763	35.02
733.164	35.06
733.564	35.1
733.965	35.12
734.365	35.19
734.766	35.24
735.166	35.28
735.566	35.3
735.966	35.35
736.366	35.38
736.766	35.38
737.166	35.42
737.566	35.45
737.966	35.46
738.365	35.49
738.765	35.51
739.165	35.53
739.564	35.56
739.964	35.59
740.363	35.58
740.763	35.59
741.162	35.6
741.561	35.58
741.96	35.57
742.36	35.59
742.759	35.6
743.158	35.6
743.557	35.62
743.955	35.63
744.354	35.66
744.753	35.7
745.152	35.74
745.55	35.79
745.949	35.83
746.348	35.87
746.746	35.88
747.144	35.91
747.543	35.94
747.941	35.94
748.339	35.94
748.737	35.93
749.136	35.93
749.534	35.91
749.932	35.89
750.33	35.89
750.727	35.87
751.125	35.9
751.523	35.88
751.921	35.85
752.318	35.86
752.716	35.87
753.113	35.87
753.511	35.88
753.908	35.9
754.305	35.92
754.703	35.88
755.1	35.87
755.497	35.85
755.894	35.83
756.291	35.85
756.688	35.83
757.085	35.83
757.482	35.82
757.878	35.79
758.275	35.78
758.672	35.76
759.068	35.8
759.465	35.8
759.861	35.8
760.258	35.79
760.654	35.77
761.05	35.77
761.447	35.77
761.843	35.78
762.239	35.78
762.635	35.79
763.031	35.78
763.427	35.76
763.822	35.76
764.218	35.76
764.614	35.78
765.01	35.79
765.405	35.8
765.801	35.77
766.196	35.78
766.592	35.79
766.987	35.78
767.382	35.77
767.778	35.78
768.173	35.8
768.568	35.8
768.963	35.8
769.358	35.8
769.753	35.81
770.148	35.84
770.542	35.81
770.937	35.82
771.332	35.85
771.726	35.87
772.121	35.85
772.515	35.83
772.91	35.83
773.304	35.82
773.699	35.82
774.093	35.78
774.487	35.78
774.881	35.79
775.275	35.77
775.669	35.72
776.063	35.7
776.457	35.7
776.851	35.7
777.245	35.7
777.638	35.7
778.032	35.71
778.425	35.76
778.819	35.76
779.212	35.77
779.606	35.78
779.999	35.78
780.392	35.81
780.786	35.82
781.179	35.82
781.572	35.83
781.965	35.84
