Data from N_3_DEC_ON_6N_Splice17_14-25-58-021.txt Node
Date: Sat Mar 07 14:25:58 EST 2020
User: sa697716
Spectrometer: NQ5500242
Trigger mode: 0
Integration Time (sec): 1.450000E-1
Scans to average: 20
Nonlinearity correction enabled: false
Boxcar width: 5
Storing dark spectrum: false
XAxis mode: Wavelengths
Number of Pixels in Spectrum: 512
>>>>>Begin Spectral Data<<<<<
187.83	133.85
188.298	144.4
188.766	117.7
189.233	97.34
189.701	103.65
190.169	120.56
190.636	118.62
191.104	146.8
191.571	39.29
192.039	160.36
192.506	173.99
192.974	52.46
193.441	150.67
193.908	-3.62
194.375	-15.03
194.842	13.12
195.31	10.28
195.777	-142.22
196.244	46.58
196.711	64.78
197.177	70.32
197.644	70.24
198.111	70.18
198.578	69.87
199.045	70.65
199.511	70.86
199.978	70.6
200.445	70.71
200.911	70.69
201.378	70.88
201.844	70.49
202.31	69.98
202.777	70.16
203.243	70.2
203.709	69.8
204.176	68.95
204.642	68.24
205.108	67.8
205.574	67.45
206.04	66.87
206.506	66.15
206.972	66.11
207.438	65.49
207.903	64.43
208.369	62.99
208.835	61.68
209.301	60.63
209.766	58.95
210.232	57.34
210.697	55.59
211.163	54.06
211.628	52.79
212.094	51.02
212.559	49.76
213.024	48.41
213.49	47.24
213.955	46.1
214.42	44.92
214.885	43.67
215.35	42.03
215.815	39.74
216.28	36.88
216.745	33.72
217.21	30.71
217.675	27.74
218.14	25.17
218.604	22.9
219.069	21.03
219.534	19.39
219.998	18.05
220.463	16.98
220.927	16.01
221.392	15.29
221.856	14.64
222.32	14.08
222.785	13.66
223.249	13.28
223.713	12.94
224.177	12.65
224.642	12.38
225.106	12.11
225.57	11.83
226.034	11.6
226.497	11.37
226.961	11.17
227.425	10.98
227.889	10.76
228.353	10.55
228.816	10.37
229.28	10.18
229.744	10.02
230.207	9.85
230.671	9.7
231.134	9.57
231.597	9.44
232.061	9.3
232.524	9.18
232.987	9.07
233.45	8.96
233.914	8.85
234.377	8.74
234.84	8.64
235.303	8.56
235.766	8.47
236.229	8.38
236.691	8.29
237.154	8.23
237.617	8.15
238.08	8.08
238.542	8.01
239.005	7.95
239.468	7.89
239.93	7.83
240.393	7.76
240.855	7.69
241.317	7.63
241.78	7.56
242.242	7.48
242.704	7.43
243.166	7.37
243.629	7.32
244.091	7.25
244.553	7.18
245.015	7.12
245.477	7.06
245.939	7.01
246.4	6.94
246.862	6.89
247.324	6.85
247.786	6.78
248.247	6.72
248.709	6.66
249.17	6.59
249.632	6.54
250.093	6.5
250.555	6.45
251.016	6.41
251.477	6.37
251.939	6.33
252.4	6.29
252.861	6.26
253.322	6.23
253.783	6.21
254.244	6.2
254.705	6.17
255.166	6.14
255.627	6.11
256.088	6.08
256.549	6.05
257.009	6.01
257.47	5.98
257.931	5.94
258.391	5.9
258.852	5.85
259.312	5.82
259.773	5.78
260.233	5.75
260.694	5.72
261.154	5.69
261.614	5.66
262.074	5.62
262.534	5.59
262.994	5.57
263.455	5.55
263.915	5.53
264.374	5.51
264.834	5.49
265.294	5.46
265.754	5.45
266.214	5.43
266.673	5.41
267.133	5.4
267.593	5.39
268.052	5.38
268.512	5.37
268.971	5.36
269.431	5.35
269.89	5.34
270.349	5.33
270.809	5.32
271.268	5.32
271.727	5.31
272.186	5.3
272.645	5.3
273.104	5.29
273.563	5.28
274.022	5.28
274.481	5.27
274.94	5.27
275.399	5.26
275.857	5.26
276.316	5.25
276.775	5.25
277.233	5.25
277.692	5.24
278.15	5.24
278.609	5.25
279.067	5.24
279.525	5.24
279.984	5.23
280.442	5.23
280.9	5.24
281.358	5.23
281.816	5.23
282.274	5.23
282.732	5.23
283.19	5.22
283.648	5.21
284.106	5.21
284.564	5.21
285.021	5.21
285.479	5.2
285.937	5.2
286.394	5.2
286.852	5.19
287.309	5.19
287.767	5.17
288.224	5.16
288.682	5.16
289.139	5.14
289.596	5.13
290.053	5.1
290.511	5.09
290.968	5.07
291.425	5.05
291.882	5.04
292.339	5.02
292.796	5.01
293.252	5
293.709	4.98
294.166	4.98
294.623	4.97
295.079	4.96
295.536	4.96
295.992	4.96
296.449	4.95
296.905	4.95
297.362	4.94
297.818	4.94
298.274	4.94
298.731	4.94
299.187	4.93
299.643	4.92
300.099	4.92
300.555	4.92
301.011	4.91
301.467	4.91
301.923	4.9
302.379	4.9
302.835	4.91
303.291	4.9
303.746	4.89
304.202	4.89
304.658	4.89
305.113	4.89
305.569	4.89
306.024	4.88
306.479	4.88
306.935	4.88
307.39	4.89
307.845	4.89
308.301	4.9
308.756	4.91
309.211	4.91
309.666	4.92
310.121	4.92
310.576	4.92
311.031	4.93
311.486	4.93
311.94	4.93
312.395	4.93
312.85	4.94
313.305	4.94
313.759	4.95
314.214	4.94
314.668	4.94
315.123	4.94
315.577	4.93
316.032	4.93
316.486	4.93
316.94	4.92
317.394	4.92
317.849	4.91
318.303	4.89
318.757	4.87
319.211	4.86
319.665	4.85
320.119	4.83
320.572	4.83
321.026	4.82
321.48	4.8
321.934	4.79
322.387	4.78
322.841	4.77
323.295	4.77
323.748	4.78
324.202	4.77
324.655	4.77
325.108	4.78
325.562	4.77
326.015	4.78
326.468	4.79
326.921	4.79
327.374	4.79
327.827	4.79
328.28	4.79
328.733	4.79
329.186	4.78
329.639	4.79
330.092	4.79
330.545	4.79
330.997	4.78
331.45	4.78
331.903	4.78
332.355	4.79
332.808	4.8
333.26	4.8
333.713	4.81
334.165	4.81
334.617	4.82
335.069	4.82
335.522	4.84
335.974	4.84
336.426	4.85
336.878	4.84
337.33	4.84
337.782	4.85
338.234	4.85
338.686	4.84
339.137	4.85
339.589	4.84
340.041	4.84
340.493	4.82
340.944	4.81
341.396	4.81
341.847	4.79
342.299	4.78
342.75	4.77
343.201	4.75
343.653	4.74
344.104	4.73
344.555	4.71
345.006	4.7
345.457	4.68
345.908	4.67
346.359	4.66
346.81	4.65
347.261	4.64
347.712	4.63
348.163	4.63
348.613	4.63
349.064	4.63
349.515	4.63
349.965	4.62
350.416	4.62
350.866	4.62
351.317	4.62
351.767	4.63
352.217	4.63
352.668	4.63
353.118	4.64
353.568	4.63
354.018	4.64
354.468	4.65
354.918	4.65
355.368	4.66
355.818	4.67
356.268	4.66
356.718	4.67
357.168	4.67
357.617	4.67
358.067	4.67
358.517	4.69
358.966	4.68
359.416	4.68
359.865	4.68
360.315	4.69
360.764	4.7
361.213	4.7
361.663	4.7
362.112	4.71
362.561	4.74
363.01	4.73
363.459	4.72
363.908	4.72
364.357	4.73
364.806	4.74
365.255	4.74
365.703	4.76
366.152	4.79
366.601	4.81
367.05	4.83
367.498	4.84
367.947	4.87
368.395	4.9
368.844	4.94
369.292	4.97
369.74	5
370.189	5.03
370.637	5.06
371.085	5.09
371.533	5.12
371.981	5.16
372.429	5.2
372.877	5.25
373.325	5.3
373.773	5.35
374.221	5.4
374.669	5.46
375.116	5.51
375.564	5.57
376.012	5.63
376.459	5.7
376.907	5.77
377.354	5.84
377.801	5.91
378.249	5.97
378.696	6.04
379.143	6.12
379.591	6.2
380.038	6.28
380.485	6.37
380.932	6.46
381.379	6.55
381.826	6.64
382.273	6.73
382.72	6.81
383.166	6.89
383.613	6.97
384.06	7.04
384.506	7.12
384.953	7.2
385.4	7.27
385.846	7.35
386.292	7.43
386.739	7.51
387.185	7.58
387.631	7.68
388.078	7.76
388.524	7.85
388.97	7.94
389.416	8.02
389.862	8.1
390.308	8.19
390.754	8.27
391.2	8.33
391.645	8.4
392.091	8.48
392.537	8.55
392.983	8.63
393.428	8.69
393.874	8.77
394.319	8.83
394.765	8.88
395.21	8.91
395.655	8.95
396.101	9
396.546	9.04
396.991	9.08
397.436	9.1
397.881	9.13
398.326	9.17
398.771	9.21
399.216	9.24
399.661	9.28
400.106	9.31
400.551	9.33
400.995	9.34
401.44	9.35
401.885	9.35
402.329	9.36
402.774	9.36
403.218	9.38
403.663	9.38
404.107	9.39
404.551	9.39
404.995	9.38
405.44	9.37
405.884	9.38
406.328	9.39
406.772	9.38
407.216	9.39
407.66	9.39
408.104	9.37
408.547	9.35
408.991	9.33
409.435	9.32
409.879	9.33
410.322	9.34
410.766	9.34
411.209	9.35
411.653	9.37
412.096	9.37
412.54	9.37
412.983	9.37
413.426	9.4
413.869	9.41
414.312	9.45
414.756	9.46
415.199	9.46
415.642	9.45
416.085	9.45
416.527	9.44
416.97	9.42
417.413	9.4
417.856	9.38
418.298	9.35
418.741	9.33
419.184	9.31
419.626	9.29
420.069	9.27
420.511	9.26
420.953	9.24
421.396	9.23
421.838	9.22
422.28	9.22
422.722	9.24
423.164	9.23
423.606	9.24
424.048	9.22
424.49	9.2
424.932	9.19
425.374	9.16
425.816	9.12
426.258	9.09
426.699	9.08
427.141	9.05
427.582	9.03
428.024	9.02
428.465	9.01
428.907	9.02
429.348	9
429.789	8.98
430.231	8.99
430.672	9.01
431.113	9.04
431.554	9.04
431.995	9.05
432.436	9.06
432.877	9.06
433.318	9.05
433.759	9.07
434.2	9.1
434.64	9.12
435.081	9.13
435.522	9.16
435.962	9.17
436.403	9.22
436.843	9.24
437.284	9.25
437.724	9.28
438.164	9.3
438.604	9.32
439.045	9.33
439.485	9.33
439.925	9.35
440.365	9.35
440.805	9.37
441.245	9.38
441.685	9.42
442.125	9.46
442.564	9.5
443.004	9.53
443.444	9.56
443.883	9.61
444.323	9.66
444.762	9.71
445.202	9.77
445.641	9.84
446.081	9.91
446.52	9.95
446.959	10.02
447.398	10.06
447.837	10.11
448.276	10.15
448.716	10.21
449.154	10.27
449.593	10.32
450.032	10.34
450.471	10.36
450.91	10.36
451.349	10.4
451.787	10.4
452.226	10.41
452.664	10.44
453.103	10.44
453.541	10.42
453.98	10.43
454.418	10.4
454.856	10.38
455.295	10.38
455.733	10.36
456.171	10.32
456.609	10.31
457.047	10.29
457.485	10.28
457.923	10.27
458.361	10.27
458.798	10.25
459.236	10.24
459.674	10.23
460.111	10.23
460.549	10.23
460.987	10.23
461.424	10.23
461.862	10.24
462.299	10.24
462.736	10.24
463.173	10.24
463.611	10.23
464.048	10.24
464.485	10.23
464.922	10.23
465.359	10.23
465.796	10.24
466.233	10.24
466.67	10.23
467.106	10.24
467.543	10.24
467.98	10.24
468.416	10.24
468.853	10.26
469.29	10.28
469.726	10.29
470.162	10.29
470.599	10.3
471.035	10.31
471.471	10.31
471.907	10.32
472.344	10.34
472.78	10.37
473.216	10.38
473.652	10.39
474.088	10.37
474.523	10.39
474.959	10.4
475.395	10.4
475.831	10.41
476.266	10.43
476.702	10.42
477.138	10.42
477.573	10.43
478.008	10.44
478.444	10.43
478.879	10.45
479.314	10.43
479.75	10.43
480.185	10.43
480.62	10.43
481.055	10.42
481.49	10.42
481.925	10.42
482.36	10.41
482.795	10.41
483.229	10.42
483.664	10.43
484.099	10.44
484.534	10.45
484.968	10.47
485.403	10.49
485.837	10.52
486.271	10.54
486.706	10.57
487.14	10.6
487.574	10.63
488.009	10.67
488.443	10.71
488.877	10.76
489.311	10.81
489.745	10.86
490.179	10.94
490.613	11
491.046	11.07
491.48	11.14
491.914	11.21
492.348	11.29
492.781	11.38
493.215	11.47
493.648	11.56
494.082	11.66
494.515	11.76
494.948	11.87
495.382	11.97
495.815	12.1
496.248	12.22
496.681	12.36
497.114	12.5
497.547	12.63
497.98	12.78
498.413	12.92
498.846	13.08
499.279	13.23
499.711	13.38
500.144	13.55
500.577	13.7
501.009	13.86
501.442	14.04
501.874	14.21
502.306	14.41
502.739	14.6
503.171	14.79
503.603	14.99
504.036	15.2
504.468	15.41
504.9	15.62
505.332	15.84
505.764	16.06
506.196	16.3
506.627	16.54
507.059	16.78
507.491	17.01
507.923	17.24
508.354	17.5
508.786	17.74
509.217	18.01
509.649	18.28
510.08	18.54
510.512	18.81
510.943	19.06
511.374	19.33
511.805	19.59
512.237	19.86
512.668	20.14
513.099	20.41
513.53	20.68
513.961	20.94
514.391	21.21
514.822	21.5
515.253	21.75
515.684	22.02
516.114	22.28
516.545	22.54
516.975	22.81
517.406	23.06
517.836	23.31
518.267	23.57
518.697	23.8
519.127	24.03
519.558	24.25
519.988	24.51
520.418	24.73
520.848	24.97
521.278	25.2
521.708	25.52
522.138	25.73
522.567	25.94
522.997	26.12
523.427	26.34
523.857	26.54
524.286	26.72
524.716	26.9
525.145	27.07
525.575	27.24
526.004	27.39
526.433	27.44
526.863	27.6
527.292	27.74
527.721	27.87
528.15	28
528.579	28.11
529.008	28.23
529.437	28.35
529.866	28.44
530.295	28.55
530.724	28.65
531.152	28.73
531.581	28.82
532.01	28.91
532.438	29
532.867	29.07
533.295	29.13
533.723	29.19
534.152	29.25
534.58	29.32
535.008	29.35
535.436	29.4
535.865	29.43
536.293	29.48
536.721	29.52
537.149	29.56
537.576	29.59
538.004	29.64
538.432	29.67
538.86	29.68
539.287	29.69
539.715	29.73
540.143	29.75
540.57	29.78
540.998	29.79
541.425	29.8
541.852	29.82
542.28	29.85
542.707	29.88
543.134	29.9
543.561	29.94
543.988	29.98
544.415	29.99
544.842	30.01
545.269	30.04
545.696	30.07
546.123	30.1
546.549	30.13
546.976	30.16
547.403	30.19
547.829	30.21
548.256	30.25
548.682	30.27
549.108	30.3
549.535	30.33
549.961	30.37
550.387	30.38
550.813	30.4
551.24	30.41
551.666	30.41
552.092	30.41
552.518	30.41
552.943	30.41
553.369	30.4
553.795	30.38
554.221	30.37
554.646	30.37
555.072	30.36
555.498	30.34
555.923	30.33
556.349	30.31
556.774	30.28
557.199	30.25
557.625	30.2
558.05	30.15
558.475	30.12
558.9	30.09
559.325	30.03
559.75	29.98
560.175	29.91
560.6	29.83
561.025	29.77
561.449	29.7
561.874	29.63
562.299	29.57
562.723	29.5
563.148	29.4
563.572	29.28
563.997	29.19
564.421	29.08
564.846	28.99
565.27	28.89
565.694	28.77
566.118	28.65
566.542	28.53
566.966	28.4
567.39	28.28
567.814	28.17
568.238	28.06
568.662	27.93
569.086	27.8
569.509	27.67
569.933	27.54
570.357	27.43
570.78	27.29
571.204	27.17
571.627	27.06
572.05	26.95
572.474	26.85
572.897	26.75
573.32	26.64
573.743	26.55
574.166	26.46
574.589	26.36
575.012	26.28
575.435	26.19
575.858	26.11
576.281	26.02
576.704	25.93
577.126	25.85
577.549	25.75
577.972	25.68
578.394	25.61
578.817	25.54
579.239	25.48
579.661	25.4
580.084	25.35
580.506	25.3
580.928	25.25
581.35	25.2
581.772	25.13
582.194	25.09
582.616	25.04
583.038	24.98
583.46	24.92
583.882	24.86
584.303	24.81
584.725	24.76
585.147	24.71
585.568	24.66
585.99	24.6
586.411	24.56
586.833	24.5
587.254	24.44
587.675	24.4
588.096	24.35
588.518	24.3
588.939	24.28
589.36	24.21
589.781	24.18
590.202	24.14
590.623	24.1
591.043	24.07
591.464	24.03
591.885	23.98
592.305	23.95
592.726	23.94
593.147	23.91
593.567	23.86
593.987	23.84
594.408	23.81
594.828	23.77
595.248	23.75
595.669	23.72
596.089	23.7
596.509	23.69
596.929	23.65
597.349	23.61
597.769	23.57
598.189	23.55
598.608	23.5
599.028	23.46
599.448	23.43
599.867	23.38
600.287	23.35
600.706	23.29
601.126	23.25
601.545	23.23
601.965	23.2
602.384	23.16
602.803	23.1
603.222	23.05
603.641	23
604.061	22.95
604.48	22.89
604.898	22.83
605.317	22.78
605.736	22.72
606.155	22.65
606.574	22.57
606.992	22.5
607.411	22.43
607.829	22.35
608.248	22.28
608.666	22.21
609.085	22.14
609.503	22.08
609.921	22
610.339	21.93
610.758	21.86
611.176	21.79
611.594	21.72
612.012	21.65
612.43	21.61
612.847	21.54
613.265	21.47
613.683	21.41
614.101	21.34
614.518	21.28
614.936	21.21
615.353	21.13
615.771	21.07
616.188	21
616.606	20.95
617.023	20.89
617.44	20.84
617.857	20.81
618.274	20.76
618.691	20.71
619.108	20.67
619.525	20.62
619.942	20.59
620.359	20.56
620.776	20.54
621.192	20.5
621.609	20.48
622.026	20.45
622.442	20.41
622.859	20.39
623.275	20.35
623.691	20.34
624.108	20.32
624.524	20.29
624.94	20.26
625.356	20.25
625.772	20.23
626.188	20.21
626.604	20.18
627.02	20.18
627.436	20.15
627.852	20.14
628.268	20.13
628.683	20.12
629.099	20.09
629.514	20.08
629.93	20.04
630.345	20.01
630.761	19.96
631.176	19.94
631.591	19.88
632.007	19.83
632.422	19.76
632.837	19.7
633.252	19.62
633.667	19.55
634.082	19.47
634.497	19.4
634.911	19.3
635.326	19.21
635.741	19.1
636.155	18.99
636.57	18.86
636.984	18.76
637.399	18.63
637.813	18.49
638.228	18.35
638.642	18.2
639.056	18.05
639.47	17.9
639.884	17.75
640.298	17.59
640.712	17.45
641.126	17.3
641.54	17.13
641.954	16.97
642.368	16.82
642.781	16.66
643.195	16.51
643.609	16.37
644.022	16.23
644.436	16.09
644.849	15.97
645.262	15.82
645.676	15.7
646.089	15.59
646.502	15.49
646.915	15.4
647.328	15.32
647.741	15.23
648.154	15.14
648.567	15.07
648.98	15.01
649.393	14.94
649.805	14.9
650.218	14.85
650.631	14.79
651.043	14.74
651.456	14.69
651.868	14.63
652.28	14.59
652.693	14.55
653.105	14.49
653.517	14.44
653.929	14.38
654.341	14.31
654.753	14.23
655.165	14.16
655.577	14.08
655.989	13.99
656.401	13.9
656.813	13.81
657.224	13.68
657.636	13.55
658.047	13.45
658.459	13.32
658.87	13.19
659.282	13.06
659.693	12.94
660.104	12.8
660.515	12.67
660.926	12.53
661.338	12.4
661.749	12.28
662.159	12.16
662.57	12.04
662.981	11.92
663.392	11.81
663.803	11.7
664.213	11.59
664.624	11.48
665.035	11.38
665.445	11.28
665.855	11.2
666.266	11.11
666.676	11.04
667.086	10.95
667.497	10.89
667.907	10.82
668.317	10.75
668.727	10.7
669.137	10.65
669.547	10.61
669.956	10.58
670.366	10.54
670.776	10.51
671.186	10.49
671.595	10.47
672.005	10.45
672.414	10.44
672.824	10.43
673.233	10.43
673.642	10.44
674.052	10.44
674.461	10.44
674.87	10.44
675.279	10.48
675.688	10.51
676.097	10.53
676.506	10.56
676.915	10.62
677.323	10.68
677.732	10.74
678.141	10.81
678.549	10.89
678.958	10.99
679.366	11.11
679.775	11.22
680.183	11.36
680.592	11.52
681	11.72
681.408	11.91
681.816	12.12
682.224	12.34
682.632	12.6
683.04	12.88
683.448	13.18
683.856	13.49
684.264	13.83
684.671	14.18
685.079	14.56
685.487	14.94
685.894	15.35
686.302	15.8
686.709	16.26
687.116	16.73
687.524	17.22
687.931	17.73
688.338	18.24
688.745	18.77
689.152	19.29
689.559	19.83
689.966	20.38
690.373	20.95
690.78	21.5
691.187	22.06
691.593	22.63
692	23.18
692.407	23.7
692.813	24.24
693.22	24.76
693.626	25.29
694.032	25.81
694.439	26.31
694.845	26.82
695.251	27.29
695.657	27.75
696.063	28.21
696.469	28.66
696.875	29.11
697.281	29.55
697.687	29.99
698.093	30.4
698.498	30.79
698.904	31.17
699.31	31.53
699.715	31.91
700.12	32.27
700.526	32.59
700.931	32.91
701.337	33.22
701.742	33.5
702.147	33.8
702.552	34.09
702.957	34.36
703.362	34.64
703.767	34.89
704.172	35.15
704.577	35.39
704.981	35.64
705.386	35.86
705.791	36.11
706.195	36.35
706.6	36.58
707.004	36.81
707.408	37.04
707.813	37.24
708.217	37.44
708.621	37.64
709.025	37.82
709.43	37.99
709.834	38.21
710.237	38.36
710.641	38.51
711.045	38.68
711.449	38.86
711.853	39.01
712.256	39.16
712.66	39.31
713.064	39.46
713.467	39.59
713.87	39.77
714.274	39.88
714.677	40.05
715.08	40.19
715.484	40.32
715.887	40.46
716.29	40.58
716.693	40.72
717.096	40.86
717.499	40.98
717.901	41.13
718.304	41.25
718.707	41.38
719.109	41.49
719.512	41.6
719.915	41.69
720.317	41.77
720.719	41.86
721.122	41.96
721.524	42.05
721.926	42.15
722.328	42.26
722.731	42.35
723.133	42.44
723.535	42.51
723.937	42.59
724.338	42.68
724.74	42.74
725.142	42.87
725.544	42.92
725.945	42.98
726.347	43.03
726.748	43.05
727.15	43.09
727.551	43.15
727.952	43.2
728.354	43.26
728.755	43.28
729.156	43.34
729.557	43.33
729.958	43.37
730.359	43.42
730.76	43.47
731.161	43.5
731.562	43.56
731.962	43.59
732.363	43.64
732.763	43.67
733.164	43.7
733.564	43.73
733.965	43.76
734.365	43.79
734.766	43.82
735.166	43.85
735.566	43.87
735.966	43.9
736.366	43.91
736.766	43.92
737.166	43.93
737.566	43.96
737.966	43.98
738.365	44.01
738.765	44.04
739.165	44.06
739.564	44.08
739.964	44.08
740.363	44.09
740.763	44.12
741.162	44.1
741.561	44.1
741.96	44.09
742.36	44.08
742.759	44.09
743.158	44.09
743.557	44.08
743.955	44.09
744.354	44.13
744.753	44.17
745.152	44.19
745.55	44.25
745.949	44.29
746.348	44.34
746.746	44.37
747.144	44.41
747.543	44.41
747.941	44.44
748.339	44.46
748.737	44.46
749.136	44.45
749.534	44.44
749.932	44.42
750.33	44.43
750.727	44.43
751.125	44.42
751.523	44.4
751.921	44.42
752.318	44.4
752.716	44.39
753.113	44.38
753.511	44.36
753.908	44.37
754.305	44.36
754.703	44.33
755.1	44.3
755.497	44.31
755.894	44.28
756.291	44.27
756.688	44.26
757.085	44.27
757.482	44.23
757.878	44.23
758.275	44.21
758.672	44.19
759.068	44.2
759.465	44.2
759.861	44.19
760.258	44.21
760.654	44.19
761.05	44.2
761.447	44.19
761.843	44.19
762.239	44.19
762.635	44.2
763.031	44.23
763.427	44.23
763.822	44.24
764.218	44.26
764.614	44.24
765.01	44.25
765.405	44.24
765.801	44.22
766.196	44.24
766.592	44.24
766.987	44.23
767.382	44.2
767.778	44.18
768.173	44.17
768.568	44.16
768.963	44.16
769.358	44.18
769.753	44.18
770.148	44.2
770.542	44.19
770.937	44.21
771.332	44.2
771.726	44.23
772.121	44.23
772.515	44.24
772.91	44.21
773.304	44.22
773.699	44.22
774.093	44.22
774.487	44.23
774.881	44.25
775.275	44.23
775.669	44.22
