Data from N_3_DIV_IL_4N_Splice17_14-16-42-934.txt Node
Date: Sat Mar 07 14:16:42 EST 2020
User: sa697716
Spectrometer: NQ5500242
Trigger mode: 0
Integration Time (sec): 1.450000E-1
Scans to average: 20
Nonlinearity correction enabled: false
Boxcar width: 5
Storing dark spectrum: false
XAxis mode: Wavelengths
Number of Pixels in Spectrum: 512
>>>>>Begin Spectral Data<<<<<
187.83	146.45
188.298	164.04
188.766	148.64
189.233	133.26
189.701	129.32
190.169	125.01
190.636	144.96
191.104	167.65
191.571	167.83
192.039	335.2
192.506	768
192.974	21.94
193.441	80.57
193.908	30.27
194.375	94.07
194.842	85.3
195.31	117.44
195.777	138.64
196.244	78.89
196.711	77.17
197.177	79
197.644	78.69
198.111	78.15
198.578	78.37
199.045	78.22
199.511	77.51
199.978	77.45
200.445	77.41
200.911	77.63
201.378	77.65
201.844	77.76
202.31	77.56
202.777	77.63
203.243	77.79
203.709	77.49
204.176	77.33
204.642	77.14
205.108	76.7
205.574	76.18
206.04	75.64
206.506	74.67
206.972	74.41
207.438	73.77
207.903	72.73
208.369	71.57
208.835	70.24
209.301	68.87
209.766	66.87
210.232	65.22
210.697	63.29
211.163	61.9
211.628	60.7
212.094	58.96
212.559	57.6
213.024	56.33
213.49	54.83
213.955	53.66
214.42	52.5
214.885	51.42
215.35	49.82
215.815	47.65
216.28	44.87
216.745	41.81
217.21	38.86
217.675	35.98
218.14	33.46
218.604	31.24
219.069	29.27
219.534	27.65
219.998	26.27
220.463	25.14
220.927	24.14
221.392	23.31
221.856	22.66
222.32	22.05
222.785	21.54
223.249	21.05
223.713	20.64
224.177	20.31
224.642	19.91
225.106	19.56
225.57	19.21
226.034	18.9
226.497	18.61
226.961	18.31
227.425	18.02
227.889	17.71
228.353	17.44
228.816	17.17
229.28	16.9
229.744	16.66
230.207	16.41
230.671	16.18
231.134	15.97
231.597	15.76
232.061	15.55
232.524	15.35
232.987	15.16
233.45	14.98
233.914	14.78
234.377	14.59
234.84	14.42
235.303	14.27
235.766	14.12
236.229	13.96
236.691	13.82
237.154	13.67
237.617	13.54
238.08	13.41
238.542	13.28
239.005	13.18
239.468	13.05
239.93	12.94
240.393	12.82
240.855	12.67
241.317	12.54
241.78	12.43
242.242	12.3
242.704	12.18
243.166	12.07
243.629	11.95
244.091	11.82
244.553	11.71
245.015	11.59
245.477	11.49
245.939	11.4
246.4	11.31
246.862	11.21
247.324	11.13
247.786	11.03
248.247	10.93
248.709	10.82
249.17	10.72
249.632	10.64
250.093	10.56
250.555	10.47
251.016	10.39
251.477	10.3
251.939	10.22
252.4	10.14
252.861	10.05
253.322	9.99
253.783	9.94
254.244	9.89
254.705	9.82
255.166	9.74
255.627	9.68
256.088	9.62
256.549	9.56
257.009	9.49
257.47	9.43
257.931	9.38
258.391	9.3
258.852	9.23
259.312	9.17
259.773	9.11
260.233	9.05
260.694	9
261.154	8.93
261.614	8.88
262.074	8.83
262.534	8.77
262.994	8.72
263.455	8.68
263.915	8.64
264.374	8.59
264.834	8.56
265.294	8.52
265.754	8.49
266.214	8.46
266.673	8.43
267.133	8.39
267.593	8.37
268.052	8.34
268.512	8.32
268.971	8.29
269.431	8.27
269.89	8.24
270.349	8.22
270.809	8.18
271.268	8.17
271.727	8.14
272.186	8.12
272.645	8.1
273.104	8.08
273.563	8.06
274.022	8.04
274.481	8.02
274.94	8
275.399	7.98
275.857	7.97
276.316	7.95
276.775	7.93
277.233	7.92
277.692	7.9
278.15	7.88
278.609	7.86
279.067	7.85
279.525	7.83
279.984	7.81
280.442	7.79
280.9	7.77
281.358	7.76
281.816	7.75
282.274	7.72
282.732	7.71
283.19	7.7
283.648	7.67
284.106	7.65
284.564	7.64
285.021	7.63
285.479	7.62
285.937	7.61
286.394	7.58
286.852	7.56
287.309	7.54
287.767	7.51
288.224	7.49
288.682	7.47
289.139	7.45
289.596	7.41
290.053	7.38
290.511	7.35
290.968	7.31
291.425	7.29
291.882	7.26
292.339	7.23
292.796	7.2
293.252	7.18
293.709	7.15
294.166	7.13
294.623	7.12
295.079	7.1
295.536	7.08
295.992	7.06
296.449	7.04
296.905	7.03
297.362	7.01
297.818	6.99
298.274	6.97
298.731	6.95
299.187	6.93
299.643	6.9
300.099	6.88
300.555	6.86
301.011	6.84
301.467	6.82
301.923	6.8
302.379	6.79
302.835	6.77
303.291	6.75
303.746	6.74
304.202	6.74
304.658	6.73
305.113	6.72
305.569	6.72
306.024	6.7
306.479	6.7
306.935	6.69
307.39	6.69
307.845	6.69
308.301	6.69
308.756	6.69
309.211	6.69
309.666	6.69
310.121	6.69
310.576	6.69
311.031	6.69
311.486	6.68
311.94	6.68
312.395	6.68
312.85	6.68
313.305	6.68
313.759	6.68
314.214	6.67
314.668	6.66
315.123	6.64
315.577	6.64
316.032	6.62
316.486	6.61
316.94	6.58
317.394	6.55
317.849	6.52
318.303	6.5
318.757	6.46
319.211	6.44
319.665	6.42
320.119	6.4
320.572	6.38
321.026	6.35
321.48	6.34
321.934	6.33
322.387	6.32
322.841	6.31
323.295	6.29
323.748	6.28
324.202	6.27
324.655	6.26
325.108	6.25
325.562	6.24
326.015	6.24
326.468	6.23
326.921	6.22
327.374	6.21
327.827	6.21
328.28	6.21
328.733	6.2
329.186	6.19
329.639	6.18
330.092	6.19
330.545	6.18
330.997	6.17
331.45	6.17
331.903	6.17
332.355	6.17
332.808	6.18
333.26	6.18
333.713	6.19
334.165	6.18
334.617	6.19
335.069	6.18
335.522	6.18
335.974	6.2
336.426	6.2
336.878	6.2
337.33	6.19
337.782	6.17
338.234	6.17
338.686	6.16
339.137	6.17
339.589	6.14
340.041	6.15
340.493	6.13
340.944	6.09
341.396	6.07
341.847	6.05
342.299	6.03
342.75	6.01
343.201	5.98
343.653	5.96
344.104	5.93
344.555	5.92
345.006	5.9
345.457	5.88
345.908	5.87
346.359	5.86
346.81	5.85
347.261	5.84
347.712	5.84
348.163	5.82
348.613	5.82
349.064	5.82
349.515	5.8
349.965	5.8
350.416	5.79
350.866	5.79
351.317	5.78
351.767	5.79
352.217	5.78
352.668	5.77
353.118	5.77
353.568	5.77
354.018	5.78
354.468	5.79
354.918	5.79
355.368	5.81
355.818	5.81
356.268	5.82
356.718	5.82
357.168	5.82
357.617	5.82
358.067	5.83
358.517	5.85
358.966	5.86
359.416	5.86
359.865	5.87
360.315	5.87
360.764	5.88
361.213	5.87
361.663	5.87
362.112	5.88
362.561	5.9
363.01	5.91
363.459	5.9
363.908	5.9
364.357	5.91
364.806	5.91
365.255	5.93
365.703	5.95
366.152	5.97
366.601	6
367.05	6.03
367.498	6.05
367.947	6.08
368.395	6.12
368.844	6.15
369.292	6.18
369.74	6.22
370.189	6.25
370.637	6.28
371.085	6.31
371.533	6.33
371.981	6.37
372.429	6.42
372.877	6.47
373.325	6.5
373.773	6.55
374.221	6.6
374.669	6.65
375.116	6.69
375.564	6.75
376.012	6.8
376.459	6.86
376.907	6.92
377.354	6.97
377.801	7.02
378.249	7.07
378.696	7.13
379.143	7.18
379.591	7.23
380.038	7.28
380.485	7.33
380.932	7.38
381.379	7.43
381.826	7.47
382.273	7.52
382.72	7.56
383.166	7.62
383.613	7.66
384.06	7.69
384.506	7.73
384.953	7.78
385.4	7.82
385.846	7.88
386.292	7.92
386.739	7.96
387.185	7.99
387.631	8.03
388.078	8.07
388.524	8.11
388.97	8.15
389.416	8.18
389.862	8.22
390.308	8.25
390.754	8.29
391.2	8.32
391.645	8.35
392.091	8.39
392.537	8.43
392.983	8.45
393.428	8.49
393.874	8.52
394.319	8.54
394.765	8.56
395.21	8.58
395.655	8.6
396.101	8.62
396.546	8.63
396.991	8.66
397.436	8.66
397.881	8.69
398.326	8.69
398.771	8.71
399.216	8.73
399.661	8.75
400.106	8.75
400.551	8.76
400.995	8.74
401.44	8.73
401.885	8.72
402.329	8.7
402.774	8.69
403.218	8.69
403.663	8.68
404.107	8.69
404.551	8.67
404.995	8.66
405.44	8.65
405.884	8.65
406.328	8.65
406.772	8.64
407.216	8.65
407.66	8.64
408.104	8.62
408.547	8.6
408.991	8.59
409.435	8.58
409.879	8.58
410.322	8.58
410.766	8.57
411.209	8.58
411.653	8.59
412.096	8.58
412.54	8.59
412.983	8.59
413.426	8.62
413.869	8.63
414.312	8.64
414.756	8.66
415.199	8.66
415.642	8.67
416.085	8.67
416.527	8.66
416.97	8.65
417.413	8.63
417.856	8.63
418.298	8.6
418.741	8.58
419.184	8.57
419.626	8.56
420.069	8.55
420.511	8.54
420.953	8.53
421.396	8.53
421.838	8.53
422.28	8.53
422.722	8.56
423.164	8.56
423.606	8.55
424.048	8.56
424.49	8.56
424.932	8.54
425.374	8.53
425.816	8.49
426.258	8.46
426.699	8.44
427.141	8.41
427.582	8.4
428.024	8.4
428.465	8.41
428.907	8.39
429.348	8.37
429.789	8.36
430.231	8.36
430.672	8.38
431.113	8.41
431.554	8.43
431.995	8.46
432.436	8.47
432.877	8.46
433.318	8.46
433.759	8.5
434.2	8.53
434.64	8.57
435.081	8.59
435.522	8.62
435.962	8.63
436.403	8.66
436.843	8.68
437.284	8.69
437.724	8.7
438.164	8.71
438.604	8.71
439.045	8.72
439.485	8.71
439.925	8.71
440.365	8.72
440.805	8.73
441.245	8.73
441.685	8.76
442.125	8.79
442.564	8.81
443.004	8.84
443.444	8.87
443.883	8.9
444.323	8.92
444.762	8.94
445.202	8.96
445.641	9
446.081	9.03
446.52	9.03
446.959	9.07
447.398	9.11
447.837	9.14
448.276	9.15
448.716	9.16
449.154	9.21
449.593	9.25
450.032	9.26
450.471	9.24
450.91	9.25
451.349	9.27
451.787	9.25
452.226	9.24
452.664	9.23
453.103	9.23
453.541	9.22
453.98	9.18
454.418	9.15
454.856	9.14
455.295	9.13
455.733	9.09
456.171	9.08
456.609	9.08
457.047	9.06
457.485	9.03
457.923	9
458.361	8.98
458.798	8.97
459.236	8.96
459.674	8.95
460.111	8.93
460.549	8.93
460.987	8.92
461.424	8.92
461.862	8.9
462.299	8.91
462.736	8.91
463.173	8.92
463.611	8.91
464.048	8.9
464.485	8.91
464.922	8.9
465.359	8.9
465.796	8.88
466.233	8.88
466.67	8.88
467.106	8.89
467.543	8.89
467.98	8.89
468.416	8.89
468.853	8.9
469.29	8.9
469.726	8.91
470.162	8.91
470.599	8.92
471.035	8.91
471.471	8.9
471.907	8.89
472.344	8.9
472.78	8.9
473.216	8.89
473.652	8.9
474.088	8.88
474.523	8.89
474.959	8.88
475.395	8.86
475.831	8.85
476.266	8.84
476.702	8.82
477.138	8.8
477.573	8.8
478.008	8.81
478.444	8.79
478.879	8.8
479.314	8.79
479.75	8.79
480.185	8.78
480.62	8.78
481.055	8.78
481.49	8.78
481.925	8.78
482.36	8.76
482.795	8.75
483.229	8.75
483.664	8.75
484.099	8.74
484.534	8.74
484.968	8.75
485.403	8.76
485.837	8.77
486.271	8.79
486.706	8.8
487.14	8.82
487.574	8.83
488.009	8.84
488.443	8.85
488.877	8.88
489.311	8.91
489.745	8.94
490.179	8.97
490.613	9.01
491.046	9.05
491.48	9.09
491.914	9.13
492.348	9.19
492.781	9.25
493.215	9.32
493.648	9.38
494.082	9.44
494.515	9.51
494.948	9.58
495.382	9.66
495.815	9.74
496.248	9.83
496.681	9.92
497.114	10.01
497.547	10.11
497.98	10.2
498.413	10.31
498.846	10.41
499.279	10.53
499.711	10.64
500.144	10.76
500.577	10.89
501.009	11.02
501.442	11.16
501.874	11.31
502.306	11.47
502.739	11.63
503.171	11.79
503.603	11.97
504.036	12.15
504.468	12.32
504.9	12.5
505.332	12.69
505.764	12.9
506.196	13.11
506.627	13.32
507.059	13.54
507.491	13.77
507.923	14.02
508.354	14.27
508.786	14.53
509.217	14.81
509.649	15.09
510.08	15.37
510.512	15.66
510.943	15.95
511.374	16.24
511.805	16.55
512.237	16.86
512.668	17.18
513.099	17.49
513.53	17.81
513.961	18.14
514.391	18.47
514.822	18.82
515.253	19.14
515.684	19.49
516.114	19.84
516.545	20.17
516.975	20.52
517.406	20.86
517.836	21.2
518.267	21.55
518.697	21.86
519.127	22.19
519.558	22.52
519.988	22.87
520.418	23.19
520.848	23.5
521.278	23.82
521.708	24.22
522.138	24.53
522.567	24.82
522.997	25.11
523.427	25.43
523.857	25.71
524.286	25.97
524.716	26.23
525.145	26.48
525.575	26.76
526.004	27
526.433	27.12
526.863	27.35
527.292	27.58
527.721	27.77
528.15	27.96
528.579	28.15
529.008	28.34
529.437	28.5
529.866	28.68
530.295	28.82
530.724	28.98
531.152	29.14
531.581	29.27
532.01	29.4
532.438	29.53
532.867	29.64
533.295	29.74
533.723	29.84
534.152	29.94
534.58	30.03
535.008	30.09
535.436	30.17
535.865	30.25
536.293	30.33
536.721	30.39
537.149	30.45
537.576	30.5
538.004	30.57
538.432	30.62
538.86	30.66
539.287	30.69
539.715	30.74
540.143	30.78
540.57	30.8
540.998	30.81
541.425	30.85
541.852	30.88
542.28	30.92
542.707	30.95
543.134	30.99
543.561	31.04
543.988	31.07
544.415	31.09
544.842	31.1
545.269	31.15
545.696	31.19
546.123	31.21
546.549	31.26
546.976	31.28
547.403	31.32
547.829	31.33
548.256	31.36
548.682	31.4
549.108	31.44
549.535	31.48
549.961	31.51
550.387	31.53
550.813	31.55
551.24	31.54
551.666	31.56
552.092	31.56
552.518	31.56
552.943	31.53
553.369	31.5
553.795	31.47
554.221	31.45
554.646	31.41
555.072	31.38
555.498	31.34
555.923	31.3
556.349	31.23
556.774	31.16
557.199	31.1
557.625	31.05
558.05	30.99
558.475	30.91
558.9	30.82
559.325	30.75
559.75	30.63
560.175	30.53
560.6	30.39
561.025	30.3
561.449	30.18
561.874	30.06
562.299	29.93
562.723	29.79
563.148	29.65
563.572	29.46
563.997	29.3
564.421	29.14
564.846	28.97
565.27	28.82
565.694	28.64
566.118	28.45
566.542	28.27
566.966	28.08
567.39	27.88
567.814	27.68
568.238	27.5
568.662	27.3
569.086	27.12
569.509	26.93
569.933	26.74
570.357	26.55
570.78	26.38
571.204	26.19
571.627	26.03
572.05	25.87
572.474	25.72
572.897	25.58
573.32	25.42
573.743	25.26
574.166	25.14
574.589	24.99
575.012	24.85
575.435	24.72
575.858	24.6
576.281	24.48
576.704	24.35
577.126	24.22
577.549	24.11
577.972	24.01
578.394	23.91
578.817	23.79
579.239	23.69
579.661	23.58
580.084	23.47
580.506	23.38
580.928	23.28
581.35	23.19
581.772	23.1
582.194	22.99
582.616	22.91
583.038	22.83
583.46	22.74
583.882	22.67
584.303	22.57
584.725	22.51
585.147	22.44
585.568	22.37
585.99	22.28
586.411	22.22
586.833	22.14
587.254	22.07
587.675	22
588.096	21.92
588.518	21.85
588.939	21.81
589.36	21.73
589.781	21.66
590.202	21.61
590.623	21.57
591.043	21.51
591.464	21.47
591.885	21.4
592.305	21.36
592.726	21.33
593.147	21.29
593.567	21.26
593.987	21.22
594.408	21.17
594.828	21.14
595.248	21.1
595.669	21.06
596.089	21.04
596.509	21.02
596.929	20.99
597.349	20.94
597.769	20.9
598.189	20.86
598.608	20.82
599.028	20.78
599.448	20.72
599.867	20.66
600.287	20.62
600.706	20.57
601.126	20.51
601.545	20.44
601.965	20.39
602.384	20.33
602.803	20.25
603.222	20.18
603.641	20.11
604.061	20.04
604.48	19.98
604.898	19.89
605.317	19.81
605.736	19.73
606.155	19.64
606.574	19.55
606.992	19.48
607.411	19.39
607.829	19.28
608.248	19.18
608.666	19.08
609.085	18.98
609.503	18.89
609.921	18.8
610.339	18.71
610.758	18.63
611.176	18.53
611.594	18.44
612.012	18.36
612.43	18.29
612.847	18.22
613.265	18.14
613.683	18.07
614.101	17.99
614.518	17.9
614.936	17.81
615.353	17.72
615.771	17.65
616.188	17.57
616.606	17.5
617.023	17.44
617.44	17.39
617.857	17.32
618.274	17.25
618.691	17.18
619.108	17.14
619.525	17.1
619.942	17.07
620.359	17.01
620.776	16.99
621.192	16.95
621.609	16.91
622.026	16.87
622.442	16.84
622.859	16.81
623.275	16.8
623.691	16.77
624.108	16.74
624.524	16.71
624.94	16.71
625.356	16.68
625.772	16.66
626.188	16.64
626.604	16.62
627.02	16.6
627.436	16.58
627.852	16.57
628.268	16.55
628.683	16.53
629.099	16.52
629.514	16.49
629.93	16.48
630.345	16.44
630.761	16.39
631.176	16.35
631.591	16.29
632.007	16.25
632.422	16.18
632.837	16.12
633.252	16.05
633.667	15.97
634.082	15.89
634.497	15.79
634.911	15.69
635.326	15.59
635.741	15.51
636.155	15.4
636.57	15.29
636.984	15.18
637.399	15.05
637.813	14.91
638.228	14.76
638.642	14.61
639.056	14.47
639.47	14.34
639.884	14.22
640.298	14.07
640.712	13.94
641.126	13.79
641.54	13.65
641.954	13.51
642.368	13.38
642.781	13.25
643.195	13.13
643.609	13
644.022	12.86
644.436	12.73
644.849	12.61
645.262	12.49
645.676	12.39
646.089	12.29
646.502	12.19
646.915	12.11
647.328	12.03
647.741	11.95
648.154	11.88
648.567	11.82
648.98	11.76
649.393	11.72
649.805	11.67
650.218	11.62
650.631	11.59
651.043	11.54
651.456	11.5
651.868	11.46
652.28	11.42
652.693	11.37
653.105	11.32
653.517	11.28
653.929	11.22
654.341	11.15
654.753	11.08
655.165	11.01
655.577	10.95
655.989	10.87
656.401	10.8
656.813	10.72
657.224	10.65
657.636	10.55
658.047	10.46
658.459	10.36
658.87	10.27
659.282	10.18
659.693	10.09
660.104	9.99
660.515	9.9
660.926	9.8
661.338	9.71
661.749	9.62
662.159	9.55
662.57	9.47
662.981	9.4
663.392	9.34
663.803	9.28
664.213	9.21
664.624	9.15
665.035	9.11
665.445	9.06
665.855	9.01
666.266	8.96
666.676	8.92
667.086	8.88
667.497	8.84
667.907	8.8
668.317	8.78
668.727	8.76
669.137	8.75
669.547	8.74
669.956	8.72
670.366	8.73
670.776	8.72
671.186	8.71
671.595	8.71
672.005	8.71
672.414	8.72
672.824	8.73
673.233	8.75
673.642	8.76
674.052	8.77
674.461	8.79
674.87	8.81
675.279	8.85
675.688	8.9
676.097	8.94
676.506	8.98
676.915	9.03
677.323	9.08
677.732	9.12
678.141	9.19
678.549	9.25
678.958	9.32
679.366	9.39
679.775	9.46
680.183	9.55
680.592	9.65
681	9.75
681.408	9.86
681.816	9.98
682.224	10.13
682.632	10.28
683.04	10.45
683.448	10.63
683.856	10.82
684.264	11.04
684.671	11.28
685.079	11.55
685.487	11.85
685.894	12.17
686.302	12.52
686.709	12.89
687.116	13.28
687.524	13.7
687.931	14.16
688.338	14.64
688.745	15.14
689.152	15.66
689.559	16.22
689.966	16.79
690.373	17.37
690.78	17.99
691.187	18.61
691.593	19.26
692	19.92
692.407	20.56
692.813	21.24
693.22	21.92
693.626	22.62
694.032	23.31
694.439	24.01
694.845	24.73
695.251	25.43
695.657	26.13
696.063	26.83
696.469	27.53
696.875	28.24
697.281	28.93
697.687	29.62
698.093	30.3
698.498	30.95
698.904	31.61
699.31	32.24
699.715	32.88
700.12	33.51
700.526	34.1
700.931	34.69
701.337	35.28
701.742	35.83
702.147	36.4
702.552	36.94
702.957	37.47
703.362	38
703.767	38.52
704.172	39.03
704.577	39.51
704.981	40.01
705.386	40.51
705.791	40.98
706.195	41.46
706.6	41.91
707.004	42.36
707.408	42.82
707.813	43.27
708.217	43.72
708.621	44.14
709.025	44.55
709.43	44.95
709.834	45.38
710.237	45.77
710.641	46.14
711.045	46.51
711.449	46.88
711.853	47.26
712.256	47.61
712.66	47.95
713.064	48.28
713.467	48.63
713.87	48.95
714.274	49.26
714.677	49.59
715.08	49.92
715.484	50.23
715.887	50.56
716.29	50.84
716.693	51.12
717.096	51.42
717.499	51.69
717.901	51.97
718.304	52.26
718.707	52.54
719.109	52.79
719.512	53.03
719.915	53.29
720.317	53.5
720.719	53.75
721.122	54
721.524	54.21
721.926	54.45
722.328	54.68
722.731	54.88
723.133	55.09
723.535	55.27
723.937	55.48
724.338	55.64
724.74	55.82
725.142	56.03
725.544	56.17
725.945	56.35
726.347	56.5
726.748	56.63
727.15	56.77
727.551	56.91
727.952	57.05
728.354	57.18
728.755	57.32
729.156	57.43
729.557	57.51
729.958	57.61
730.359	57.71
730.76	57.82
731.161	57.95
731.562	58.06
731.962	58.13
732.363	58.25
732.763	58.34
733.164	58.39
733.564	58.48
733.965	58.57
734.365	58.67
734.766	58.75
735.166	58.81
735.566	58.87
735.966	58.94
736.366	59
736.766	59.02
737.166	59.07
737.566	59.16
737.966	59.23
738.365	59.25
738.765	59.33
739.165	59.38
739.564	59.43
739.964	59.46
740.363	59.47
740.763	59.51
741.162	59.57
741.561	59.6
741.96	59.63
742.36	59.65
742.759	59.72
743.158	59.72
743.557	59.72
743.955	59.76
744.354	59.78
744.753	59.86
745.152	59.92
745.55	59.98
745.949	60.03
746.348	60.08
746.746	60.12
747.144	60.15
747.543	60.18
747.941	60.23
748.339	60.24
748.737	60.29
749.136	60.28
749.534	60.27
749.932	60.27
750.33	60.27
750.727	60.28
751.125	60.28
751.523	60.26
751.921	60.25
752.318	60.25
752.716	60.24
753.113	60.23
753.511	60.25
753.908	60.28
754.305	60.27
754.703	60.25
755.1	60.23
755.497	60.23
755.894	60.22
756.291	60.24
756.688	60.2
757.085	60.18
757.482	60.17
757.878	60.15
758.275	60.11
758.672	60.12
759.068	60.14
759.465	60.12
759.861	60.11
760.258	60.11
760.654	60.1
761.05	60.12
761.447	60.12
761.843	60.1
762.239	60.1
762.635	60.09
763.031	60.07
763.427	60.04
763.822	60.04
764.218	60.06
764.614	60.09
765.01	60.08
765.405	60.11
765.801	60.09
766.196	60.12
766.592	60.12
766.987	60.12
767.382	60.11
767.778	60.13
768.173	60.16
768.568	60.12
768.963	60.1
769.358	60.11
769.753	60.1
770.148	60.13
770.542	60.1
770.937	60.09
771.332	60.08
771.726	60.07
772.121	60.05
772.515	60.03
772.91	60.02
773.304	60.02
773.699	60.02
774.093	59.98
774.487	59.99
774.881	60.03
775.275	60.02
775.669	60.05
776.063	60.07
776.457	60.08
776.851	60.08
777.245	60.06
777.638	60.02
778.032	60.03
778.425	60.08
