Data from N_3_DIV_WI_4N_Splice17_13-52-57-968.txt Node
Date: Sat Mar 07 13:52:57 EST 2020
User: sa697716
Spectrometer: NQ5500242
Trigger mode: 0
Integration Time (sec): 1.450000E-1
Scans to average: 20
Nonlinearity correction enabled: false
Boxcar width: 5
Storing dark spectrum: false
XAxis mode: Wavelengths
Number of Pixels in Spectrum: 512
>>>>>Begin Spectral Data<<<<<
187.83	232.13
188.298	250.7
188.766	240.41
189.233	202.16
189.701	207.8
190.169	243.82
190.636	245.64
191.104	332.01
191.571	42.39
192.039	-67.41
192.506	-381.4
192.974	105.02
193.441	152.68
193.908	108.02
194.375	84.54
194.842	42.25
195.31	117.32
195.777	66.41
196.244	50.39
196.711	39.2
197.177	39.82
197.644	38.3
198.111	37.72
198.578	38.54
199.045	38.85
199.511	39.63
199.978	39.47
200.445	39.26
200.911	39.57
201.378	39.14
201.844	39.34
202.31	39.02
202.777	39.12
203.243	39.09
203.709	38.47
204.176	38.01
204.642	37.37
205.108	37.36
205.574	37.05
206.04	36.35
206.506	36.25
206.972	35.88
207.438	35.42
207.903	34.77
208.369	34.28
208.835	33.78
209.301	33.11
209.766	31.76
210.232	30.81
210.697	30.04
211.163	29.28
211.628	28.49
212.094	27.56
212.559	26.87
213.024	26.25
213.49	25.68
213.955	25.08
214.42	24.53
214.885	24.11
215.35	23.21
215.815	22.21
216.28	20.63
216.745	18.87
217.21	17.29
217.675	15.82
218.14	14.57
218.604	13.35
219.069	12.35
219.534	11.52
219.998	10.79
220.463	10.24
220.927	9.68
221.392	9.35
221.856	9.05
222.32	8.75
222.785	8.5
223.249	8.24
223.713	8.04
224.177	7.89
224.642	7.71
225.106	7.53
225.57	7.35
226.034	7.22
226.497	7.08
226.961	6.95
227.425	6.84
227.889	6.73
228.353	6.62
228.816	6.51
229.28	6.41
229.744	6.33
230.207	6.25
230.671	6.18
231.134	6.09
231.597	6.02
232.061	5.94
232.524	5.86
232.987	5.78
233.45	5.72
233.914	5.66
234.377	5.57
234.84	5.5
235.303	5.45
235.766	5.4
236.229	5.34
236.691	5.28
237.154	5.24
237.617	5.19
238.08	5.14
238.542	5.09
239.005	5.05
239.468	5.02
239.93	4.97
240.393	4.93
240.855	4.88
241.317	4.83
241.78	4.78
242.242	4.73
242.704	4.7
243.166	4.66
243.629	4.64
244.091	4.59
244.553	4.54
245.015	4.5
245.477	4.45
245.939	4.41
246.4	4.38
246.862	4.35
247.324	4.32
247.786	4.28
248.247	4.25
248.709	4.19
249.17	4.15
249.632	4.12
250.093	4.1
250.555	4.08
251.016	4.05
251.477	4.03
251.939	4.01
252.4	3.98
252.861	3.96
253.322	3.94
253.783	3.93
254.244	3.92
254.705	3.9
255.166	3.87
255.627	3.85
256.088	3.84
256.549	3.81
257.009	3.79
257.47	3.76
257.931	3.73
258.391	3.7
258.852	3.67
259.312	3.64
259.773	3.61
260.233	3.6
260.694	3.58
261.154	3.55
261.614	3.53
262.074	3.5
262.534	3.49
262.994	3.47
263.455	3.45
263.915	3.43
264.374	3.42
264.834	3.41
265.294	3.38
265.754	3.37
266.214	3.36
266.673	3.35
267.133	3.34
267.593	3.33
268.052	3.33
268.512	3.32
268.971	3.32
269.431	3.31
269.89	3.3
270.349	3.3
270.809	3.28
271.268	3.28
271.727	3.27
272.186	3.26
272.645	3.26
273.104	3.25
273.563	3.23
274.022	3.23
274.481	3.23
274.94	3.23
275.399	3.21
275.857	3.2
276.316	3.19
276.775	3.18
277.233	3.18
277.692	3.18
278.15	3.17
278.609	3.17
279.067	3.16
279.525	3.15
279.984	3.14
280.442	3.14
280.9	3.14
281.358	3.14
281.816	3.14
282.274	3.14
282.732	3.12
283.19	3.12
283.648	3.11
284.106	3.11
284.564	3.1
285.021	3.1
285.479	3.1
285.937	3.08
286.394	3.06
286.852	3.05
287.309	3.04
287.767	3.04
288.224	3.02
288.682	3.01
289.139	3
289.596	2.99
290.053	2.97
290.511	2.96
290.968	2.95
291.425	2.94
291.882	2.93
292.339	2.92
292.796	2.91
293.252	2.9
293.709	2.9
294.166	2.9
294.623	2.89
295.079	2.88
295.536	2.87
295.992	2.87
296.449	2.86
296.905	2.86
297.362	2.85
297.818	2.85
298.274	2.84
298.731	2.83
299.187	2.82
299.643	2.8
300.099	2.8
300.555	2.79
301.011	2.78
301.467	2.78
301.923	2.77
302.379	2.76
302.835	2.76
303.291	2.76
303.746	2.75
304.202	2.76
304.658	2.77
305.113	2.76
305.569	2.76
306.024	2.75
306.479	2.75
306.935	2.75
307.39	2.75
307.845	2.75
308.301	2.75
308.756	2.75
309.211	2.75
309.666	2.76
310.121	2.76
310.576	2.76
311.031	2.76
311.486	2.77
311.94	2.77
312.395	2.77
312.85	2.76
313.305	2.76
313.759	2.76
314.214	2.74
314.668	2.73
315.123	2.73
315.577	2.72
316.032	2.72
316.486	2.71
316.94	2.71
317.394	2.7
317.849	2.7
318.303	2.69
318.757	2.68
319.211	2.68
319.665	2.67
320.119	2.66
320.572	2.66
321.026	2.66
321.48	2.65
321.934	2.64
322.387	2.63
322.841	2.63
323.295	2.64
323.748	2.64
324.202	2.64
324.655	2.64
325.108	2.64
325.562	2.63
326.015	2.63
326.468	2.62
326.921	2.62
327.374	2.62
327.827	2.62
328.28	2.61
328.733	2.61
329.186	2.61
329.639	2.61
330.092	2.61
330.545	2.61
330.997	2.61
331.45	2.61
331.903	2.62
332.355	2.62
332.808	2.61
333.26	2.61
333.713	2.61
334.165	2.6
334.617	2.6
335.069	2.6
335.522	2.59
335.974	2.6
336.426	2.6
336.878	2.59
337.33	2.59
337.782	2.6
338.234	2.6
338.686	2.6
339.137	2.6
339.589	2.6
340.041	2.59
340.493	2.59
340.944	2.57
341.396	2.56
341.847	2.55
342.299	2.55
342.75	2.54
343.201	2.52
343.653	2.51
344.104	2.5
344.555	2.49
345.006	2.47
345.457	2.47
345.908	2.46
346.359	2.46
346.81	2.45
347.261	2.45
347.712	2.44
348.163	2.44
348.613	2.44
349.064	2.44
349.515	2.44
349.965	2.45
350.416	2.44
350.866	2.44
351.317	2.43
351.767	2.44
352.217	2.44
352.668	2.44
353.118	2.45
353.568	2.44
354.018	2.44
354.468	2.44
354.918	2.44
355.368	2.45
355.818	2.45
356.268	2.46
356.718	2.46
357.168	2.45
357.617	2.44
358.067	2.44
358.517	2.45
358.966	2.46
359.416	2.46
359.865	2.46
360.315	2.45
360.764	2.46
361.213	2.45
361.663	2.45
362.112	2.47
362.561	2.48
363.01	2.48
363.459	2.47
363.908	2.46
364.357	2.47
364.806	2.47
365.255	2.48
365.703	2.49
366.152	2.5
366.601	2.51
367.05	2.51
367.498	2.51
367.947	2.52
368.395	2.53
368.844	2.54
369.292	2.54
369.74	2.56
370.189	2.57
370.637	2.58
371.085	2.59
371.533	2.6
371.981	2.61
372.429	2.63
372.877	2.65
373.325	2.67
373.773	2.67
374.221	2.69
374.669	2.7
375.116	2.71
375.564	2.73
376.012	2.76
376.459	2.79
376.907	2.82
377.354	2.85
377.801	2.89
378.249	2.91
378.696	2.95
379.143	2.98
379.591	3.02
380.038	3.06
380.485	3.11
380.932	3.15
381.379	3.18
381.826	3.22
382.273	3.26
382.72	3.28
383.166	3.33
383.613	3.38
384.06	3.42
384.506	3.46
384.953	3.51
385.4	3.55
385.846	3.6
386.292	3.64
386.739	3.68
387.185	3.73
387.631	3.78
388.078	3.83
388.524	3.88
388.97	3.93
389.416	3.98
389.862	4.03
390.308	4.09
390.754	4.15
391.2	4.19
391.645	4.24
392.091	4.3
392.537	4.36
392.983	4.41
393.428	4.47
393.874	4.51
394.319	4.56
394.765	4.6
395.21	4.62
395.655	4.65
396.101	4.69
396.546	4.72
396.991	4.76
397.436	4.78
397.881	4.81
398.326	4.83
398.771	4.86
399.216	4.87
399.661	4.89
400.106	4.91
400.551	4.93
400.995	4.94
401.44	4.95
401.885	4.94
402.329	4.95
402.774	4.96
403.218	4.98
403.663	4.99
404.107	5
404.551	5
404.995	5.01
405.44	5
405.884	5.01
406.328	5.02
406.772	5.04
407.216	5.03
407.66	5.03
408.104	5
408.547	5
408.991	5.01
409.435	5
409.879	5
410.322	5.02
410.766	5.03
411.209	5.04
411.653	5.03
412.096	5.05
412.54	5.05
412.983	5.06
413.426	5.08
413.869	5.08
414.312	5.09
414.756	5.1
415.199	5.1
415.642	5.11
416.085	5.1
416.527	5.09
416.97	5.07
417.413	5.06
417.856	5.05
418.298	5.03
418.741	5.03
419.184	5.01
419.626	5
420.069	5
420.511	4.99
420.953	5
421.396	5.03
421.838	5.02
422.28	5.02
422.722	5.03
423.164	5.03
423.606	5.02
424.048	5.01
424.49	5.01
424.932	4.99
425.374	4.95
425.816	4.93
426.258	4.89
426.699	4.88
427.141	4.87
427.582	4.85
428.024	4.84
428.465	4.83
428.907	4.83
429.348	4.81
429.789	4.8
430.231	4.82
430.672	4.84
431.113	4.84
431.554	4.84
431.995	4.84
432.436	4.85
432.877	4.87
433.318	4.88
433.759	4.88
434.2	4.9
434.64	4.89
435.081	4.89
435.522	4.89
435.962	4.92
436.403	4.94
436.843	4.95
437.284	4.94
437.724	4.95
438.164	4.94
438.604	4.96
439.045	4.96
439.485	4.97
439.925	4.97
440.365	4.99
440.805	4.98
441.245	5.01
441.685	5.03
442.125	5.05
442.564	5.05
443.004	5.07
443.444	5.1
443.883	5.13
444.323	5.13
444.762	5.16
445.202	5.17
445.641	5.21
446.081	5.23
446.52	5.24
446.959	5.27
447.398	5.31
447.837	5.34
448.276	5.35
448.716	5.38
449.154	5.41
449.593	5.43
450.032	5.45
450.471	5.45
450.91	5.45
451.349	5.48
451.787	5.47
452.226	5.46
452.664	5.46
453.103	5.46
453.541	5.46
453.98	5.48
454.418	5.47
454.856	5.47
455.295	5.47
455.733	5.45
456.171	5.44
456.609	5.44
457.047	5.44
457.485	5.44
457.923	5.44
458.361	5.44
458.798	5.43
459.236	5.43
459.674	5.43
460.111	5.41
460.549	5.42
460.987	5.43
461.424	5.43
461.862	5.43
462.299	5.43
462.736	5.43
463.173	5.42
463.611	5.43
464.048	5.44
464.485	5.44
464.922	5.44
465.359	5.44
465.796	5.46
466.233	5.46
466.67	5.46
467.106	5.47
467.543	5.46
467.98	5.46
468.416	5.44
468.853	5.45
469.29	5.46
469.726	5.46
470.162	5.46
470.599	5.44
471.035	5.43
471.471	5.43
471.907	5.42
472.344	5.42
472.78	5.43
473.216	5.43
473.652	5.43
474.088	5.41
474.523	5.41
474.959	5.4
475.395	5.41
475.831	5.42
476.266	5.43
476.702	5.42
477.138	5.44
477.573	5.43
478.008	5.45
478.444	5.45
478.879	5.46
479.314	5.47
479.75	5.48
480.185	5.46
480.62	5.46
481.055	5.46
481.49	5.45
481.925	5.46
482.36	5.47
482.795	5.46
483.229	5.46
483.664	5.48
484.099	5.48
484.534	5.5
484.968	5.53
485.403	5.54
485.837	5.56
486.271	5.58
486.706	5.6
487.14	5.61
487.574	5.64
488.009	5.66
488.443	5.68
488.877	5.71
489.311	5.74
489.745	5.78
490.179	5.83
490.613	5.88
491.046	5.93
491.48	5.98
491.914	6.03
492.348	6.09
492.781	6.15
493.215	6.22
493.648	6.29
494.082	6.35
494.515	6.42
494.948	6.49
495.382	6.56
495.815	6.64
496.248	6.73
496.681	6.82
497.114	6.91
497.547	7
497.98	7.1
498.413	7.19
498.846	7.29
499.279	7.4
499.711	7.51
500.144	7.62
500.577	7.74
501.009	7.86
501.442	8
501.874	8.15
502.306	8.29
502.739	8.45
503.171	8.62
503.603	8.78
504.036	8.95
504.468	9.12
504.9	9.31
505.332	9.49
505.764	9.69
506.196	9.88
506.627	10.08
507.059	10.3
507.491	10.5
507.923	10.71
508.354	10.93
508.786	11.16
509.217	11.4
509.649	11.63
510.08	11.88
510.512	12.13
510.943	12.37
511.374	12.62
511.805	12.87
512.237	13.13
512.668	13.4
513.099	13.67
513.53	13.94
513.961	14.22
514.391	14.5
514.822	14.79
515.253	15.07
515.684	15.35
516.114	15.64
516.545	15.93
516.975	16.22
517.406	16.5
517.836	16.78
518.267	17.08
518.697	17.35
519.127	17.63
519.558	17.89
519.988	18.16
520.418	18.43
520.848	18.69
521.278	18.95
521.708	19.41
522.138	19.67
522.567	19.92
522.997	20.14
523.427	20.39
523.857	20.63
524.286	20.85
524.716	21.07
525.145	21.29
525.575	21.5
526.004	21.72
526.433	21.7
526.863	21.88
527.292	22.07
527.721	22.23
528.15	22.39
528.579	22.54
529.008	22.7
529.437	22.84
529.866	22.96
530.295	23.1
530.724	23.22
531.152	23.35
531.581	23.48
532.01	23.6
532.438	23.71
532.867	23.81
533.295	23.9
533.723	23.99
534.152	24.06
534.58	24.15
535.008	24.22
535.436	24.3
535.865	24.35
536.293	24.4
536.721	24.45
537.149	24.5
537.576	24.55
538.004	24.61
538.432	24.65
538.86	24.7
539.287	24.73
539.715	24.77
540.143	24.8
540.57	24.84
540.998	24.85
541.425	24.89
541.852	24.92
542.28	24.94
542.707	24.97
543.134	24.99
543.561	25.03
543.988	25.06
544.415	25.1
544.842	25.11
545.269	25.12
545.696	25.17
546.123	25.2
546.549	25.23
546.976	25.27
547.403	25.29
547.829	25.32
548.256	25.35
548.682	25.37
549.108	25.4
549.535	25.43
549.961	25.45
550.387	25.46
550.813	25.46
551.24	25.47
551.666	25.46
552.092	25.47
552.518	25.46
552.943	25.45
553.369	25.45
553.795	25.43
554.221	25.42
554.646	25.38
555.072	25.36
555.498	25.33
555.923	25.29
556.349	25.25
556.774	25.21
557.199	25.16
557.625	25.09
558.05	25.02
558.475	24.96
558.9	24.88
559.325	24.84
559.75	24.77
560.175	24.7
560.6	24.63
561.025	24.56
561.449	24.47
561.874	24.38
562.299	24.31
562.723	24.22
563.148	24.12
563.572	24.02
563.997	23.9
564.421	23.76
564.846	23.66
565.27	23.54
565.694	23.4
566.118	23.29
566.542	23.18
566.966	23.05
567.39	22.92
567.814	22.79
568.238	22.67
568.662	22.55
569.086	22.44
569.509	22.3
569.933	22.17
570.357	22.05
570.78	21.92
571.204	21.8
571.627	21.68
572.05	21.56
572.474	21.45
572.897	21.33
573.32	21.21
573.743	21.1
574.166	20.99
574.589	20.87
575.012	20.77
575.435	20.66
575.858	20.56
576.281	20.45
576.704	20.36
577.126	20.27
577.549	20.17
577.972	20.09
578.394	20
578.817	19.93
579.239	19.86
579.661	19.78
580.084	19.7
580.506	19.63
580.928	19.56
581.35	19.49
581.772	19.4
582.194	19.32
582.616	19.25
583.038	19.18
583.46	19.09
583.882	19.02
584.303	18.96
584.725	18.89
585.147	18.84
585.568	18.78
585.99	18.71
586.411	18.66
586.833	18.6
587.254	18.55
587.675	18.48
588.096	18.44
588.518	18.39
588.939	18.35
589.36	18.3
589.781	18.23
590.202	18.19
590.623	18.16
591.043	18.11
591.464	18.09
591.885	18.04
592.305	18.02
592.726	17.99
593.147	17.94
593.567	17.9
593.987	17.87
594.408	17.84
594.828	17.79
595.248	17.76
595.669	17.73
596.089	17.69
596.509	17.66
596.929	17.62
597.349	17.58
597.769	17.55
598.189	17.51
598.608	17.48
599.028	17.45
599.448	17.41
599.867	17.37
600.287	17.32
600.706	17.28
601.126	17.25
601.545	17.21
601.965	17.19
602.384	17.15
602.803	17.1
603.222	17.06
603.641	17
604.061	16.96
604.48	16.91
604.898	16.86
605.317	16.8
605.736	16.74
606.155	16.68
606.574	16.6
606.992	16.53
607.411	16.47
607.829	16.38
608.248	16.29
608.666	16.2
609.085	16.14
609.503	16.07
609.921	16
610.339	15.92
610.758	15.85
611.176	15.77
611.594	15.7
612.012	15.61
612.43	15.55
612.847	15.48
613.265	15.41
613.683	15.33
614.101	15.26
614.518	15.18
614.936	15.11
615.353	15.02
615.771	14.96
616.188	14.89
616.606	14.83
617.023	14.78
617.44	14.74
617.857	14.69
618.274	14.64
618.691	14.58
619.108	14.54
619.525	14.49
619.942	14.46
620.359	14.41
620.776	14.37
621.192	14.34
621.609	14.31
622.026	14.26
622.442	14.24
622.859	14.2
623.275	14.18
623.691	14.15
624.108	14.13
624.524	14.11
624.94	14.11
625.356	14.1
625.772	14.07
626.188	14.06
626.604	14.05
627.02	14.02
627.436	14.01
627.852	14
628.268	13.99
628.683	13.97
629.099	13.96
629.514	13.93
629.93	13.9
630.345	13.88
630.761	13.84
631.176	13.8
631.591	13.76
632.007	13.72
632.422	13.68
632.837	13.62
633.252	13.56
633.667	13.48
634.082	13.41
634.497	13.34
634.911	13.26
635.326	13.18
635.741	13.1
636.155	13.01
636.57	12.91
636.984	12.8
637.399	12.68
637.813	12.57
638.228	12.46
638.642	12.33
639.056	12.2
639.47	12.08
639.884	11.95
640.298	11.81
640.712	11.67
641.126	11.53
641.54	11.38
641.954	11.25
642.368	11.11
642.781	10.99
643.195	10.86
643.609	10.74
644.022	10.61
644.436	10.5
644.849	10.37
645.262	10.26
645.676	10.14
646.089	10.06
646.502	9.96
646.915	9.88
647.328	9.79
647.741	9.72
648.154	9.65
648.567	9.59
648.98	9.53
649.393	9.48
649.805	9.43
650.218	9.39
650.631	9.34
651.043	9.29
651.456	9.24
651.868	9.18
652.28	9.13
652.693	9.08
653.105	9.03
653.517	8.97
653.929	8.91
654.341	8.84
654.753	8.77
655.165	8.71
655.577	8.63
655.989	8.54
656.401	8.46
656.813	8.38
657.224	8.27
657.636	8.15
658.047	8.06
658.459	7.95
658.87	7.84
659.282	7.72
659.693	7.59
660.104	7.47
660.515	7.36
660.926	7.24
661.338	7.12
661.749	7.01
662.159	6.91
662.57	6.81
662.981	6.71
663.392	6.61
663.803	6.53
664.213	6.44
664.624	6.36
665.035	6.28
665.445	6.21
665.855	6.14
666.266	6.08
666.676	6.03
667.086	5.97
667.497	5.92
667.907	5.86
668.317	5.82
668.727	5.78
669.137	5.75
669.547	5.71
669.956	5.68
670.366	5.65
670.776	5.63
671.186	5.6
671.595	5.58
672.005	5.56
672.414	5.56
672.824	5.55
673.233	5.54
673.642	5.55
674.052	5.56
674.461	5.56
674.87	5.56
675.279	5.58
675.688	5.6
676.097	5.63
676.506	5.66
676.915	5.69
677.323	5.72
677.732	5.75
678.141	5.8
678.549	5.85
678.958	5.91
679.366	5.99
679.775	6.06
680.183	6.15
680.592	6.25
681	6.37
681.408	6.5
681.816	6.64
682.224	6.8
682.632	6.98
683.04	7.16
683.448	7.36
683.856	7.57
684.264	7.82
684.671	8.09
685.079	8.36
685.487	8.68
685.894	9.01
686.302	9.38
686.709	9.77
687.116	10.16
687.524	10.59
687.931	11.04
688.338	11.5
688.745	11.98
689.152	12.47
689.559	12.98
689.966	13.5
690.373	14.03
690.78	14.56
691.187	15.09
691.593	15.66
692	16.21
692.407	16.75
692.813	17.33
693.22	17.89
693.626	18.46
694.032	19.02
694.439	19.57
694.845	20.14
695.251	20.7
695.657	21.24
696.063	21.76
696.469	22.3
696.875	22.84
697.281	23.33
697.687	23.84
698.093	24.33
698.498	24.81
698.904	25.28
699.31	25.72
699.715	26.17
700.12	26.64
700.526	27.08
700.931	27.5
701.337	27.91
701.742	28.31
702.147	28.7
702.552	29.08
702.957	29.46
703.362	29.84
703.767	30.19
704.172	30.53
704.577	30.85
704.981	31.19
705.386	31.52
705.791	31.84
706.195	32.16
706.6	32.47
707.004	32.77
707.408	33.08
707.813	33.36
708.217	33.64
708.621	33.93
709.025	34.19
709.43	34.44
709.834	34.69
710.237	34.93
710.641	35.15
711.045	35.38
711.449	35.64
711.853	35.9
712.256	36.09
712.66	36.3
713.064	36.51
713.467	36.73
713.87	36.95
714.274	37.14
714.677	37.36
715.08	37.56
715.484	37.75
715.887	37.92
716.29	38.05
716.693	38.26
717.096	38.43
717.499	38.61
717.901	38.77
718.304	38.93
718.707	39.09
719.109	39.24
719.512	39.39
719.915	39.55
720.317	39.66
720.719	39.8
721.122	39.91
721.524	40.05
721.926	40.17
722.328	40.31
722.731	40.42
723.133	40.55
723.535	40.66
723.937	40.8
724.338	40.9
724.74	41
725.142	41.23
725.544	41.36
725.945	41.48
726.347	41.55
726.748	41.63
727.15	41.71
727.551	41.8
727.952	41.88
728.354	41.94
728.755	42.01
729.156	42.09
729.557	42
729.958	42.05
730.359	42.1
730.76	42.17
731.161	42.22
731.562	42.29
731.962	42.3
732.363	42.36
732.763	42.41
733.164	42.45
733.564	42.5
733.965	42.58
734.365	42.63
734.766	42.67
735.166	42.71
735.566	42.75
735.966	42.81
736.366	42.86
736.766	42.88
737.166	42.91
737.566	42.93
737.966	42.93
738.365	42.96
738.765	43.01
739.165	43.02
739.564	43.04
739.964	43.08
740.363	43.08
740.763	43.09
741.162	43.13
741.561	43.15
741.96	43.18
742.36	43.21
742.759	43.24
743.158	43.23
743.557	43.24
743.955	43.26
744.354	43.26
744.753	43.28
745.152	43.31
745.55	43.32
745.949	43.33
746.348	43.35
746.746	43.35
747.144	43.37
747.543	43.37
747.941	43.38
748.339	43.38
748.737	43.39
749.136	43.39
749.534	43.39
749.932	43.39
750.33	43.39
750.727	43.38
751.125	43.41
751.523	43.37
751.921	43.4
752.318	43.41
752.716	43.42
753.113	43.42
753.511	43.43
753.908	43.46
754.305	43.49
754.703	43.49
755.1	43.51
755.497	43.5
755.894	43.5
756.291	43.49
756.688	43.48
757.085	43.48
757.482	43.48
757.878	43.49
758.275	43.47
758.672	43.45
759.068	43.47
759.465	43.46
759.861	43.46
760.258	43.48
760.654	43.5
761.05	43.52
761.447	43.53
761.843	43.55
762.239	43.55
762.635	43.54
763.031	43.54
763.427	43.52
763.822	43.54
764.218	43.54
764.614	43.56
765.01	43.54
765.405	43.54
765.801	43.52
766.196	43.53
766.592	43.52
766.987	43.51
767.382	43.5
767.778	43.52
768.173	43.54
768.568	43.53
768.963	43.5
769.358	43.5
769.753	43.49
770.148	43.49
770.542	43.48
770.937	43.48
771.332	43.49
771.726	43.51
772.121	43.5
772.515	43.49
772.91	43.48
773.304	43.5
773.699	43.5
774.093	43.5
774.487	43.49
774.881	43.49
775.275	43.48
775.669	43.49
776.063	43.47
776.457	43.44
776.851	43.42
777.245	43.41
777.638	43.4
778.032	43.42
778.425	43.45
778.819	43.46
779.212	43.45
779.606	43.48
779.999	43.46
780.392	43.49
780.786	43.51
781.179	43.55
781.572	43.59
781.965	43.59
782.358	43.59
782.751	43.58
