Data from N_3_DEC_ON_6N_Splice17_14-25-31-297.txt Node
Date: Sat Mar 07 14:25:31 EST 2020
User: sa697716
Spectrometer: NQ5500242
Trigger mode: 0
Integration Time (sec): 1.450000E-1
Scans to average: 20
Nonlinearity correction enabled: false
Boxcar width: 5
Storing dark spectrum: false
XAxis mode: Wavelengths
Number of Pixels in Spectrum: 512
>>>>>Begin Spectral Data<<<<<
187.83	95.41
188.298	110.95
188.766	75.36
189.233	57.4
189.701	40.49
190.169	58.84
190.636	22.63
191.104	-55.43
191.571	-186.71
192.039	-134.17
192.506	-267.15
192.974	104.22
193.441	216.1
193.908	32.16
194.375	-8.95
194.842	-96.09
195.31	-64.07
195.777	-414.07
196.244	30.6
196.711	64.03
197.177	68.8
197.644	69.64
198.111	69.43
198.578	69.27
199.045	69.84
199.511	69.53
199.978	69.51
200.445	69.56
200.911	69.77
201.378	70
201.844	69.82
202.31	69.33
202.777	69.45
203.243	69.46
203.709	69.16
204.176	68.5
204.642	68.31
205.108	68.08
205.574	67.41
206.04	66.91
206.506	66.39
206.972	65.98
207.438	65.36
207.903	64.15
208.369	62.64
208.835	61.44
209.301	60.09
209.766	58.59
210.232	56.91
210.697	55.36
211.163	53.79
211.628	52.18
212.094	50.67
212.559	49.43
213.024	48.14
213.49	47.07
213.955	45.85
214.42	44.71
214.885	43.21
215.35	41.58
215.815	39.41
216.28	36.67
216.745	33.83
217.21	30.74
217.675	27.93
218.14	25.51
218.604	23.41
219.069	21.6
219.534	20.08
219.998	18.83
220.463	17.78
220.927	16.83
221.392	16.11
221.856	15.51
222.32	15.02
222.785	14.58
223.249	14.18
223.713	13.83
224.177	13.53
224.642	13.25
225.106	12.97
225.57	12.7
226.034	12.48
226.497	12.28
226.961	12.05
227.425	11.84
227.889	11.66
228.353	11.47
228.816	11.28
229.28	11.09
229.744	10.93
230.207	10.76
230.671	10.61
231.134	10.47
231.597	10.33
232.061	10.2
232.524	10.07
232.987	9.93
233.45	9.83
233.914	9.71
234.377	9.6
234.84	9.49
235.303	9.42
235.766	9.32
236.229	9.22
236.691	9.14
237.154	9.07
237.617	8.99
238.08	8.93
238.542	8.85
239.005	8.8
239.468	8.72
239.93	8.67
240.393	8.58
240.855	8.52
241.317	8.45
241.78	8.38
242.242	8.29
242.704	8.23
243.166	8.17
243.629	8.1
244.091	8.03
244.553	7.98
245.015	7.91
245.477	7.85
245.939	7.8
246.4	7.75
246.862	7.7
247.324	7.66
247.786	7.6
248.247	7.54
248.709	7.48
249.17	7.42
249.632	7.37
250.093	7.33
250.555	7.28
251.016	7.25
251.477	7.2
251.939	7.15
252.4	7.11
252.861	7.07
253.322	7.04
253.783	7.02
254.244	7
254.705	6.97
255.166	6.94
255.627	6.91
256.088	6.88
256.549	6.86
257.009	6.83
257.47	6.79
257.931	6.75
258.391	6.71
258.852	6.67
259.312	6.64
259.773	6.6
260.233	6.57
260.694	6.53
261.154	6.49
261.614	6.47
262.074	6.43
262.534	6.4
262.994	6.38
263.455	6.36
263.915	6.35
264.374	6.32
264.834	6.31
265.294	6.29
265.754	6.28
266.214	6.26
266.673	6.25
267.133	6.24
267.593	6.23
268.052	6.22
268.512	6.2
268.971	6.19
269.431	6.18
269.89	6.17
270.349	6.16
270.809	6.14
271.268	6.13
271.727	6.12
272.186	6.11
272.645	6.11
273.104	6.1
273.563	6.1
274.022	6.09
274.481	6.09
274.94	6.08
275.399	6.07
275.857	6.07
276.316	6.07
276.775	6.06
277.233	6.06
277.692	6.05
278.15	6.05
278.609	6.04
279.067	6.04
279.525	6.03
279.984	6.03
280.442	6.03
280.9	6.03
281.358	6.03
281.816	6.03
282.274	6.03
282.732	6.02
283.19	6.02
283.648	6.01
284.106	6
284.564	6
285.021	6
285.479	5.99
285.937	5.99
286.394	5.99
286.852	5.98
287.309	5.98
287.767	5.98
288.224	5.97
288.682	5.96
289.139	5.95
289.596	5.94
290.053	5.92
290.511	5.91
290.968	5.89
291.425	5.87
291.882	5.85
292.339	5.84
292.796	5.82
293.252	5.81
293.709	5.8
294.166	5.79
294.623	5.78
295.079	5.78
295.536	5.77
295.992	5.77
296.449	5.76
296.905	5.76
297.362	5.74
297.818	5.73
298.274	5.74
298.731	5.73
299.187	5.73
299.643	5.73
300.099	5.72
300.555	5.71
301.011	5.71
301.467	5.71
301.923	5.71
302.379	5.71
302.835	5.72
303.291	5.71
303.746	5.7
304.202	5.7
304.658	5.69
305.113	5.69
305.569	5.7
306.024	5.7
306.479	5.71
306.935	5.71
307.39	5.71
307.845	5.71
308.301	5.72
308.756	5.72
309.211	5.73
309.666	5.74
310.121	5.74
310.576	5.74
311.031	5.74
311.486	5.74
311.94	5.75
312.395	5.75
312.85	5.75
313.305	5.76
313.759	5.76
314.214	5.76
314.668	5.75
315.123	5.76
315.577	5.76
316.032	5.77
316.486	5.76
316.94	5.75
317.394	5.74
317.849	5.73
318.303	5.72
318.757	5.71
319.211	5.69
319.665	5.68
320.119	5.66
320.572	5.64
321.026	5.63
321.48	5.62
321.934	5.61
322.387	5.6
322.841	5.6
323.295	5.6
323.748	5.6
324.202	5.6
324.655	5.6
325.108	5.61
325.562	5.6
326.015	5.6
326.468	5.61
326.921	5.61
327.374	5.61
327.827	5.6
328.28	5.6
328.733	5.6
329.186	5.59
329.639	5.6
330.092	5.6
330.545	5.6
330.997	5.6
331.45	5.59
331.903	5.6
332.355	5.6
332.808	5.62
333.26	5.62
333.713	5.62
334.165	5.62
334.617	5.62
335.069	5.62
335.522	5.63
335.974	5.64
336.426	5.65
336.878	5.65
337.33	5.66
337.782	5.66
338.234	5.66
338.686	5.66
339.137	5.67
339.589	5.67
340.041	5.66
340.493	5.65
340.944	5.63
341.396	5.61
341.847	5.59
342.299	5.57
342.75	5.55
343.201	5.54
343.653	5.53
344.104	5.5
344.555	5.49
345.006	5.48
345.457	5.47
345.908	5.46
346.359	5.46
346.81	5.45
347.261	5.44
347.712	5.43
348.163	5.42
348.613	5.42
349.064	5.41
349.515	5.41
349.965	5.41
350.416	5.4
350.866	5.4
351.317	5.39
351.767	5.4
352.217	5.4
352.668	5.41
353.118	5.42
353.568	5.43
354.018	5.44
354.468	5.45
354.918	5.46
355.368	5.47
355.818	5.48
356.268	5.48
356.718	5.49
357.168	5.49
357.617	5.49
358.067	5.49
358.517	5.5
358.966	5.5
359.416	5.5
359.865	5.51
360.315	5.52
360.764	5.52
361.213	5.52
361.663	5.52
362.112	5.54
362.561	5.55
363.01	5.54
363.459	5.53
363.908	5.53
364.357	5.54
364.806	5.54
365.255	5.55
365.703	5.56
366.152	5.58
366.601	5.59
367.05	5.61
367.498	5.61
367.947	5.64
368.395	5.68
368.844	5.71
369.292	5.73
369.74	5.76
370.189	5.78
370.637	5.8
371.085	5.83
371.533	5.86
371.981	5.87
372.429	5.91
372.877	5.95
373.325	5.97
373.773	6.01
374.221	6.04
374.669	6.08
375.116	6.11
375.564	6.15
376.012	6.2
376.459	6.25
376.907	6.31
377.354	6.36
377.801	6.42
378.249	6.48
378.696	6.54
379.143	6.6
379.591	6.67
380.038	6.75
380.485	6.82
380.932	6.89
381.379	6.96
381.826	7.03
382.273	7.1
382.72	7.17
383.166	7.24
383.613	7.32
384.06	7.38
384.506	7.45
384.953	7.52
385.4	7.59
385.846	7.67
386.292	7.75
386.739	7.82
387.185	7.89
387.631	7.97
388.078	8.04
388.524	8.1
388.97	8.17
389.416	8.25
389.862	8.31
390.308	8.38
390.754	8.43
391.2	8.48
391.645	8.54
392.091	8.6
392.537	8.67
392.983	8.73
393.428	8.8
393.874	8.85
394.319	8.89
394.765	8.93
395.21	8.97
395.655	9.01
396.101	9.07
396.546	9.1
396.991	9.14
397.436	9.17
397.881	9.21
398.326	9.25
398.771	9.28
399.216	9.33
399.661	9.38
400.106	9.41
400.551	9.43
400.995	9.43
401.44	9.43
401.885	9.43
402.329	9.44
402.774	9.43
403.218	9.45
403.663	9.45
404.107	9.45
404.551	9.45
404.995	9.45
405.44	9.45
405.884	9.45
406.328	9.45
406.772	9.45
407.216	9.45
407.66	9.46
408.104	9.44
408.547	9.43
408.991	9.42
409.435	9.41
409.879	9.41
410.322	9.41
410.766	9.41
411.209	9.42
411.653	9.44
412.096	9.45
412.54	9.44
412.983	9.44
413.426	9.47
413.869	9.47
414.312	9.49
414.756	9.5
415.199	9.51
415.642	9.52
416.085	9.53
416.527	9.51
416.97	9.48
417.413	9.47
417.856	9.43
418.298	9.4
418.741	9.38
419.184	9.37
419.626	9.36
420.069	9.34
420.511	9.33
420.953	9.33
421.396	9.32
421.838	9.33
422.28	9.32
422.722	9.36
423.164	9.36
423.606	9.37
424.048	9.36
424.49	9.35
424.932	9.34
425.374	9.31
425.816	9.28
426.258	9.24
426.699	9.2
427.141	9.18
427.582	9.16
428.024	9.15
428.465	9.15
428.907	9.14
429.348	9.11
429.789	9.1
430.231	9.11
430.672	9.13
431.113	9.14
431.554	9.19
431.995	9.2
432.436	9.21
432.877	9.22
433.318	9.23
433.759	9.25
434.2	9.27
434.64	9.28
435.081	9.28
435.522	9.3
435.962	9.33
436.403	9.35
436.843	9.38
437.284	9.39
437.724	9.39
438.164	9.38
438.604	9.4
439.045	9.4
439.485	9.41
439.925	9.43
440.365	9.45
440.805	9.46
441.245	9.46
441.685	9.48
442.125	9.52
442.564	9.55
443.004	9.59
443.444	9.62
443.883	9.67
444.323	9.7
444.762	9.74
445.202	9.78
445.641	9.83
446.081	9.88
446.52	9.91
446.959	9.97
447.398	10.04
447.837	10.07
448.276	10.11
448.716	10.17
449.154	10.24
449.593	10.28
450.032	10.29
450.471	10.32
450.91	10.33
451.349	10.36
451.787	10.36
452.226	10.35
452.664	10.36
453.103	10.35
453.541	10.34
453.98	10.34
454.418	10.34
454.856	10.34
455.295	10.32
455.733	10.3
456.171	10.28
456.609	10.27
457.047	10.25
457.485	10.23
457.923	10.23
458.361	10.21
458.798	10.19
459.236	10.16
459.674	10.15
460.111	10.15
460.549	10.16
460.987	10.16
461.424	10.16
461.862	10.16
462.299	10.15
462.736	10.13
463.173	10.13
463.611	10.13
464.048	10.12
464.485	10.11
464.922	10.11
465.359	10.11
465.796	10.09
466.233	10.1
466.67	10.1
467.106	10.12
467.543	10.14
467.98	10.15
468.416	10.15
468.853	10.18
469.29	10.19
469.726	10.2
470.162	10.2
470.599	10.21
471.035	10.22
471.471	10.23
471.907	10.24
472.344	10.23
472.78	10.25
473.216	10.24
473.652	10.25
474.088	10.24
474.523	10.24
474.959	10.24
475.395	10.23
475.831	10.24
476.266	10.24
476.702	10.23
477.138	10.24
477.573	10.25
478.008	10.26
478.444	10.25
478.879	10.26
479.314	10.25
479.75	10.25
480.185	10.24
480.62	10.24
481.055	10.23
481.49	10.22
481.925	10.22
482.36	10.21
482.795	10.21
483.229	10.21
483.664	10.21
484.099	10.22
484.534	10.23
484.968	10.25
485.403	10.26
485.837	10.28
486.271	10.32
486.706	10.34
487.14	10.36
487.574	10.39
488.009	10.43
488.443	10.47
488.877	10.51
489.311	10.56
489.745	10.61
490.179	10.67
490.613	10.73
491.046	10.79
491.48	10.85
491.914	10.92
492.348	11.01
492.781	11.09
493.215	11.17
493.648	11.27
494.082	11.37
494.515	11.46
494.948	11.55
495.382	11.65
495.815	11.76
496.248	11.87
496.681	11.99
497.114	12.11
497.547	12.22
497.98	12.35
498.413	12.47
498.846	12.59
499.279	12.71
499.711	12.86
500.144	13.01
500.577	13.16
501.009	13.31
501.442	13.46
501.874	13.62
502.306	13.78
502.739	13.96
503.171	14.14
503.603	14.32
504.036	14.51
504.468	14.68
504.9	14.86
505.332	15.05
505.764	15.24
506.196	15.45
506.627	15.66
507.059	15.87
507.491	16.07
507.923	16.28
508.354	16.52
508.786	16.75
509.217	16.99
509.649	17.23
510.08	17.48
510.512	17.72
510.943	17.96
511.374	18.2
511.805	18.46
512.237	18.71
512.668	18.96
513.099	19.18
513.53	19.42
513.961	19.68
514.391	19.92
514.822	20.16
515.253	20.39
515.684	20.63
516.114	20.86
516.545	21.09
516.975	21.34
517.406	21.56
517.836	21.79
518.267	22.04
518.697	22.24
519.127	22.46
519.558	22.68
519.988	22.91
520.418	23.11
520.848	23.32
521.278	23.52
521.708	23.81
522.138	24
522.567	24.2
522.997	24.39
523.427	24.57
523.857	24.75
524.286	24.89
524.716	25.04
525.145	25.21
525.575	25.36
526.004	25.51
526.433	25.54
526.863	25.69
527.292	25.83
527.721	25.95
528.15	26.09
528.579	26.19
529.008	26.32
529.437	26.43
529.866	26.53
530.295	26.64
530.724	26.71
531.152	26.8
531.581	26.87
532.01	26.93
532.438	27.01
532.867	27.07
533.295	27.14
533.723	27.2
534.152	27.26
534.58	27.32
535.008	27.35
535.436	27.41
535.865	27.45
536.293	27.49
536.721	27.53
537.149	27.56
537.576	27.57
538.004	27.61
538.432	27.64
538.86	27.66
539.287	27.65
539.715	27.68
540.143	27.69
540.57	27.71
540.998	27.72
541.425	27.74
541.852	27.77
542.28	27.8
542.707	27.81
543.134	27.82
543.561	27.85
543.988	27.89
544.415	27.91
544.842	27.94
545.269	27.97
545.696	28
546.123	28.03
546.549	28.05
546.976	28.09
547.403	28.13
547.829	28.15
548.256	28.18
548.682	28.21
549.108	28.24
549.535	28.27
549.961	28.28
550.387	28.29
550.813	28.29
551.24	28.3
551.666	28.31
552.092	28.32
552.518	28.34
552.943	28.32
553.369	28.33
553.795	28.32
554.221	28.32
554.646	28.32
555.072	28.31
555.498	28.3
555.923	28.28
556.349	28.24
556.774	28.21
557.199	28.17
557.625	28.15
558.05	28.11
558.475	28.07
558.9	28.04
559.325	28
559.75	27.97
560.175	27.92
560.6	27.86
561.025	27.81
561.449	27.75
561.874	27.68
562.299	27.59
562.723	27.53
563.148	27.44
563.572	27.33
563.997	27.23
564.421	27.12
564.846	27.04
565.27	26.93
565.694	26.83
566.118	26.72
566.542	26.6
566.966	26.49
567.39	26.37
567.814	26.26
568.238	26.15
568.662	26.04
569.086	25.91
569.509	25.81
569.933	25.7
570.357	25.59
570.78	25.47
571.204	25.38
571.627	25.29
572.05	25.19
572.474	25.09
572.897	25
573.32	24.91
573.743	24.84
574.166	24.75
574.589	24.66
575.012	24.58
575.435	24.51
575.858	24.43
576.281	24.35
576.704	24.28
577.126	24.21
577.549	24.15
577.972	24.09
578.394	24.01
578.817	23.94
579.239	23.89
579.661	23.83
580.084	23.77
580.506	23.71
580.928	23.67
581.35	23.61
581.772	23.55
582.194	23.49
582.616	23.45
583.038	23.41
583.46	23.36
583.882	23.3
584.303	23.25
584.725	23.21
585.147	23.17
585.568	23.11
585.99	23.08
586.411	23.03
586.833	22.99
587.254	22.93
587.675	22.88
588.096	22.84
588.518	22.8
588.939	22.77
589.36	22.72
589.781	22.68
590.202	22.64
590.623	22.6
591.043	22.57
591.464	22.54
591.885	22.5
592.305	22.47
592.726	22.46
593.147	22.42
593.567	22.38
593.987	22.36
594.408	22.33
594.828	22.31
595.248	22.28
595.669	22.25
596.089	22.22
596.509	22.2
596.929	22.17
597.349	22.12
597.769	22.1
598.189	22.07
598.608	22.03
599.028	22
599.448	21.96
599.867	21.92
600.287	21.9
600.706	21.86
601.126	21.83
601.545	21.79
601.965	21.75
602.384	21.7
602.803	21.65
603.222	21.6
603.641	21.54
604.061	21.5
604.48	21.43
604.898	21.37
605.317	21.32
605.736	21.26
606.155	21.19
606.574	21.14
606.992	21.08
607.411	21.01
607.829	20.92
608.248	20.87
608.666	20.82
609.085	20.76
609.503	20.71
609.921	20.63
610.339	20.57
610.758	20.52
611.176	20.46
611.594	20.4
612.012	20.33
612.43	20.29
612.847	20.23
613.265	20.16
613.683	20.1
614.101	20.03
614.518	19.98
614.936	19.91
615.353	19.85
615.771	19.79
616.188	19.73
616.606	19.7
617.023	19.67
617.44	19.63
617.857	19.59
618.274	19.52
618.691	19.47
619.108	19.43
619.525	19.4
619.942	19.36
620.359	19.33
620.776	19.3
621.192	19.28
621.609	19.25
622.026	19.21
622.442	19.19
622.859	19.17
623.275	19.16
623.691	19.14
624.108	19.12
624.524	19.1
624.94	19.08
625.356	19.07
625.772	19.04
626.188	19.03
626.604	19.03
627.02	19.01
627.436	19.01
627.852	19
628.268	18.98
628.683	18.98
629.099	18.97
629.514	18.96
629.93	18.93
630.345	18.91
630.761	18.87
631.176	18.83
631.591	18.79
632.007	18.72
632.422	18.67
632.837	18.62
633.252	18.55
633.667	18.47
634.082	18.39
634.497	18.32
634.911	18.24
635.326	18.15
635.741	18.05
636.155	17.95
636.57	17.86
636.984	17.75
637.399	17.62
637.813	17.49
638.228	17.36
638.642	17.21
639.056	17.05
639.47	16.92
639.884	16.77
640.298	16.62
640.712	16.49
641.126	16.34
641.54	16.18
641.954	16.04
642.368	15.91
642.781	15.77
643.195	15.65
643.609	15.52
644.022	15.38
644.436	15.27
644.849	15.15
645.262	15.03
645.676	14.92
646.089	14.83
646.502	14.73
646.915	14.64
647.328	14.56
647.741	14.47
648.154	14.41
648.567	14.34
648.98	14.26
649.393	14.2
649.805	14.16
650.218	14.1
650.631	14.05
651.043	14
651.456	13.96
651.868	13.91
652.28	13.88
652.693	13.83
653.105	13.8
653.517	13.75
653.929	13.7
654.341	13.64
654.753	13.57
655.165	13.51
655.577	13.44
655.989	13.36
656.401	13.27
656.813	13.19
657.224	13.09
657.636	12.98
658.047	12.88
658.459	12.77
658.87	12.67
659.282	12.56
659.693	12.44
660.104	12.32
660.515	12.21
660.926	12.1
661.338	11.98
661.749	11.87
662.159	11.75
662.57	11.65
662.981	11.54
663.392	11.42
663.803	11.32
664.213	11.2
664.624	11.1
665.035	11
665.445	10.9
665.855	10.82
666.266	10.74
666.676	10.68
667.086	10.59
667.497	10.53
667.907	10.49
668.317	10.44
668.727	10.4
669.137	10.37
669.547	10.33
669.956	10.3
670.366	10.27
670.776	10.24
671.186	10.21
671.595	10.19
672.005	10.16
672.414	10.15
672.824	10.14
673.233	10.14
673.642	10.14
674.052	10.14
674.461	10.14
674.87	10.15
675.279	10.17
675.688	10.19
676.097	10.22
676.506	10.26
676.915	10.3
677.323	10.34
677.732	10.38
678.141	10.44
678.549	10.51
678.958	10.61
679.366	10.7
679.775	10.81
680.183	10.93
680.592	11.07
681	11.23
681.408	11.4
681.816	11.6
682.224	11.82
682.632	12.06
683.04	12.31
683.448	12.57
683.856	12.86
684.264	13.16
684.671	13.49
685.079	13.83
685.487	14.21
685.894	14.6
686.302	14.99
686.709	15.4
687.116	15.84
687.524	16.29
687.931	16.75
688.338	17.23
688.745	17.71
689.152	18.19
689.559	18.7
689.966	19.2
690.373	19.71
690.78	20.22
691.187	20.73
691.593	21.24
692	21.74
692.407	22.23
692.813	22.73
693.22	23.2
693.626	23.68
694.032	24.15
694.439	24.6
694.845	25.06
695.251	25.49
695.657	25.91
696.063	26.32
696.469	26.76
696.875	27.16
697.281	27.55
697.687	27.95
698.093	28.32
698.498	28.68
698.904	29.05
699.31	29.39
699.715	29.74
700.12	30.07
700.526	30.39
700.931	30.69
701.337	30.97
701.742	31.25
702.147	31.53
702.552	31.83
702.957	32.1
703.362	32.35
703.767	32.58
704.172	32.81
704.577	33.04
704.981	33.28
705.386	33.48
705.791	33.71
706.195	33.93
706.6	34.14
707.004	34.3
707.408	34.49
707.813	34.69
708.217	34.87
708.621	35.06
709.025	35.24
709.43	35.38
709.834	35.57
710.237	35.71
710.641	35.85
711.045	35.98
711.449	36.15
711.853	36.32
712.256	36.45
712.66	36.6
713.064	36.74
713.467	36.88
713.87	37.03
714.274	37.16
714.677	37.32
715.08	37.46
715.484	37.6
715.887	37.74
716.29	37.83
716.693	37.94
717.096	38.05
717.499	38.19
717.901	38.29
718.304	38.4
718.707	38.53
719.109	38.63
719.512	38.73
719.915	38.83
720.317	38.91
720.719	38.98
721.122	39.1
721.524	39.2
721.926	39.26
722.328	39.34
722.731	39.4
723.133	39.49
723.535	39.55
723.937	39.61
724.338	39.66
724.74	39.73
725.142	39.87
725.544	39.91
725.945	39.97
726.347	40.02
726.748	40.06
727.15	40.1
727.551	40.12
727.952	40.17
728.354	40.24
728.755	40.29
729.156	40.33
729.557	40.33
729.958	40.36
730.359	40.39
730.76	40.43
731.161	40.49
731.562	40.55
731.962	40.58
732.363	40.6
732.763	40.61
733.164	40.64
733.564	40.66
733.965	40.68
734.365	40.73
734.766	40.75
735.166	40.77
735.566	40.79
735.966	40.81
736.366	40.83
736.766	40.87
737.166	40.89
737.566	40.91
737.966	40.92
738.365	40.92
738.765	40.95
739.165	40.97
739.564	40.98
739.964	40.99
740.363	40.98
740.763	40.98
741.162	40.98
741.561	41
741.96	40.98
742.36	41.01
742.759	41.04
743.158	41.02
743.557	41.03
743.955	41.03
744.354	41.06
744.753	41.1
745.152	41.15
745.55	41.18
745.949	41.21
746.348	41.26
746.746	41.28
747.144	41.31
747.543	41.32
747.941	41.34
748.339	41.35
748.737	41.35
749.136	41.34
749.534	41.32
749.932	41.32
750.33	41.31
750.727	41.32
751.125	41.32
751.523	41.3
751.921	41.31
752.318	41.32
752.716	41.31
753.113	41.31
753.511	41.33
753.908	41.35
754.305	41.36
754.703	41.34
755.1	41.33
755.497	41.31
755.894	41.29
756.291	41.28
756.688	41.23
757.085	41.25
757.482	41.25
757.878	41.24
758.275	41.2
758.672	41.17
759.068	41.19
759.465	41.18
759.861	41.18
760.258	41.2
760.654	41.2
761.05	41.22
761.447	41.19
761.843	41.18
762.239	41.14
762.635	41.14
763.031	41.16
763.427	41.15
763.822	41.14
764.218	41.16
764.614	41.15
765.01	41.13
765.405	41.12
765.801	41.1
766.196	41.1
766.592	41.12
766.987	41.12
767.382	41.11
767.778	41.09
768.173	41.08
768.568	41.05
768.963	41.05
769.358	41.08
769.753	41.08
770.148	41.1
770.542	41.12
770.937	41.12
771.332	41.15
771.726	41.16
772.121	41.17
772.515	41.19
772.91	41.21
773.304	41.21
773.699	41.18
774.093	41.17
774.487	41.17
774.881	41.16
775.275	41.19
775.669	41.17
