Data from N_3_DIV_OH_2N_Splice17_13-45-53-554.txt Node
Date: Sat Mar 07 13:45:53 EST 2020
User: sa697716
Spectrometer: NQ5500242
Trigger mode: 0
Integration Time (sec): 1.450000E-1
Scans to average: 20
Nonlinearity correction enabled: false
Boxcar width: 5
Storing dark spectrum: false
XAxis mode: Wavelengths
Number of Pixels in Spectrum: 512
>>>>>Begin Spectral Data<<<<<
187.83	270.2
188.298	285.3
188.766	266.88
189.233	216.66
189.701	231.16
190.169	256.27
190.636	280.43
191.104	420.77
191.571	163
192.039	-240.49
192.506	-356.39
192.974	15.45
193.441	6.45
193.908	26.95
194.375	59.53
194.842	7.07
195.31	-1.08
195.777	42.85
196.244	42.42
196.711	28.32
197.177	28.3
197.644	27.07
198.111	26.58
198.578	27.08
199.045	27.02
199.511	26.67
199.978	26.6
200.445	26.81
200.911	26.8
201.378	26.62
201.844	26.7
202.31	26.51
202.777	26.66
203.243	26.93
203.709	26.73
204.176	26.56
204.642	26.42
205.108	26.48
205.574	26.22
206.04	25.48
206.506	25.15
206.972	24.89
207.438	24.57
207.903	24.2
208.369	23.56
208.835	23.24
209.301	22.84
209.766	21.93
210.232	21.45
210.697	20.64
211.163	20.28
211.628	19.75
212.094	19.22
212.559	18.89
213.024	18.5
213.49	18.02
213.955	17.36
214.42	16.76
214.885	16.33
215.35	15.57
215.815	15.09
216.28	14
216.745	12.71
217.21	11.56
217.675	10.41
218.14	9.47
218.604	8.67
219.069	7.97
219.534	7.41
219.998	6.94
220.463	6.55
220.927	6.09
221.392	5.8
221.856	5.57
222.32	5.34
222.785	5.19
223.249	5.03
223.713	4.92
224.177	4.81
224.642	4.7
225.106	4.57
225.57	4.45
226.034	4.4
226.497	4.33
226.961	4.26
227.425	4.21
227.889	4.12
228.353	4.04
228.816	3.96
229.28	3.89
229.744	3.83
230.207	3.77
230.671	3.73
231.134	3.66
231.597	3.63
232.061	3.57
232.524	3.5
232.987	3.46
233.45	3.45
233.914	3.41
234.377	3.37
234.84	3.33
235.303	3.3
235.766	3.28
236.229	3.24
236.691	3.19
237.154	3.16
237.617	3.15
238.08	3.12
238.542	3.07
239.005	3.04
239.468	3.01
239.93	3
240.393	2.98
240.855	2.94
241.317	2.92
241.78	2.9
242.242	2.87
242.704	2.86
243.166	2.83
243.629	2.83
244.091	2.8
244.553	2.78
245.015	2.75
245.477	2.72
245.939	2.7
246.4	2.68
246.862	2.65
247.324	2.63
247.786	2.61
248.247	2.58
248.709	2.54
249.17	2.51
249.632	2.51
250.093	2.5
250.555	2.49
251.016	2.47
251.477	2.45
251.939	2.44
252.4	2.42
252.861	2.4
253.322	2.4
253.783	2.39
254.244	2.39
254.705	2.36
255.166	2.34
255.627	2.32
256.088	2.32
256.549	2.32
257.009	2.29
257.47	2.27
257.931	2.25
258.391	2.23
258.852	2.21
259.312	2.2
259.773	2.19
260.233	2.19
260.694	2.18
261.154	2.16
261.614	2.15
262.074	2.13
262.534	2.12
262.994	2.12
263.455	2.11
263.915	2.11
264.374	2.09
264.834	2.08
265.294	2.07
265.754	2.07
266.214	2.06
266.673	2.06
267.133	2.05
267.593	2.05
268.052	2.04
268.512	2.04
268.971	2.04
269.431	2.04
269.89	2.03
270.349	2.03
270.809	2.02
271.268	2.02
271.727	2.01
272.186	2.02
272.645	2.02
273.104	2.01
273.563	2
274.022	1.99
274.481	1.99
274.94	1.99
275.399	1.98
275.857	1.98
276.316	1.97
276.775	1.97
277.233	1.96
277.692	1.96
278.15	1.96
278.609	1.96
279.067	1.97
279.525	1.96
279.984	1.96
280.442	1.96
280.9	1.96
281.358	1.97
281.816	1.97
282.274	1.96
282.732	1.95
283.19	1.95
283.648	1.94
284.106	1.92
284.564	1.91
285.021	1.92
285.479	1.91
285.937	1.9
286.394	1.89
286.852	1.88
287.309	1.88
287.767	1.87
288.224	1.86
288.682	1.85
289.139	1.85
289.596	1.84
290.053	1.82
290.511	1.82
290.968	1.81
291.425	1.8
291.882	1.8
292.339	1.79
292.796	1.79
293.252	1.79
293.709	1.79
294.166	1.79
294.623	1.78
295.079	1.77
295.536	1.77
295.992	1.77
296.449	1.77
296.905	1.77
297.362	1.77
297.818	1.76
298.274	1.76
298.731	1.76
299.187	1.75
299.643	1.74
300.099	1.75
300.555	1.74
301.011	1.74
301.467	1.74
301.923	1.73
302.379	1.72
302.835	1.73
303.291	1.72
303.746	1.72
304.202	1.72
304.658	1.72
305.113	1.72
305.569	1.72
306.024	1.71
306.479	1.7
306.935	1.7
307.39	1.69
307.845	1.69
308.301	1.69
308.756	1.7
309.211	1.69
309.666	1.7
310.121	1.7
310.576	1.7
311.031	1.71
311.486	1.71
311.94	1.71
312.395	1.71
312.85	1.71
313.305	1.7
313.759	1.7
314.214	1.69
314.668	1.69
315.123	1.69
315.577	1.69
316.032	1.68
316.486	1.67
316.94	1.68
317.394	1.68
317.849	1.67
318.303	1.67
318.757	1.66
319.211	1.66
319.665	1.65
320.119	1.64
320.572	1.63
321.026	1.63
321.48	1.62
321.934	1.61
322.387	1.61
322.841	1.61
323.295	1.62
323.748	1.61
324.202	1.61
324.655	1.62
325.108	1.63
325.562	1.63
326.015	1.63
326.468	1.63
326.921	1.63
327.374	1.63
327.827	1.63
328.28	1.62
328.733	1.62
329.186	1.62
329.639	1.62
330.092	1.61
330.545	1.61
330.997	1.61
331.45	1.61
331.903	1.62
332.355	1.62
332.808	1.61
333.26	1.6
333.713	1.59
334.165	1.59
334.617	1.58
335.069	1.57
335.522	1.57
335.974	1.57
336.426	1.57
336.878	1.57
337.33	1.56
337.782	1.58
338.234	1.59
338.686	1.59
339.137	1.6
339.589	1.59
340.041	1.6
340.493	1.6
340.944	1.59
341.396	1.59
341.847	1.59
342.299	1.58
342.75	1.58
343.201	1.57
343.653	1.56
344.104	1.55
344.555	1.55
345.006	1.54
345.457	1.54
345.908	1.54
346.359	1.54
346.81	1.54
347.261	1.53
347.712	1.52
348.163	1.52
348.613	1.53
349.064	1.54
349.515	1.54
349.965	1.54
350.416	1.53
350.866	1.53
351.317	1.52
351.767	1.52
352.217	1.52
352.668	1.53
353.118	1.53
353.568	1.52
354.018	1.52
354.468	1.53
354.918	1.52
355.368	1.53
355.818	1.53
356.268	1.53
356.718	1.54
357.168	1.53
357.617	1.52
358.067	1.52
358.517	1.54
358.966	1.54
359.416	1.55
359.865	1.55
360.315	1.56
360.764	1.56
361.213	1.56
361.663	1.55
362.112	1.57
362.561	1.58
363.01	1.58
363.459	1.57
363.908	1.56
364.357	1.57
364.806	1.57
365.255	1.57
365.703	1.59
366.152	1.6
366.601	1.61
367.05	1.62
367.498	1.62
367.947	1.64
368.395	1.65
368.844	1.66
369.292	1.65
369.74	1.67
370.189	1.68
370.637	1.69
371.085	1.69
371.533	1.69
371.981	1.71
372.429	1.72
372.877	1.73
373.325	1.73
373.773	1.74
374.221	1.74
374.669	1.75
375.116	1.75
375.564	1.75
376.012	1.76
376.459	1.77
376.907	1.79
377.354	1.8
377.801	1.82
378.249	1.84
378.696	1.86
379.143	1.88
379.591	1.89
380.038	1.91
380.485	1.93
380.932	1.95
381.379	1.98
381.826	2
382.273	2.01
382.72	2.01
383.166	2.03
383.613	2.05
384.06	2.05
384.506	2.08
384.953	2.09
385.4	2.12
385.846	2.13
386.292	2.14
386.739	2.14
387.185	2.16
387.631	2.18
388.078	2.21
388.524	2.22
388.97	2.25
389.416	2.27
389.862	2.3
390.308	2.33
390.754	2.36
391.2	2.4
391.645	2.43
392.091	2.47
392.537	2.5
392.983	2.52
393.428	2.57
393.874	2.63
394.319	2.69
394.765	2.74
395.21	2.78
395.655	2.83
396.101	2.89
396.546	2.96
396.991	3.02
397.436	3.09
397.881	3.17
398.326	3.24
398.771	3.31
399.216	3.35
399.661	3.41
400.106	3.47
400.551	3.51
400.995	3.55
401.44	3.58
401.885	3.62
402.329	3.66
402.774	3.7
403.218	3.77
403.663	3.82
404.107	3.88
404.551	3.94
404.995	3.99
405.44	4.03
405.884	4.08
406.328	4.15
406.772	4.2
407.216	4.26
407.66	4.32
408.104	4.34
408.547	4.38
408.991	4.44
409.435	4.48
409.879	4.54
410.322	4.62
410.766	4.68
411.209	4.75
411.653	4.82
412.096	4.89
412.54	4.94
412.983	4.99
413.426	5.08
413.869	5.13
414.312	5.2
414.756	5.25
415.199	5.29
415.642	5.34
416.085	5.38
416.527	5.38
416.97	5.37
417.413	5.39
417.856	5.4
418.298	5.38
418.741	5.39
419.184	5.38
419.626	5.39
420.069	5.42
420.511	5.44
420.953	5.47
421.396	5.52
421.838	5.57
422.28	5.6
422.722	5.66
423.164	5.69
423.606	5.73
424.048	5.76
424.49	5.77
424.932	5.75
425.374	5.68
425.816	5.59
426.258	5.51
426.699	5.44
427.141	5.42
427.582	5.44
428.024	5.48
428.465	5.53
428.907	5.57
429.348	5.6
429.789	5.67
430.231	5.79
430.672	5.96
431.113	6.14
431.554	6.31
431.995	6.44
432.436	6.55
432.877	6.64
433.318	6.72
433.759	6.8
434.2	6.91
434.64	7
435.081	7.09
435.522	7.18
435.962	7.24
436.403	7.3
436.843	7.36
437.284	7.39
437.724	7.45
438.164	7.5
438.604	7.57
439.045	7.64
439.485	7.73
439.925	7.79
440.365	7.83
440.805	7.86
441.245	7.92
441.685	7.95
442.125	8.02
442.564	8.05
443.004	8.13
443.444	8.2
443.883	8.28
444.323	8.33
444.762	8.4
445.202	8.48
445.641	8.61
446.081	8.71
446.52	8.85
446.959	8.97
447.398	9.06
447.837	9.12
448.276	9.15
448.716	9.19
449.154	9.23
449.593	9.27
450.032	9.29
450.471	9.26
450.91	9.24
451.349	9.21
451.787	9.18
452.226	9.17
452.664	9.16
453.103	9.17
453.541	9.18
453.98	9.19
454.418	9.15
454.856	9.13
455.295	9.11
455.733	9.08
456.171	9.07
456.609	9.06
457.047	9.04
457.485	9.04
457.923	9.06
458.361	9.07
458.798	9.08
459.236	9.12
459.674	9.13
460.111	9.15
460.549	9.19
460.987	9.22
461.424	9.26
461.862	9.29
462.299	9.32
462.736	9.34
463.173	9.37
463.611	9.42
464.048	9.49
464.485	9.57
464.922	9.65
465.359	9.73
465.796	9.84
466.233	9.89
466.67	9.97
467.106	10.06
467.543	10.15
467.98	10.25
468.416	10.32
468.853	10.38
469.29	10.44
469.726	10.5
470.162	10.57
470.599	10.61
471.035	10.68
471.471	10.74
471.907	10.77
472.344	10.8
472.78	10.83
473.216	10.86
473.652	10.9
474.088	10.92
474.523	10.96
474.959	10.97
475.395	10.97
475.831	10.98
476.266	11
476.702	11
477.138	11.02
477.573	11.03
478.008	11.03
478.444	11.01
478.879	10.99
479.314	10.95
479.75	10.9
480.185	10.84
480.62	10.76
481.055	10.64
481.49	10.49
481.925	10.32
482.36	10.15
482.795	10
483.229	9.88
483.664	9.8
484.099	9.73
484.534	9.67
484.968	9.64
485.403	9.63
485.837	9.68
486.271	9.77
486.706	9.86
487.14	9.92
487.574	9.97
488.009	10.02
488.443	10.04
488.877	10.09
489.311	10.14
489.745	10.19
490.179	10.25
490.613	10.31
491.046	10.36
491.48	10.42
491.914	10.51
492.348	10.62
492.781	10.72
493.215	10.83
493.648	10.91
494.082	10.99
494.515	11.06
494.948	11.14
495.382	11.2
495.815	11.27
496.248	11.35
496.681	11.43
497.114	11.49
497.547	11.55
497.98	11.63
498.413	11.74
498.846	11.87
499.279	12
499.711	12.13
500.144	12.27
500.577	12.44
501.009	12.62
501.442	12.85
501.874	13.09
502.306	13.34
502.739	13.6
503.171	13.82
503.603	14.04
504.036	14.27
504.468	14.52
504.9	14.77
505.332	15.03
505.764	15.28
506.196	15.51
506.627	15.77
507.059	16.03
507.491	16.29
507.923	16.6
508.354	16.93
508.786	17.24
509.217	17.54
509.649	17.83
510.08	18.1
510.512	18.39
510.943	18.7
511.374	19.02
511.805	19.3
512.237	19.52
512.668	19.71
513.099	19.89
513.53	20.1
513.961	20.36
514.391	20.62
514.822	20.95
515.253	21.29
515.684	21.64
516.114	22
516.545	22.4
516.975	22.88
517.406	23.39
517.836	23.91
518.267	24.4
518.697	24.84
519.127	25.29
519.558	25.72
519.988	26.13
520.418	26.53
520.848	26.89
521.278	27.24
521.708	27.77
522.138	28.01
522.567	28.22
522.997	28.42
523.427	28.67
523.857	28.93
524.286	29.2
524.716	29.45
525.145	29.69
525.575	29.92
526.004	30.15
526.433	30.18
526.863	30.48
527.292	30.8
527.721	31.07
528.15	31.29
528.579	31.45
529.008	31.57
529.437	31.66
529.866	31.77
530.295	31.86
530.724	31.97
531.152	32.08
531.581	32.17
532.01	32.25
532.438	32.32
532.867	32.41
533.295	32.52
533.723	32.62
534.152	32.72
534.58	32.8
535.008	32.85
535.436	32.88
535.865	32.89
536.293	32.88
536.721	32.89
537.149	32.94
537.576	33.01
538.004	33.07
538.432	33.11
538.86	33.17
539.287	33.24
539.715	33.35
540.143	33.44
540.57	33.57
540.998	33.71
541.425	33.85
541.852	34.01
542.28	34.12
542.707	34.25
543.134	34.38
543.561	34.49
543.988	34.58
544.415	34.67
544.842	34.78
545.269	34.88
545.696	35
546.123	35.1
546.549	35.18
546.976	35.28
547.403	35.37
547.829	35.46
548.256	35.57
548.682	35.68
549.108	35.8
549.535	35.87
549.961	35.94
550.387	36.02
550.813	36.09
551.24	36.16
551.666	36.19
552.092	36.22
552.518	36.22
552.943	36.2
553.369	36.19
553.795	36.14
554.221	36.1
554.646	36.02
555.072	35.9
555.498	35.77
555.923	35.65
556.349	35.54
556.774	35.44
557.199	35.35
557.625	35.27
558.05	35.16
558.475	35.06
558.9	34.96
559.325	34.88
559.75	34.78
560.175	34.68
560.6	34.57
561.025	34.4
561.449	34.2
561.874	33.97
562.299	33.75
562.723	33.53
563.148	33.31
563.572	33.07
563.997	32.82
564.421	32.55
564.846	32.28
565.27	32.03
565.694	31.81
566.118	31.57
566.542	31.32
566.966	31.08
567.39	30.84
567.814	30.61
568.238	30.42
568.662	30.26
569.086	30.11
569.509	29.97
569.933	29.83
570.357	29.69
570.78	29.58
571.204	29.48
571.627	29.38
572.05	29.28
572.474	29.17
572.897	29.05
573.32	28.91
573.743	28.78
574.166	28.65
574.589	28.51
575.012	28.38
575.435	28.27
575.858	28.18
576.281	28.11
576.704	28.02
577.126	27.95
577.549	27.87
577.972	27.8
578.394	27.75
578.817	27.74
579.239	27.71
579.661	27.68
580.084	27.63
580.506	27.58
580.928	27.5
581.35	27.43
581.772	27.31
582.194	27.22
582.616	27.12
583.038	27
583.46	26.85
583.882	26.73
584.303	26.54
584.725	26.32
585.147	26.09
585.568	25.87
585.99	25.67
586.411	25.51
586.833	25.36
587.254	25.2
587.675	25.08
588.096	24.95
588.518	24.82
588.939	24.77
589.36	24.73
589.781	24.73
590.202	24.72
590.623	24.68
591.043	24.61
591.464	24.54
591.885	24.46
592.305	24.38
592.726	24.31
593.147	24.22
593.567	24.11
593.987	24.01
594.408	23.91
594.828	23.8
595.248	23.71
595.669	23.63
596.089	23.53
596.509	23.42
596.929	23.28
597.349	23.15
597.769	23.03
598.189	22.9
598.608	22.8
599.028	22.71
599.448	22.63
599.867	22.55
600.287	22.47
600.706	22.4
601.126	22.33
601.545	22.28
601.965	22.21
602.384	22.16
602.803	22.1
603.222	22.02
603.641	21.92
604.061	21.82
604.48	21.68
604.898	21.54
605.317	21.41
605.736	21.27
606.155	21.13
606.574	20.98
606.992	20.83
607.411	20.68
607.829	20.51
608.248	20.35
608.666	20.18
609.085	20.06
609.503	19.9
609.921	19.76
610.339	19.62
610.758	19.48
611.176	19.34
611.594	19.19
612.012	19.03
612.43	18.89
612.847	18.73
613.265	18.6
613.683	18.47
614.101	18.36
614.518	18.25
614.936	18.16
615.353	18.04
615.771	17.94
616.188	17.86
616.606	17.8
617.023	17.73
617.44	17.68
617.857	17.61
618.274	17.52
618.691	17.43
619.108	17.33
619.525	17.23
619.942	17.14
620.359	17.05
620.776	16.94
621.192	16.83
621.609	16.74
622.026	16.64
622.442	16.55
622.859	16.48
623.275	16.41
623.691	16.34
624.108	16.27
624.524	16.2
624.94	16.14
625.356	16.08
625.772	16.03
626.188	15.98
626.604	15.94
627.02	15.89
627.436	15.85
627.852	15.81
628.268	15.78
628.683	15.76
629.099	15.73
629.514	15.69
629.93	15.67
630.345	15.66
630.761	15.62
631.176	15.59
631.591	15.56
632.007	15.52
632.422	15.47
632.837	15.42
633.252	15.37
633.667	15.31
634.082	15.25
634.497	15.19
634.911	15.12
635.326	15.03
635.741	14.94
636.155	14.83
636.57	14.73
636.984	14.62
637.399	14.51
637.813	14.39
638.228	14.26
638.642	14.12
639.056	13.98
639.47	13.86
639.884	13.73
640.298	13.6
640.712	13.48
641.126	13.36
641.54	13.23
641.954	13.09
642.368	12.97
642.781	12.85
643.195	12.72
643.609	12.6
644.022	12.46
644.436	12.34
644.849	12.21
645.262	12.07
645.676	11.93
646.089	11.83
646.502	11.74
646.915	11.64
647.328	11.55
647.741	11.46
648.154	11.39
648.567	11.34
648.98	11.28
649.393	11.23
649.805	11.21
650.218	11.17
650.631	11.11
651.043	11.04
651.456	10.95
651.868	10.82
652.28	10.68
652.693	10.53
653.105	10.4
653.517	10.29
653.929	10.2
654.341	10.1
654.753	10.01
655.165	9.94
655.577	9.88
655.989	9.83
656.401	9.81
656.813	9.83
657.224	9.83
657.636	9.79
658.047	9.75
658.459	9.68
658.87	9.61
659.282	9.52
659.693	9.42
660.104	9.32
660.515	9.22
660.926	9.12
661.338	9.01
661.749	8.9
662.159	8.8
662.57	8.69
662.981	8.58
663.392	8.49
663.803	8.4
664.213	8.3
664.624	8.22
665.035	8.14
665.445	8.07
665.855	8
666.266	7.94
666.676	7.89
667.086	7.82
667.497	7.77
667.907	7.7
668.317	7.64
668.727	7.6
669.137	7.56
669.547	7.51
669.956	7.47
670.366	7.43
670.776	7.38
671.186	7.36
671.595	7.33
672.005	7.3
672.414	7.3
672.824	7.29
673.233	7.28
673.642	7.28
674.052	7.28
674.461	7.27
674.87	7.28
675.279	7.3
675.688	7.3
676.097	7.33
676.506	7.36
676.915	7.37
677.323	7.39
677.732	7.4
678.141	7.43
678.549	7.47
678.958	7.52
679.366	7.57
679.775	7.6
680.183	7.67
680.592	7.73
681	7.81
681.408	7.89
681.816	7.98
682.224	8.07
682.632	8.12
683.04	8.17
683.448	8.21
683.856	8.26
684.264	8.36
684.671	8.45
685.079	8.56
685.487	8.71
685.894	8.87
686.302	9.07
686.709	9.3
687.116	9.6
687.524	9.94
687.931	10.33
688.338	10.74
688.745	11.16
689.152	11.58
689.559	12.05
689.966	12.5
690.373	12.97
690.78	13.45
691.187	13.93
691.593	14.42
692	14.91
692.407	15.41
692.813	15.92
693.22	16.42
693.626	16.94
694.032	17.44
694.439	17.97
694.845	18.47
695.251	18.98
695.657	19.47
696.063	19.95
696.469	20.42
696.875	20.88
697.281	21.31
697.687	21.76
698.093	22.19
698.498	22.62
698.904	23.03
699.31	23.46
699.715	23.9
700.12	24.35
700.526	24.81
700.931	25.26
701.337	25.69
701.742	26.12
702.147	26.52
702.552	26.95
702.957	27.34
703.362	27.75
703.767	28.12
704.172	28.48
704.577	28.83
704.981	29.15
705.386	29.5
705.791	29.82
706.195	30.14
706.6	30.5
707.004	30.8
707.408	31.12
707.813	31.42
708.217	31.7
708.621	31.99
709.025	32.26
709.43	32.54
709.834	32.8
710.237	33.08
710.641	33.32
711.045	33.53
711.449	33.79
711.853	34.04
712.256	34.22
712.66	34.39
713.064	34.51
713.467	34.6
713.87	34.65
714.274	34.63
714.677	34.61
715.08	34.56
715.484	34.55
715.887	34.52
716.29	34.48
716.693	34.52
717.096	34.64
717.499	34.84
717.901	35.09
718.304	35.35
718.707	35.66
719.109	35.97
719.512	36.27
719.915	36.54
720.317	36.77
720.719	36.96
721.122	37.17
721.524	37.3
721.926	37.41
722.328	37.46
722.731	37.51
723.133	37.58
723.535	37.66
723.937	37.78
724.338	37.89
724.74	37.98
725.142	38.31
725.544	38.4
725.945	38.57
726.347	38.64
726.748	38.75
727.15	38.86
727.551	39.01
727.952	39.12
728.354	39.26
728.755	39.38
729.156	39.55
729.557	39.53
729.958	39.72
730.359	39.86
730.76	40.04
731.161	40.21
731.562	40.36
731.962	40.44
732.363	40.56
732.763	40.64
733.164	40.71
733.564	40.78
733.965	40.83
734.365	40.83
734.766	40.81
735.166	40.82
735.566	40.83
735.966	40.86
736.366	40.88
736.766	40.88
737.166	40.88
737.566	40.88
737.966	40.86
738.365	40.86
738.765	40.9
739.165	40.92
739.564	40.94
739.964	40.94
740.363	40.95
740.763	40.97
741.162	41.01
741.561	41.05
741.96	41.06
742.36	41.11
742.759	41.13
743.158	41.13
743.557	41.13
743.955	41.15
744.354	41.14
744.753	41.13
745.152	41.12
745.55	41.06
745.949	41.02
746.348	41.01
746.746	40.96
747.144	40.93
747.543	40.87
747.941	40.81
748.339	40.72
748.737	40.65
749.136	40.59
749.534	40.53
749.932	40.52
750.33	40.49
750.727	40.44
751.125	40.43
751.523	40.37
751.921	40.36
752.318	40.34
752.716	40.33
753.113	40.29
753.511	40.27
753.908	40.26
754.305	40.22
754.703	40.08
755.1	39.81
755.497	39.26
755.894	38.45
756.291	37.45
756.688	36.34
757.085	35.22
757.482	34.23
757.878	33.28
758.275	32.36
758.672	31.4
759.068	30.54
759.465	29.82
759.861	29.41
760.258	29.32
760.654	29.52
761.05	29.91
761.447	30.36
761.843	30.79
762.239	31.19
762.635	31.65
763.031	32.22
763.427	32.85
763.822	33.54
764.218	34.24
764.614	34.91
765.01	35.51
765.405	36.06
765.801	36.54
766.196	36.98
766.592	37.36
766.987	37.65
767.382	37.88
767.778	38.05
768.173	38.18
768.568	38.24
768.963	38.3
769.358	38.33
769.753	38.36
770.148	38.36
770.542	38.36
770.937	38.33
771.332	38.32
771.726	38.31
772.121	38.3
772.515	38.27
772.91	38.24
773.304	38.22
773.699	38.17
774.093	38.11
774.487	38.08
774.881	38.04
775.275	38
775.669	37.94
776.063	37.87
776.457	37.8
776.851	37.73
777.245	37.65
777.638	37.58
778.032	37.54
778.425	37.52
778.819	37.47
779.212	37.4
779.606	37.35
779.999	37.29
