Data from N_3_DIV_OH_2N_Splice17_13-46-08-395.txt Node
Date: Sat Mar 07 13:46:08 EST 2020
User: sa697716
Spectrometer: NQ5500242
Trigger mode: 0
Integration Time (sec): 1.450000E-1
Scans to average: 20
Nonlinearity correction enabled: false
Boxcar width: 5
Storing dark spectrum: false
XAxis mode: Wavelengths
Number of Pixels in Spectrum: 512
>>>>>Begin Spectral Data<<<<<
187.83	228.26
188.298	242.03
188.766	217.58
189.233	179.8
189.701	197.8
190.169	249.86
190.636	271.45
191.104	416.8
191.571	188.44
192.039	-94.1
192.506	-98.12
192.974	-70.72
193.441	-87.71
193.908	-29.33
194.375	14.07
194.842	4.93
195.31	111.09
195.777	260.64
196.244	54.55
196.711	31.02
197.177	29.72
197.644	29.21
198.111	29.2
198.578	29.53
199.045	29.83
199.511	29.57
199.978	29.57
200.445	30.01
200.911	30.14
201.378	29.7
201.844	29.9
202.31	30.05
202.777	30.08
203.243	30.33
203.709	29.85
204.176	29.3
204.642	28.93
205.108	28.9
205.574	28.19
206.04	27.45
206.506	27.5
206.972	27.54
207.438	27.27
207.903	26.87
208.369	26.07
208.835	25.98
209.301	25.59
209.766	24.9
210.232	24.2
210.697	23.72
211.163	23.09
211.628	22.39
212.094	21.61
212.559	21.26
213.024	20.87
213.49	20.37
213.955	19.59
214.42	18.94
214.885	18.48
215.35	17.59
215.815	16.72
216.28	15.37
216.745	13.93
217.21	12.53
217.675	11.08
218.14	9.9
218.604	8.91
219.069	8.11
219.534	7.47
219.998	6.9
220.463	6.49
220.927	6.02
221.392	5.69
221.856	5.44
222.32	5.19
222.785	5.03
223.249	4.84
223.713	4.7
224.177	4.57
224.642	4.44
225.106	4.3
225.57	4.16
226.034	4.09
226.497	4.04
226.961	3.96
227.425	3.89
227.889	3.82
228.353	3.74
228.816	3.69
229.28	3.63
229.744	3.57
230.207	3.52
230.671	3.46
231.134	3.39
231.597	3.35
232.061	3.29
232.524	3.25
232.987	3.2
233.45	3.17
233.914	3.12
234.377	3.07
234.84	3.03
235.303	3
235.766	2.97
236.229	2.94
236.691	2.9
237.154	2.86
237.617	2.83
238.08	2.79
238.542	2.75
239.005	2.74
239.468	2.72
239.93	2.69
240.393	2.66
240.855	2.63
241.317	2.61
241.78	2.57
242.242	2.54
242.704	2.54
243.166	2.52
243.629	2.52
244.091	2.49
244.553	2.47
245.015	2.45
245.477	2.43
245.939	2.41
246.4	2.4
246.862	2.37
247.324	2.36
247.786	2.34
248.247	2.31
248.709	2.27
249.17	2.24
249.632	2.23
250.093	2.23
250.555	2.21
251.016	2.2
251.477	2.18
251.939	2.17
252.4	2.15
252.861	2.13
253.322	2.12
253.783	2.11
254.244	2.12
254.705	2.1
255.166	2.07
255.627	2.06
256.088	2.06
256.549	2.05
257.009	2.03
257.47	2.02
257.931	2
258.391	1.99
258.852	1.97
259.312	1.95
259.773	1.94
260.233	1.94
260.694	1.93
261.154	1.91
261.614	1.9
262.074	1.88
262.534	1.87
262.994	1.86
263.455	1.84
263.915	1.83
264.374	1.82
264.834	1.81
265.294	1.79
265.754	1.79
266.214	1.78
266.673	1.77
267.133	1.77
267.593	1.76
268.052	1.76
268.512	1.76
268.971	1.76
269.431	1.76
269.89	1.75
270.349	1.75
270.809	1.74
271.268	1.74
271.727	1.74
272.186	1.74
272.645	1.74
273.104	1.73
273.563	1.72
274.022	1.71
274.481	1.72
274.94	1.72
275.399	1.71
275.857	1.71
276.316	1.7
276.775	1.7
277.233	1.7
277.692	1.7
278.15	1.71
278.609	1.71
279.067	1.71
279.525	1.7
279.984	1.7
280.442	1.7
280.9	1.71
281.358	1.71
281.816	1.72
282.274	1.71
282.732	1.71
283.19	1.7
283.648	1.7
284.106	1.7
284.564	1.7
285.021	1.7
285.479	1.69
285.937	1.69
286.394	1.68
286.852	1.67
287.309	1.67
287.767	1.67
288.224	1.66
288.682	1.65
289.139	1.64
289.596	1.63
290.053	1.61
290.511	1.6
290.968	1.6
291.425	1.58
291.882	1.58
292.339	1.57
292.796	1.56
293.252	1.56
293.709	1.56
294.166	1.56
294.623	1.55
295.079	1.55
295.536	1.55
295.992	1.55
296.449	1.55
296.905	1.55
297.362	1.55
297.818	1.55
298.274	1.55
298.731	1.54
299.187	1.53
299.643	1.52
300.099	1.53
300.555	1.52
301.011	1.52
301.467	1.52
301.923	1.51
302.379	1.51
302.835	1.51
303.291	1.5
303.746	1.51
304.202	1.52
304.658	1.52
305.113	1.52
305.569	1.52
306.024	1.52
306.479	1.51
306.935	1.51
307.39	1.51
307.845	1.5
308.301	1.5
308.756	1.5
309.211	1.5
309.666	1.5
310.121	1.51
310.576	1.51
311.031	1.51
311.486	1.51
311.94	1.51
312.395	1.51
312.85	1.52
313.305	1.52
313.759	1.52
314.214	1.53
314.668	1.52
315.123	1.52
315.577	1.52
316.032	1.52
316.486	1.52
316.94	1.53
317.394	1.53
317.849	1.52
318.303	1.52
318.757	1.51
319.211	1.5
319.665	1.49
320.119	1.49
320.572	1.48
321.026	1.47
321.48	1.46
321.934	1.45
322.387	1.44
322.841	1.44
323.295	1.45
323.748	1.45
324.202	1.45
324.655	1.46
325.108	1.47
325.562	1.47
326.015	1.48
326.468	1.49
326.921	1.49
327.374	1.5
327.827	1.51
328.28	1.5
328.733	1.5
329.186	1.5
329.639	1.5
330.092	1.5
330.545	1.5
330.997	1.5
331.45	1.5
331.903	1.51
332.355	1.51
332.808	1.5
333.26	1.51
333.713	1.5
334.165	1.5
334.617	1.5
335.069	1.49
335.522	1.5
335.974	1.5
336.426	1.48
336.878	1.47
337.33	1.47
337.782	1.48
338.234	1.49
338.686	1.49
339.137	1.49
339.589	1.48
340.041	1.49
340.493	1.48
340.944	1.47
341.396	1.47
341.847	1.47
342.299	1.46
342.75	1.46
343.201	1.45
343.653	1.44
344.104	1.43
344.555	1.42
345.006	1.41
345.457	1.42
345.908	1.42
346.359	1.43
346.81	1.42
347.261	1.43
347.712	1.42
348.163	1.41
348.613	1.42
349.064	1.43
349.515	1.44
349.965	1.44
350.416	1.43
350.866	1.43
351.317	1.42
351.767	1.43
352.217	1.43
352.668	1.43
353.118	1.44
353.568	1.42
354.018	1.43
354.468	1.42
354.918	1.42
355.368	1.42
355.818	1.42
356.268	1.41
356.718	1.42
357.168	1.42
357.617	1.41
358.067	1.4
358.517	1.41
358.966	1.42
359.416	1.42
359.865	1.42
360.315	1.44
360.764	1.44
361.213	1.44
361.663	1.44
362.112	1.45
362.561	1.46
363.01	1.46
363.459	1.45
363.908	1.45
364.357	1.45
364.806	1.44
365.255	1.45
365.703	1.46
366.152	1.47
366.601	1.49
367.05	1.49
367.498	1.5
367.947	1.5
368.395	1.52
368.844	1.53
369.292	1.53
369.74	1.54
370.189	1.55
370.637	1.54
371.085	1.53
371.533	1.53
371.981	1.53
372.429	1.54
372.877	1.55
373.325	1.57
373.773	1.57
374.221	1.58
374.669	1.59
375.116	1.59
375.564	1.61
376.012	1.63
376.459	1.65
376.907	1.67
377.354	1.68
377.801	1.7
378.249	1.72
378.696	1.74
379.143	1.76
379.591	1.78
380.038	1.81
380.485	1.83
380.932	1.85
381.379	1.88
381.826	1.9
382.273	1.92
382.72	1.93
383.166	1.96
383.613	1.99
384.06	2.01
384.506	2.04
384.953	2.06
385.4	2.09
385.846	2.12
386.292	2.14
386.739	2.16
387.185	2.19
387.631	2.23
388.078	2.26
388.524	2.29
388.97	2.32
389.416	2.35
389.862	2.39
390.308	2.43
390.754	2.47
391.2	2.51
391.645	2.54
392.091	2.59
392.537	2.63
392.983	2.65
393.428	2.7
393.874	2.73
394.319	2.76
394.765	2.78
395.21	2.8
395.655	2.83
396.101	2.86
396.546	2.89
396.991	2.91
397.436	2.93
397.881	2.97
398.326	2.98
398.771	3.01
399.216	3.03
399.661	3.05
400.106	3.07
400.551	3.09
400.995	3.1
401.44	3.11
401.885	3.14
402.329	3.16
402.774	3.17
403.218	3.21
403.663	3.22
404.107	3.24
404.551	3.25
404.995	3.27
405.44	3.26
405.884	3.27
406.328	3.28
406.772	3.27
407.216	3.27
407.66	3.26
408.104	3.24
408.547	3.23
408.991	3.23
409.435	3.23
409.879	3.23
410.322	3.25
410.766	3.27
411.209	3.29
411.653	3.29
412.096	3.31
412.54	3.33
412.983	3.34
413.426	3.38
413.869	3.38
414.312	3.4
414.756	3.42
415.199	3.41
415.642	3.4
416.085	3.4
416.527	3.41
416.97	3.38
417.413	3.36
417.856	3.36
418.298	3.35
418.741	3.35
419.184	3.33
419.626	3.32
420.069	3.34
420.511	3.35
420.953	3.35
421.396	3.35
421.838	3.36
422.28	3.38
422.722	3.39
423.164	3.39
423.606	3.4
424.048	3.39
424.49	3.38
424.932	3.37
425.374	3.33
425.816	3.31
426.258	3.3
426.699	3.29
427.141	3.28
427.582	3.28
428.024	3.27
428.465	3.27
428.907	3.27
429.348	3.25
429.789	3.26
430.231	3.3
430.672	3.32
431.113	3.33
431.554	3.35
431.995	3.33
432.436	3.34
432.877	3.35
433.318	3.37
433.759	3.39
434.2	3.41
434.64	3.41
435.081	3.41
435.522	3.42
435.962	3.43
436.403	3.44
436.843	3.47
437.284	3.46
437.724	3.46
438.164	3.45
438.604	3.44
439.045	3.46
439.485	3.47
439.925	3.47
440.365	3.49
440.805	3.5
441.245	3.52
441.685	3.53
442.125	3.57
442.564	3.59
443.004	3.62
443.444	3.65
443.883	3.68
444.323	3.68
444.762	3.71
445.202	3.72
445.641	3.75
446.081	3.77
446.52	3.8
446.959	3.83
447.398	3.87
447.837	3.9
448.276	3.92
448.716	3.95
449.154	4
449.593	4.04
450.032	4.07
450.471	4.06
450.91	4.07
451.349	4.1
451.787	4.09
452.226	4.09
452.664	4.09
453.103	4.1
453.541	4.1
453.98	4.13
454.418	4.11
454.856	4.12
455.295	4.13
455.733	4.12
456.171	4.12
456.609	4.13
457.047	4.12
457.485	4.12
457.923	4.13
458.361	4.12
458.798	4.1
459.236	4.1
459.674	4.1
460.111	4.09
460.549	4.1
460.987	4.1
461.424	4.1
461.862	4.1
462.299	4.11
462.736	4.11
463.173	4.11
463.611	4.12
464.048	4.13
464.485	4.14
464.922	4.14
465.359	4.13
465.796	4.17
466.233	4.17
466.67	4.19
467.106	4.2
467.543	4.19
467.98	4.18
468.416	4.15
468.853	4.15
469.29	4.15
469.726	4.15
470.162	4.15
470.599	4.11
471.035	4.11
471.471	4.1
471.907	4.08
472.344	4.09
472.78	4.11
473.216	4.1
473.652	4.11
474.088	4.1
474.523	4.12
474.959	4.14
475.395	4.13
475.831	4.14
476.266	4.15
476.702	4.15
477.138	4.16
477.573	4.17
478.008	4.19
478.444	4.19
478.879	4.2
479.314	4.2
479.75	4.2
480.185	4.2
480.62	4.2
481.055	4.2
481.49	4.2
481.925	4.2
482.36	4.21
482.795	4.21
483.229	4.22
483.664	4.22
484.099	4.22
484.534	4.22
484.968	4.25
485.403	4.26
485.837	4.28
486.271	4.3
486.706	4.32
487.14	4.33
487.574	4.35
488.009	4.38
488.443	4.4
488.877	4.45
489.311	4.48
489.745	4.52
490.179	4.56
490.613	4.61
491.046	4.65
491.48	4.7
491.914	4.75
492.348	4.8
492.781	4.86
493.215	4.92
493.648	4.97
494.082	5.03
494.515	5.08
494.948	5.15
495.382	5.2
495.815	5.27
496.248	5.35
496.681	5.43
497.114	5.51
497.547	5.58
497.98	5.68
498.413	5.76
498.846	5.84
499.279	5.95
499.711	6.04
500.144	6.15
500.577	6.27
501.009	6.36
501.442	6.48
501.874	6.6
502.306	6.71
502.739	6.85
503.171	6.99
503.603	7.12
504.036	7.26
504.468	7.39
504.9	7.53
505.332	7.67
505.764	7.82
506.196	7.97
506.627	8.13
507.059	8.3
507.491	8.43
507.923	8.59
508.354	8.76
508.786	8.94
509.217	9.12
509.649	9.3
510.08	9.48
510.512	9.67
510.943	9.87
511.374	10.05
511.805	10.24
512.237	10.43
512.668	10.64
513.099	10.85
513.53	11.04
513.961	11.24
514.391	11.44
514.822	11.66
515.253	11.85
515.684	12.05
516.114	12.25
516.545	12.45
516.975	12.67
517.406	12.86
517.836	13.05
518.267	13.26
518.697	13.45
519.127	13.64
519.558	13.84
519.988	14.04
520.418	14.22
520.848	14.39
521.278	14.57
521.708	15.01
522.138	15.18
522.567	15.35
522.997	15.51
523.427	15.67
523.857	15.82
524.286	15.95
524.716	16.1
525.145	16.24
525.575	16.4
526.004	16.54
526.433	16.39
526.863	16.51
527.292	16.63
527.721	16.74
528.15	16.85
528.579	16.94
529.008	17.05
529.437	17.14
529.866	17.22
530.295	17.3
530.724	17.38
531.152	17.46
531.581	17.53
532.01	17.59
532.438	17.66
532.867	17.72
533.295	17.77
533.723	17.83
534.152	17.88
534.58	17.94
535.008	17.97
535.436	18.01
535.865	18.05
536.293	18.09
536.721	18.12
537.149	18.15
537.576	18.18
538.004	18.22
538.432	18.24
538.86	18.27
539.287	18.28
539.715	18.33
540.143	18.36
540.57	18.37
540.998	18.38
541.425	18.41
541.852	18.42
542.28	18.45
542.707	18.46
543.134	18.49
543.561	18.5
543.988	18.53
544.415	18.53
544.842	18.53
545.269	18.56
545.696	18.59
546.123	18.61
546.549	18.64
546.976	18.66
547.403	18.68
547.829	18.67
548.256	18.68
548.682	18.69
549.108	18.71
549.535	18.73
549.961	18.73
550.387	18.72
550.813	18.72
551.24	18.71
551.666	18.71
552.092	18.71
552.518	18.73
552.943	18.73
553.369	18.72
553.795	18.7
554.221	18.68
554.646	18.65
555.072	18.64
555.498	18.59
555.923	18.58
556.349	18.54
556.774	18.49
557.199	18.45
557.625	18.39
558.05	18.36
558.475	18.31
558.9	18.27
559.325	18.24
559.75	18.19
560.175	18.13
560.6	18.08
561.025	18.01
561.449	17.96
561.874	17.89
562.299	17.82
562.723	17.75
563.148	17.67
563.572	17.58
563.997	17.5
564.421	17.4
564.846	17.33
565.27	17.23
565.694	17.16
566.118	17.06
566.542	16.98
566.966	16.89
567.39	16.79
567.814	16.71
568.238	16.62
568.662	16.53
569.086	16.45
569.509	16.37
569.933	16.29
570.357	16.2
570.78	16.11
571.204	16.02
571.627	15.94
572.05	15.86
572.474	15.8
572.897	15.73
573.32	15.66
573.743	15.58
574.166	15.5
574.589	15.42
575.012	15.34
575.435	15.28
575.858	15.22
576.281	15.14
576.704	15.06
577.126	14.98
577.549	14.9
577.972	14.83
578.394	14.77
578.817	14.72
579.239	14.67
579.661	14.62
580.084	14.57
580.506	14.52
580.928	14.46
581.35	14.41
581.772	14.35
582.194	14.29
582.616	14.25
583.038	14.2
583.46	14.13
583.882	14.07
584.303	14.01
584.725	13.95
585.147	13.91
585.568	13.87
585.99	13.81
586.411	13.78
586.833	13.74
587.254	13.7
587.675	13.65
588.096	13.61
588.518	13.56
588.939	13.53
589.36	13.49
589.781	13.43
590.202	13.41
590.623	13.39
591.043	13.34
591.464	13.31
591.885	13.27
592.305	13.24
592.726	13.22
593.147	13.19
593.567	13.17
593.987	13.15
594.408	13.13
594.828	13.09
595.248	13.07
595.669	13.05
596.089	13.02
596.509	13.01
596.929	12.99
597.349	12.97
597.769	12.94
598.189	12.91
598.608	12.88
599.028	12.86
599.448	12.85
599.867	12.81
600.287	12.79
600.706	12.77
601.126	12.74
601.545	12.71
601.965	12.68
602.384	12.66
602.803	12.63
603.222	12.61
603.641	12.56
604.061	12.53
604.48	12.48
604.898	12.44
605.317	12.39
605.736	12.36
606.155	12.32
606.574	12.27
606.992	12.21
607.411	12.15
607.829	12.07
608.248	12.01
608.666	11.96
609.085	11.91
609.503	11.87
609.921	11.81
610.339	11.75
610.758	11.68
611.176	11.62
611.594	11.57
612.012	11.51
612.43	11.48
612.847	11.42
613.265	11.37
613.683	11.32
614.101	11.27
614.518	11.21
614.936	11.15
615.353	11.09
615.771	11.06
616.188	11.01
616.606	10.98
617.023	10.93
617.44	10.91
617.857	10.86
618.274	10.82
618.691	10.78
619.108	10.74
619.525	10.71
619.942	10.69
620.359	10.65
620.776	10.62
621.192	10.58
621.609	10.56
622.026	10.54
622.442	10.53
622.859	10.5
623.275	10.48
623.691	10.47
624.108	10.45
624.524	10.44
624.94	10.43
625.356	10.42
625.772	10.41
626.188	10.4
626.604	10.38
627.02	10.37
627.436	10.37
627.852	10.35
628.268	10.34
628.683	10.34
629.099	10.33
629.514	10.31
629.93	10.3
630.345	10.28
630.761	10.25
631.176	10.22
631.591	10.19
632.007	10.16
632.422	10.13
632.837	10.09
633.252	10.05
633.667	10
634.082	9.95
634.497	9.9
634.911	9.85
635.326	9.78
635.741	9.74
636.155	9.66
636.57	9.6
636.984	9.53
637.399	9.45
637.813	9.36
638.228	9.27
638.642	9.19
639.056	9.1
639.47	9.01
639.884	8.93
640.298	8.82
640.712	8.74
641.126	8.64
641.54	8.53
641.954	8.43
642.368	8.33
642.781	8.25
643.195	8.15
643.609	8.06
644.022	7.96
644.436	7.88
644.849	7.79
645.262	7.7
645.676	7.62
646.089	7.55
646.502	7.5
646.915	7.44
647.328	7.38
647.741	7.32
648.154	7.26
648.567	7.22
648.98	7.18
649.393	7.14
649.805	7.11
650.218	7.07
650.631	7.04
651.043	7
651.456	6.96
651.868	6.92
652.28	6.88
652.693	6.85
653.105	6.8
653.517	6.75
653.929	6.71
654.341	6.67
654.753	6.61
655.165	6.56
655.577	6.5
655.989	6.44
656.401	6.37
656.813	6.32
657.224	6.24
657.636	6.15
658.047	6.09
658.459	6.01
658.87	5.92
659.282	5.83
659.693	5.75
660.104	5.66
660.515	5.58
660.926	5.49
661.338	5.4
661.749	5.33
662.159	5.25
662.57	5.17
662.981	5.11
663.392	5.03
663.803	4.97
664.213	4.9
664.624	4.84
665.035	4.78
665.445	4.73
665.855	4.67
666.266	4.62
666.676	4.58
667.086	4.52
667.497	4.47
667.907	4.44
668.317	4.4
668.727	4.38
669.137	4.35
669.547	4.32
669.956	4.3
670.366	4.28
670.776	4.26
671.186	4.24
671.595	4.24
672.005	4.23
672.414	4.23
672.824	4.22
673.233	4.21
673.642	4.22
674.052	4.22
674.461	4.23
674.87	4.24
675.279	4.26
675.688	4.28
676.097	4.31
676.506	4.33
676.915	4.35
677.323	4.39
677.732	4.43
678.141	4.46
678.549	4.5
678.958	4.55
679.366	4.62
679.775	4.67
680.183	4.75
680.592	4.84
681	4.93
681.408	5.04
681.816	5.14
682.224	5.26
682.632	5.39
683.04	5.54
683.448	5.68
683.856	5.85
684.264	6.03
684.671	6.21
685.079	6.4
685.487	6.62
685.894	6.85
686.302	7.09
686.709	7.34
687.116	7.63
687.524	7.93
687.931	8.24
688.338	8.56
688.745	8.89
689.152	9.24
689.559	9.62
689.966	9.99
690.373	10.36
690.78	10.76
691.187	11.16
691.593	11.55
692	11.94
692.407	12.32
692.813	12.72
693.22	13.11
693.626	13.5
694.032	13.9
694.439	14.28
694.845	14.69
695.251	15.07
695.657	15.44
696.063	15.82
696.469	16.2
696.875	16.58
697.281	16.94
697.687	17.3
698.093	17.66
698.498	18
698.904	18.34
699.31	18.66
699.715	19
700.12	19.31
700.526	19.63
700.931	19.93
701.337	20.2
701.742	20.48
702.147	20.76
702.552	21.05
702.957	21.29
703.362	21.54
703.767	21.8
704.172	22.03
704.577	22.26
704.981	22.48
705.386	22.72
705.791	22.99
706.195	23.21
706.6	23.43
707.004	23.63
707.408	23.86
707.813	24.07
708.217	24.28
708.621	24.49
709.025	24.68
709.43	24.87
709.834	25.05
710.237	25.22
710.641	25.41
711.045	25.58
711.449	25.77
711.853	25.96
712.256	26.1
712.66	26.26
713.064	26.4
713.467	26.58
713.87	26.74
714.274	26.88
714.677	27.03
715.08	27.17
715.484	27.31
715.887	27.46
716.29	27.57
716.693	27.74
717.096	27.87
717.499	28.01
717.901	28.12
718.304	28.25
718.707	28.37
719.109	28.5
719.512	28.61
719.915	28.73
720.317	28.81
720.719	28.88
721.122	28.96
721.524	29.03
721.926	29.15
722.328	29.24
722.731	29.31
723.133	29.4
723.535	29.47
723.937	29.55
724.338	29.62
724.74	29.7
725.142	30.01
725.544	30.08
725.945	30.22
726.347	30.24
726.748	30.3
727.15	30.35
727.551	30.44
727.952	30.49
728.354	30.54
728.755	30.59
729.156	30.63
729.557	30.46
729.958	30.48
730.359	30.48
730.76	30.54
731.161	30.6
731.562	30.66
731.962	30.66
732.363	30.7
732.763	30.73
733.164	30.76
733.564	30.82
733.965	30.85
734.365	30.92
734.766	30.95
735.166	30.99
735.566	31.01
735.966	31.01
736.366	31.03
736.766	31.05
737.166	31.08
737.566	31.12
737.966	31.12
738.365	31.15
738.765	31.18
739.165	31.2
739.564	31.21
739.964	31.23
740.363	31.27
740.763	31.3
741.162	31.31
741.561	31.32
741.96	31.32
742.36	31.33
742.759	31.34
743.158	31.34
743.557	31.34
743.955	31.35
744.354	31.36
744.753	31.37
745.152	31.38
745.55	31.4
745.949	31.43
746.348	31.45
746.746	31.44
747.144	31.45
747.543	31.44
747.941	31.44
748.339	31.44
748.737	31.42
749.136	31.41
749.534	31.39
749.932	31.38
750.33	31.38
750.727	31.37
751.125	31.38
751.523	31.36
751.921	31.38
752.318	31.38
752.716	31.4
753.113	31.42
753.511	31.43
753.908	31.45
754.305	31.49
754.703	31.48
755.1	31.49
755.497	31.48
755.894	31.49
756.291	31.48
756.688	31.46
757.085	31.45
757.482	31.44
757.878	31.46
758.275	31.45
758.672	31.42
759.068	31.44
759.465	31.43
759.861	31.43
760.258	31.42
760.654	31.42
761.05	31.46
761.447	31.45
761.843	31.46
762.239	31.44
762.635	31.42
763.031	31.42
763.427	31.4
763.822	31.43
764.218	31.45
764.614	31.45
765.01	31.44
765.405	31.44
765.801	31.44
766.196	31.43
766.592	31.42
766.987	31.42
767.382	31.41
767.778	31.41
768.173	31.39
768.568	31.39
768.963	31.4
769.358	31.41
769.753	31.41
770.148	31.44
770.542	31.44
770.937	31.45
771.332	31.46
771.726	31.47
772.121	31.46
772.515	31.48
772.91	31.44
773.304	31.44
773.699	31.42
774.093	31.39
774.487	31.36
774.881	31.36
775.275	31.36
775.669	31.34
776.063	31.32
776.457	31.34
776.851	31.31
777.245	31.32
777.638	31.32
778.032	31.35
778.425	31.4
778.819	31.41
779.212	31.43
779.606	31.44
779.999	31.45
780.392	31.49
780.786	31.48
781.179	31.48
781.572	31.49
781.965	31.5
782.358	31.47
782.751	31.43
783.143	31.41
783.536	31.39
783.929	31.36
