Data from N_3_DIV_PA_2N_Splice17_14-11-16-408.txt Node
Date: Sat Mar 07 14:11:16 EST 2020
User: sa697716
Spectrometer: NQ5500242
Trigger mode: 0
Integration Time (sec): 1.450000E-1
Scans to average: 20
Nonlinearity correction enabled: false
Boxcar width: 5
Storing dark spectrum: false
XAxis mode: Wavelengths
Number of Pixels in Spectrum: 512
>>>>>Begin Spectral Data<<<<<
187.83	113.48
188.298	135.99
188.766	107.46
189.233	101.64
189.701	96.6
190.169	116.96
190.636	122.19
191.104	150.79
191.571	200.43
192.039	239.07
192.506	-75.82
192.974	109.86
193.441	253.3
193.908	17.35
194.375	83.13
194.842	31.71
195.31	69.81
195.777	74.66
196.244	49.01
196.711	55.05
197.177	58.23
197.644	57.44
198.111	56.36
198.578	56.75
199.045	58.13
199.511	57.57
199.978	57.62
200.445	57.85
200.911	58.04
201.378	58.49
201.844	58.7
202.31	58.52
202.777	58.55
203.243	58.98
203.709	58.56
204.176	57.76
204.642	57.85
205.108	57.86
205.574	57.47
206.04	56.89
206.506	56.36
206.972	56.02
207.438	55.47
207.903	54.71
208.369	53.56
208.835	53.06
209.301	52.18
209.766	50.72
210.232	49.41
210.697	48.27
211.163	47.16
211.628	46.29
212.094	45.38
212.559	44.46
213.024	43.48
213.49	42.89
213.955	42.01
214.42	41.31
214.885	40.55
215.35	39.38
215.815	37.79
216.28	35.94
216.745	33.6
217.21	31.45
217.675	29.5
218.14	27.79
218.604	26.28
219.069	24.91
219.534	23.85
219.998	22.95
220.463	22.21
220.927	21.47
221.392	20.93
221.856	20.5
222.32	20.07
222.785	19.71
223.249	19.36
223.713	19
224.177	18.73
224.642	18.44
225.106	18.11
225.57	17.8
226.034	17.58
226.497	17.33
226.961	17.06
227.425	16.83
227.889	16.59
228.353	16.37
228.816	16.15
229.28	15.91
229.744	15.7
230.207	15.51
230.671	15.32
231.134	15.1
231.597	14.91
232.061	14.73
232.524	14.55
232.987	14.39
233.45	14.22
233.914	14.06
234.377	13.92
234.84	13.76
235.303	13.62
235.766	13.47
236.229	13.33
236.691	13.2
237.154	13.07
237.617	12.94
238.08	12.81
238.542	12.69
239.005	12.58
239.468	12.46
239.93	12.35
240.393	12.24
240.855	12.13
241.317	12.03
241.78	11.91
242.242	11.79
242.704	11.68
243.166	11.57
243.629	11.48
244.091	11.37
244.553	11.26
245.015	11.15
245.477	11.05
245.939	10.96
246.4	10.87
246.862	10.78
247.324	10.7
247.786	10.6
248.247	10.51
248.709	10.4
249.17	10.32
249.632	10.25
250.093	10.16
250.555	10.07
251.016	9.99
251.477	9.9
251.939	9.83
252.4	9.76
252.861	9.69
253.322	9.63
253.783	9.56
254.244	9.5
254.705	9.43
255.166	9.37
255.627	9.31
256.088	9.25
256.549	9.2
257.009	9.14
257.47	9.07
257.931	9.02
258.391	8.95
258.852	8.87
259.312	8.81
259.773	8.75
260.233	8.69
260.694	8.64
261.154	8.59
261.614	8.54
262.074	8.48
262.534	8.43
262.994	8.38
263.455	8.34
263.915	8.31
264.374	8.27
264.834	8.24
265.294	8.2
265.754	8.16
266.214	8.11
266.673	8.08
267.133	8.05
267.593	8.02
268.052	7.99
268.512	7.96
268.971	7.93
269.431	7.9
269.89	7.86
270.349	7.84
270.809	7.81
271.268	7.78
271.727	7.75
272.186	7.72
272.645	7.69
273.104	7.66
273.563	7.64
274.022	7.61
274.481	7.59
274.94	7.57
275.399	7.55
275.857	7.53
276.316	7.5
276.775	7.48
277.233	7.46
277.692	7.43
278.15	7.41
278.609	7.39
279.067	7.37
279.525	7.33
279.984	7.31
280.442	7.28
280.9	7.26
281.358	7.24
281.816	7.22
282.274	7.2
282.732	7.17
283.19	7.15
283.648	7.13
284.106	7.1
284.564	7.09
285.021	7.08
285.479	7.06
285.937	7.04
286.394	7.03
286.852	7.01
287.309	6.99
287.767	6.97
288.224	6.95
288.682	6.93
289.139	6.91
289.596	6.88
290.053	6.84
290.511	6.81
290.968	6.78
291.425	6.75
291.882	6.72
292.339	6.7
292.796	6.67
293.252	6.64
293.709	6.62
294.166	6.6
294.623	6.57
295.079	6.54
295.536	6.52
295.992	6.5
296.449	6.48
296.905	6.46
297.362	6.44
297.818	6.41
298.274	6.4
298.731	6.37
299.187	6.35
299.643	6.33
300.099	6.32
300.555	6.3
301.011	6.28
301.467	6.26
301.923	6.24
302.379	6.22
302.835	6.2
303.291	6.19
303.746	6.17
304.202	6.16
304.658	6.14
305.113	6.13
305.569	6.11
306.024	6.1
306.479	6.08
306.935	6.08
307.39	6.07
307.845	6.06
308.301	6.05
308.756	6.05
309.211	6.02
309.666	6.02
310.121	6.01
310.576	6
311.031	5.98
311.486	5.97
311.94	5.97
312.395	5.96
312.85	5.95
313.305	5.95
313.759	5.94
314.214	5.93
314.668	5.92
315.123	5.91
315.577	5.9
316.032	5.9
316.486	5.89
316.94	5.87
317.394	5.85
317.849	5.83
318.303	5.81
318.757	5.79
319.211	5.77
319.665	5.74
320.119	5.72
320.572	5.7
321.026	5.68
321.48	5.66
321.934	5.64
322.387	5.62
322.841	5.6
323.295	5.59
323.748	5.58
324.202	5.57
324.655	5.56
325.108	5.56
325.562	5.55
326.015	5.54
326.468	5.53
326.921	5.54
327.374	5.53
327.827	5.52
328.28	5.5
328.733	5.5
329.186	5.5
329.639	5.49
330.092	5.48
330.545	5.47
330.997	5.46
331.45	5.46
331.903	5.45
332.355	5.45
332.808	5.44
333.26	5.44
333.713	5.44
334.165	5.44
334.617	5.44
335.069	5.44
335.522	5.43
335.974	5.44
336.426	5.43
336.878	5.42
337.33	5.42
337.782	5.41
338.234	5.41
338.686	5.4
339.137	5.39
339.589	5.37
340.041	5.37
340.493	5.35
340.944	5.34
341.396	5.33
341.847	5.32
342.299	5.29
342.75	5.27
343.201	5.25
343.653	5.23
344.104	5.22
344.555	5.2
345.006	5.17
345.457	5.16
345.908	5.14
346.359	5.13
346.81	5.11
347.261	5.1
347.712	5.09
348.163	5.07
348.613	5.07
349.064	5.05
349.515	5.05
349.965	5.03
350.416	5.02
350.866	5
351.317	4.99
351.767	4.99
352.217	4.99
352.668	4.98
353.118	4.99
353.568	4.97
354.018	4.97
354.468	4.97
354.918	4.98
355.368	4.99
355.818	5
356.268	4.99
356.718	4.99
357.168	4.98
357.617	4.97
358.067	4.97
358.517	4.97
358.966	4.97
359.416	4.96
359.865	4.95
360.315	4.95
360.764	4.94
361.213	4.93
361.663	4.92
362.112	4.92
362.561	4.91
363.01	4.91
363.459	4.89
363.908	4.88
364.357	4.87
364.806	4.86
365.255	4.85
365.703	4.85
366.152	4.86
366.601	4.86
367.05	4.85
367.498	4.84
367.947	4.84
368.395	4.84
368.844	4.84
369.292	4.83
369.74	4.84
370.189	4.83
370.637	4.82
371.085	4.8
371.533	4.78
371.981	4.77
372.429	4.77
372.877	4.77
373.325	4.76
373.773	4.75
374.221	4.75
374.669	4.74
375.116	4.73
375.564	4.73
376.012	4.73
376.459	4.72
376.907	4.72
377.354	4.71
377.801	4.71
378.249	4.69
378.696	4.69
379.143	4.68
379.591	4.68
380.038	4.68
380.485	4.67
380.932	4.67
381.379	4.68
381.826	4.67
382.273	4.67
382.72	4.66
383.166	4.66
383.613	4.67
384.06	4.67
384.506	4.65
384.953	4.66
385.4	4.66
385.846	4.67
386.292	4.67
386.739	4.68
387.185	4.68
387.631	4.69
388.078	4.7
388.524	4.7
388.97	4.7
389.416	4.72
389.862	4.73
390.308	4.74
390.754	4.75
391.2	4.76
391.645	4.77
392.091	4.79
392.537	4.81
392.983	4.82
393.428	4.84
393.874	4.86
394.319	4.87
394.765	4.87
395.21	4.88
395.655	4.9
396.101	4.91
396.546	4.91
396.991	4.93
397.436	4.94
397.881	4.97
398.326	4.99
398.771	5.01
399.216	5.04
399.661	5.08
400.106	5.09
400.551	5.11
400.995	5.11
401.44	5.13
401.885	5.14
402.329	5.16
402.774	5.17
403.218	5.2
403.663	5.22
404.107	5.24
404.551	5.25
404.995	5.26
405.44	5.27
405.884	5.29
406.328	5.32
406.772	5.33
407.216	5.35
407.66	5.37
408.104	5.36
408.547	5.37
408.991	5.38
409.435	5.4
409.879	5.43
410.322	5.45
410.766	5.48
411.209	5.5
411.653	5.53
412.096	5.56
412.54	5.58
412.983	5.59
413.426	5.63
413.869	5.66
414.312	5.7
414.756	5.73
415.199	5.75
415.642	5.77
416.085	5.78
416.527	5.78
416.97	5.79
417.413	5.8
417.856	5.81
418.298	5.8
418.741	5.81
419.184	5.81
419.626	5.81
420.069	5.82
420.511	5.82
420.953	5.83
421.396	5.85
421.838	5.86
422.28	5.87
422.722	5.9
423.164	5.91
423.606	5.91
424.048	5.92
424.49	5.93
424.932	5.95
425.374	5.94
425.816	5.93
426.258	5.91
426.699	5.89
427.141	5.88
427.582	5.88
428.024	5.89
428.465	5.9
428.907	5.9
429.348	5.9
429.789	5.89
430.231	5.92
430.672	5.94
431.113	5.96
431.554	5.98
431.995	6.02
432.436	6.03
432.877	6.03
433.318	6.05
433.759	6.08
434.2	6.1
434.64	6.12
435.081	6.13
435.522	6.13
435.962	6.17
436.403	6.21
436.843	6.23
437.284	6.23
437.724	6.25
438.164	6.26
438.604	6.27
439.045	6.27
439.485	6.28
439.925	6.29
440.365	6.32
440.805	6.32
441.245	6.32
441.685	6.33
442.125	6.35
442.564	6.35
443.004	6.35
443.444	6.36
443.883	6.37
444.323	6.37
444.762	6.39
445.202	6.4
445.641	6.42
446.081	6.44
446.52	6.45
446.959	6.48
447.398	6.51
447.837	6.53
448.276	6.55
448.716	6.58
449.154	6.63
449.593	6.65
450.032	6.66
450.471	6.66
450.91	6.66
451.349	6.67
451.787	6.67
452.226	6.67
452.664	6.68
453.103	6.67
453.541	6.66
453.98	6.65
454.418	6.63
454.856	6.62
455.295	6.6
455.733	6.57
456.171	6.55
456.609	6.53
457.047	6.52
457.485	6.49
457.923	6.47
458.361	6.46
458.798	6.44
459.236	6.44
459.674	6.43
460.111	6.42
460.549	6.42
460.987	6.42
461.424	6.42
461.862	6.43
462.299	6.44
462.736	6.43
463.173	6.44
463.611	6.43
464.048	6.43
464.485	6.43
464.922	6.42
465.359	6.42
465.796	6.42
466.233	6.42
466.67	6.41
467.106	6.41
467.543	6.4
467.98	6.38
468.416	6.38
468.853	6.38
469.29	6.38
469.726	6.39
470.162	6.4
470.599	6.4
471.035	6.39
471.471	6.39
471.907	6.39
472.344	6.4
472.78	6.41
473.216	6.41
473.652	6.41
474.088	6.4
474.523	6.4
474.959	6.39
475.395	6.37
475.831	6.37
476.266	6.38
476.702	6.36
477.138	6.35
477.573	6.34
478.008	6.34
478.444	6.33
478.879	6.33
479.314	6.31
479.75	6.31
480.185	6.3
480.62	6.29
481.055	6.28
481.49	6.28
481.925	6.27
482.36	6.26
482.795	6.26
483.229	6.26
483.664	6.26
484.099	6.25
484.534	6.25
484.968	6.26
485.403	6.26
485.837	6.27
486.271	6.27
486.706	6.27
487.14	6.28
487.574	6.29
488.009	6.3
488.443	6.31
488.877	6.34
489.311	6.37
489.745	6.39
490.179	6.42
490.613	6.44
491.046	6.47
491.48	6.51
491.914	6.55
492.348	6.6
492.781	6.64
493.215	6.68
493.648	6.73
494.082	6.78
494.515	6.83
494.948	6.88
495.382	6.94
495.815	7.01
496.248	7.07
496.681	7.14
497.114	7.2
497.547	7.28
497.98	7.36
498.413	7.43
498.846	7.51
499.279	7.61
499.711	7.7
500.144	7.8
500.577	7.9
501.009	8
501.442	8.1
501.874	8.22
502.306	8.33
502.739	8.46
503.171	8.6
503.603	8.72
504.036	8.86
504.468	9
504.9	9.13
505.332	9.28
505.764	9.44
506.196	9.6
506.627	9.77
507.059	9.96
507.491	10.13
507.923	10.31
508.354	10.5
508.786	10.69
509.217	10.89
509.649	11.11
510.08	11.32
510.512	11.54
510.943	11.75
511.374	11.97
511.805	12.19
512.237	12.41
512.668	12.65
513.099	12.88
513.53	13.12
513.961	13.37
514.391	13.61
514.822	13.86
515.253	14.11
515.684	14.35
516.114	14.61
516.545	14.86
516.975	15.12
517.406	15.37
517.836	15.63
518.267	15.91
518.697	16.14
519.127	16.37
519.558	16.59
519.988	16.83
520.418	17.07
520.848	17.3
521.278	17.53
521.708	17.78
522.138	18.01
522.567	18.22
522.997	18.42
523.427	18.64
523.857	18.86
524.286	19.09
524.716	19.3
525.145	19.49
525.575	19.66
526.004	19.84
526.433	19.99
526.863	20.14
527.292	20.31
527.721	20.45
528.15	20.59
528.579	20.73
529.008	20.85
529.437	20.97
529.866	21.1
530.295	21.22
530.724	21.32
531.152	21.43
531.581	21.53
532.01	21.64
532.438	21.74
532.867	21.82
533.295	21.91
533.723	21.98
534.152	22.05
534.58	22.12
535.008	22.17
535.436	22.24
535.865	22.28
536.293	22.32
536.721	22.33
537.149	22.38
537.576	22.42
538.004	22.43
538.432	22.45
538.86	22.49
539.287	22.51
539.715	22.56
540.143	22.59
540.57	22.61
540.998	22.62
541.425	22.65
541.852	22.67
542.28	22.7
542.707	22.71
543.134	22.74
543.561	22.75
543.988	22.78
544.415	22.78
544.842	22.78
545.269	22.81
545.696	22.85
546.123	22.87
546.549	22.9
546.976	22.93
547.403	22.96
547.829	22.98
548.256	23.02
548.682	23.03
549.108	23.05
549.535	23.09
549.961	23.11
550.387	23.11
550.813	23.12
551.24	23.11
551.666	23.11
552.092	23.11
552.518	23.1
552.943	23.08
553.369	23.08
553.795	23.05
554.221	23.02
554.646	22.98
555.072	22.94
555.498	22.91
555.923	22.87
556.349	22.82
556.774	22.76
557.199	22.7
557.625	22.64
558.05	22.57
558.475	22.52
558.9	22.45
559.325	22.4
559.75	22.34
560.175	22.28
560.6	22.19
561.025	22.11
561.449	22.04
561.874	21.95
562.299	21.87
562.723	21.76
563.148	21.66
563.572	21.54
563.997	21.44
564.421	21.31
564.846	21.19
565.27	21.07
565.694	20.95
566.118	20.81
566.542	20.67
566.966	20.53
567.39	20.4
567.814	20.25
568.238	20.12
568.662	19.96
569.086	19.82
569.509	19.67
569.933	19.53
570.357	19.38
570.78	19.24
571.204	19.11
571.627	18.99
572.05	18.86
572.474	18.74
572.897	18.62
573.32	18.52
573.743	18.41
574.166	18.31
574.589	18.21
575.012	18.11
575.435	18.01
575.858	17.92
576.281	17.82
576.704	17.73
577.126	17.64
577.549	17.54
577.972	17.45
578.394	17.36
578.817	17.27
579.239	17.19
579.661	17.12
580.084	17.06
580.506	16.99
580.928	16.92
581.35	16.84
581.772	16.77
582.194	16.71
582.616	16.65
583.038	16.58
583.46	16.52
583.882	16.46
584.303	16.4
584.725	16.33
585.147	16.28
585.568	16.23
585.99	16.19
586.411	16.13
586.833	16.08
587.254	16.01
587.675	15.97
588.096	15.93
588.518	15.88
588.939	15.84
589.36	15.8
589.781	15.76
590.202	15.72
590.623	15.68
591.043	15.64
591.464	15.61
591.885	15.58
592.305	15.54
592.726	15.51
593.147	15.48
593.567	15.44
593.987	15.41
594.408	15.37
594.828	15.34
595.248	15.3
595.669	15.28
596.089	15.26
596.509	15.24
596.929	15.22
597.349	15.19
597.769	15.16
598.189	15.12
598.608	15.09
599.028	15.06
599.448	15.02
599.867	14.99
600.287	14.95
600.706	14.91
601.126	14.85
601.545	14.8
601.965	14.76
602.384	14.72
602.803	14.68
603.222	14.64
603.641	14.57
604.061	14.52
604.48	14.46
604.898	14.4
605.317	14.35
605.736	14.31
606.155	14.25
606.574	14.19
606.992	14.13
607.411	14.07
607.829	13.98
608.248	13.91
608.666	13.85
609.085	13.8
609.503	13.72
609.921	13.65
610.339	13.58
610.758	13.51
611.176	13.43
611.594	13.36
612.012	13.28
612.43	13.23
612.847	13.17
613.265	13.1
613.683	13.03
614.101	12.97
614.518	12.91
614.936	12.84
615.353	12.77
615.771	12.72
616.188	12.66
616.606	12.61
617.023	12.56
617.44	12.51
617.857	12.47
618.274	12.41
618.691	12.35
619.108	12.31
619.525	12.27
619.942	12.24
620.359	12.21
620.776	12.17
621.192	12.14
621.609	12.12
622.026	12.07
622.442	12.05
622.859	12.04
623.275	12.02
623.691	12.01
624.108	11.99
624.524	11.97
624.94	11.95
625.356	11.93
625.772	11.92
626.188	11.91
626.604	11.89
627.02	11.88
627.436	11.86
627.852	11.85
628.268	11.83
628.683	11.82
629.099	11.8
629.514	11.79
629.93	11.77
630.345	11.74
630.761	11.71
631.176	11.69
631.591	11.65
632.007	11.61
632.422	11.56
632.837	11.52
633.252	11.45
633.667	11.39
634.082	11.33
634.497	11.25
634.911	11.18
635.326	11.11
635.741	11.03
636.155	10.96
636.57	10.87
636.984	10.79
637.399	10.69
637.813	10.61
638.228	10.51
638.642	10.41
639.056	10.32
639.47	10.23
639.884	10.12
640.298	10.01
640.712	9.9
641.126	9.8
641.54	9.69
641.954	9.59
642.368	9.48
642.781	9.38
643.195	9.28
643.609	9.18
644.022	9.07
644.436	9
644.849	8.9
645.262	8.81
645.676	8.73
646.089	8.65
646.502	8.59
646.915	8.52
647.328	8.47
647.741	8.41
648.154	8.36
648.567	8.33
648.98	8.28
649.393	8.24
649.805	8.21
650.218	8.18
650.631	8.15
651.043	8.11
651.456	8.09
651.868	8.05
652.28	8.03
652.693	8.01
653.105	7.96
653.517	7.93
653.929	7.89
654.341	7.85
654.753	7.79
655.165	7.74
655.577	7.7
655.989	7.64
656.401	7.58
656.813	7.53
657.224	7.46
657.636	7.39
658.047	7.33
658.459	7.25
658.87	7.18
659.282	7.11
659.693	7.04
660.104	6.95
660.515	6.88
660.926	6.81
661.338	6.74
661.749	6.66
662.159	6.59
662.57	6.53
662.981	6.47
663.392	6.42
663.803	6.37
664.213	6.31
664.624	6.27
665.035	6.23
665.445	6.19
665.855	6.15
666.266	6.13
666.676	6.1
667.086	6.06
667.497	6.03
667.907	6.02
668.317	6
668.727	5.97
669.137	5.97
669.547	5.96
669.956	5.95
670.366	5.94
670.776	5.94
671.186	5.94
671.595	5.95
672.005	5.95
672.414	5.96
672.824	5.96
673.233	5.98
673.642	5.99
674.052	6.01
674.461	6.03
674.87	6.05
675.279	6.08
675.688	6.1
676.097	6.13
676.506	6.16
676.915	6.19
677.323	6.24
677.732	6.28
678.141	6.32
678.549	6.35
678.958	6.4
679.366	6.45
679.775	6.51
680.183	6.57
680.592	6.64
681	6.72
681.408	6.81
681.816	6.9
682.224	7
682.632	7.11
683.04	7.24
683.448	7.37
683.856	7.51
684.264	7.67
684.671	7.85
685.079	8.04
685.487	8.25
685.894	8.48
686.302	8.74
686.709	9
687.116	9.28
687.524	9.6
687.931	9.94
688.338	10.3
688.745	10.66
689.152	11.05
689.559	11.46
689.966	11.88
690.373	12.32
690.78	12.76
691.187	13.23
691.593	13.7
692	14.18
692.407	14.66
692.813	15.15
693.22	15.65
693.626	16.15
694.032	16.65
694.439	17.15
694.845	17.65
695.251	18.16
695.657	18.65
696.063	19.15
696.469	19.65
696.875	20.16
697.281	20.64
697.687	21.13
698.093	21.59
698.498	22.06
698.904	22.53
699.31	22.98
699.715	23.42
700.12	23.87
700.526	24.32
700.931	24.73
701.337	25.16
701.742	25.57
702.147	25.95
702.552	26.37
702.957	26.74
703.362	27.1
703.767	27.47
704.172	27.85
704.577	28.2
704.981	28.55
705.386	28.89
705.791	29.21
706.195	29.56
706.6	29.92
707.004	30.25
707.408	30.58
707.813	30.9
708.217	31.22
708.621	31.5
709.025	31.78
709.43	32.06
709.834	32.35
710.237	32.63
710.641	32.87
711.045	33.12
711.449	33.38
711.853	33.63
712.256	33.87
712.66	34.1
713.064	34.32
713.467	34.55
713.87	34.77
714.274	34.96
714.677	35.18
715.08	35.38
715.484	35.59
715.887	35.81
716.29	36
716.693	36.23
717.096	36.43
717.499	36.65
717.901	36.84
718.304	37.05
718.707	37.26
719.109	37.44
719.512	37.61
719.915	37.79
720.317	37.95
720.719	38.09
721.122	38.26
721.524	38.41
721.926	38.53
722.328	38.71
722.731	38.85
723.133	38.99
723.535	39.13
723.937	39.26
724.338	39.38
724.74	39.51
725.142	39.66
725.544	39.76
725.945	39.89
726.347	40.01
726.748	40.08
727.15	40.17
727.551	40.29
727.952	40.38
728.354	40.49
728.755	40.57
729.156	40.63
729.557	40.7
729.958	40.77
730.359	40.84
730.76	40.92
731.161	40.98
731.562	41.08
731.962	41.12
732.363	41.2
732.763	41.27
733.164	41.33
733.564	41.4
733.965	41.44
734.365	41.51
734.766	41.56
735.166	41.6
735.566	41.67
735.966	41.7
736.366	41.76
736.766	41.78
737.166	41.81
737.566	41.84
737.966	41.87
738.365	41.91
738.765	41.93
739.165	41.98
739.564	41.99
739.964	42.01
740.363	42.02
740.763	42.03
741.162	42.05
741.561	42.03
741.96	42.06
742.36	42.08
742.759	42.11
743.158	42.11
743.557	42.11
743.955	42.14
744.354	42.16
744.753	42.18
745.152	42.21
745.55	42.23
745.949	42.28
746.348	42.31
746.746	42.31
747.144	42.32
747.543	42.34
747.941	42.37
748.339	42.37
748.737	42.39
749.136	42.41
749.534	42.39
749.932	42.39
750.33	42.41
750.727	42.42
751.125	42.44
751.523	42.43
751.921	42.44
752.318	42.42
752.716	42.42
753.113	42.4
753.511	42.38
753.908	42.42
754.305	42.42
754.703	42.39
755.1	42.38
755.497	42.35
755.894	42.35
756.291	42.32
756.688	42.3
757.085	42.31
757.482	42.31
757.878	42.29
758.275	42.26
758.672	42.26
759.068	42.28
759.465	42.27
759.861	42.28
760.258	42.28
760.654	42.28
761.05	42.29
761.447	42.28
761.843	42.27
762.239	42.27
762.635	42.28
763.031	42.26
763.427	42.24
763.822	42.24
764.218	42.24
764.614	42.26
765.01	42.26
765.405	42.27
765.801	42.25
766.196	42.25
766.592	42.24
766.987	42.24
767.382	42.24
767.778	42.23
768.173	42.24
768.568	42.23
768.963	42.2
769.358	42.21
769.753	42.19
770.148	42.21
770.542	42.19
770.937	42.19
771.332	42.19
771.726	42.2
772.121	42.18
772.515	42.19
772.91	42.17
773.304	42.21
773.699	42.2
774.093	42.21
774.487	42.19
774.881	42.22
775.275	42.22
775.669	42.18
776.063	42.16
776.457	42.17
776.851	42.14
777.245	42.14
777.638	42.09
778.032	42.11
778.425	42.11
778.819	42.13
779.212	42.1
779.606	42.1
779.999	42.12
780.392	42.13
780.786	42.15
