Data from N_3_DIV_IL_4N_Splice17_14-16-28-090.txt Node
Date: Sat Mar 07 14:16:28 EST 2020
User: sa697716
Spectrometer: NQ5500242
Trigger mode: 0
Integration Time (sec): 1.450000E-1
Scans to average: 20
Nonlinearity correction enabled: false
Boxcar width: 5
Storing dark spectrum: false
XAxis mode: Wavelengths
Number of Pixels in Spectrum: 512
>>>>>Begin Spectral Data<<<<<
187.83	204.95
188.298	204.34
188.766	183.84
189.233	155.52
189.701	151.78
190.169	168.49
190.636	173.38
191.104	226.57
191.571	161.21
192.039	-130.73
192.506	-589.96
192.974	265.64
193.441	318.77
193.908	165.67
194.375	85.21
194.842	27.31
195.31	22.11
195.777	-169.45
196.244	43.2
196.711	66.28
197.177	71.15
197.644	71.85
198.111	72.68
198.578	73.07
199.045	73.92
199.511	74.16
199.978	74.21
200.445	74.58
200.911	75.04
201.378	75.47
201.844	75.48
202.31	75.07
202.777	75.17
203.243	75.11
203.709	74.8
204.176	74.19
204.642	73.85
205.108	73.68
205.574	73.15
206.04	72.33
206.506	71.66
206.972	71.44
207.438	71.01
207.903	70.11
208.369	68.93
208.835	67.78
209.301	66.28
209.766	64.58
210.232	62.83
210.697	61.24
211.163	59.97
211.628	58.79
212.094	57.37
212.559	56.13
213.024	54.71
213.49	53.41
213.955	52.3
214.42	51.44
214.885	50.38
215.35	48.92
215.815	46.65
216.28	43.92
216.745	40.89
217.21	37.81
217.675	34.94
218.14	32.46
218.604	30.31
219.069	28.45
219.534	26.87
219.998	25.49
220.463	24.34
220.927	23.41
221.392	22.63
221.856	21.96
222.32	21.38
222.785	20.88
223.249	20.43
223.713	20
224.177	19.64
224.642	19.28
225.106	18.94
225.57	18.61
226.034	18.3
226.497	17.97
226.961	17.68
227.425	17.39
227.889	17.11
228.353	16.87
228.816	16.61
229.28	16.34
229.744	16.11
230.207	15.88
230.671	15.66
231.134	15.45
231.597	15.27
232.061	15.05
232.524	14.87
232.987	14.69
233.45	14.52
233.914	14.35
234.377	14.18
234.84	14
235.303	13.85
235.766	13.71
236.229	13.57
236.691	13.42
237.154	13.31
237.617	13.16
238.08	13.04
238.542	12.89
239.005	12.78
239.468	12.66
239.93	12.55
240.393	12.44
240.855	12.3
241.317	12.19
241.78	12.06
242.242	11.94
242.704	11.84
243.166	11.73
243.629	11.62
244.091	11.5
244.553	11.39
245.015	11.28
245.477	11.17
245.939	11.07
246.4	10.96
246.862	10.87
247.324	10.77
247.786	10.67
248.247	10.58
248.709	10.49
249.17	10.39
249.632	10.31
250.093	10.24
250.555	10.16
251.016	10.09
251.477	10.02
251.939	9.95
252.4	9.88
252.861	9.81
253.322	9.75
253.783	9.69
254.244	9.64
254.705	9.58
255.166	9.51
255.627	9.45
256.088	9.39
256.549	9.32
257.009	9.26
257.47	9.2
257.931	9.12
258.391	9.06
258.852	8.98
259.312	8.92
259.773	8.86
260.233	8.8
260.694	8.74
261.154	8.68
261.614	8.62
262.074	8.57
262.534	8.51
262.994	8.47
263.455	8.43
263.915	8.39
264.374	8.35
264.834	8.31
265.294	8.28
265.754	8.24
266.214	8.21
266.673	8.18
267.133	8.16
267.593	8.13
268.052	8.11
268.512	8.08
268.971	8.06
269.431	8.04
269.89	8.01
270.349	7.99
270.809	7.97
271.268	7.95
271.727	7.93
272.186	7.91
272.645	7.9
273.104	7.87
273.563	7.86
274.022	7.83
274.481	7.81
274.94	7.78
275.399	7.76
275.857	7.74
276.316	7.72
276.775	7.7
277.233	7.68
277.692	7.66
278.15	7.65
278.609	7.62
279.067	7.61
279.525	7.6
279.984	7.58
280.442	7.55
280.9	7.54
281.358	7.52
281.816	7.5
282.274	7.49
282.732	7.47
283.19	7.45
283.648	7.43
284.106	7.41
284.564	7.4
285.021	7.39
285.479	7.38
285.937	7.36
286.394	7.35
286.852	7.33
287.309	7.3
287.767	7.27
288.224	7.26
288.682	7.24
289.139	7.2
289.596	7.17
290.053	7.14
290.511	7.11
290.968	7.08
291.425	7.05
291.882	7.02
292.339	6.99
292.796	6.97
293.252	6.95
293.709	6.92
294.166	6.91
294.623	6.88
295.079	6.87
295.536	6.85
295.992	6.83
296.449	6.81
296.905	6.79
297.362	6.78
297.818	6.75
298.274	6.74
298.731	6.72
299.187	6.7
299.643	6.69
300.099	6.68
300.555	6.66
301.011	6.65
301.467	6.63
301.923	6.61
302.379	6.6
302.835	6.59
303.291	6.57
303.746	6.56
304.202	6.55
304.658	6.54
305.113	6.53
305.569	6.52
306.024	6.51
306.479	6.5
306.935	6.49
307.39	6.48
307.845	6.47
308.301	6.47
308.756	6.46
309.211	6.45
309.666	6.45
310.121	6.44
310.576	6.45
311.031	6.45
311.486	6.46
311.94	6.46
312.395	6.46
312.85	6.47
313.305	6.46
313.759	6.46
314.214	6.46
314.668	6.44
315.123	6.43
315.577	6.42
316.032	6.4
316.486	6.38
316.94	6.36
317.394	6.34
317.849	6.31
318.303	6.3
318.757	6.26
319.211	6.25
319.665	6.24
320.119	6.22
320.572	6.2
321.026	6.18
321.48	6.16
321.934	6.15
322.387	6.13
322.841	6.12
323.295	6.1
323.748	6.1
324.202	6.09
324.655	6.07
325.108	6.06
325.562	6.05
326.015	6.04
326.468	6.04
326.921	6.02
327.374	6.01
327.827	6.01
328.28	6
328.733	6
329.186	5.99
329.639	5.98
330.092	5.98
330.545	5.98
330.997	5.97
331.45	5.97
331.903	5.98
332.355	5.99
332.808	5.98
333.26	5.98
333.713	5.97
334.165	5.96
334.617	5.97
335.069	5.96
335.522	5.96
335.974	5.97
336.426	5.95
336.878	5.95
337.33	5.95
337.782	5.95
338.234	5.94
338.686	5.95
339.137	5.95
339.589	5.94
340.041	5.93
340.493	5.92
340.944	5.9
341.396	5.88
341.847	5.86
342.299	5.84
342.75	5.81
343.201	5.79
343.653	5.77
344.104	5.74
344.555	5.71
345.006	5.69
345.457	5.67
345.908	5.66
346.359	5.65
346.81	5.63
347.261	5.62
347.712	5.62
348.163	5.61
348.613	5.61
349.064	5.61
349.515	5.61
349.965	5.61
350.416	5.6
350.866	5.59
351.317	5.59
351.767	5.58
352.217	5.58
352.668	5.59
353.118	5.58
353.568	5.58
354.018	5.58
354.468	5.58
354.918	5.59
355.368	5.6
355.818	5.61
356.268	5.61
356.718	5.62
357.168	5.62
357.617	5.61
358.067	5.62
358.517	5.64
358.966	5.64
359.416	5.64
359.865	5.64
360.315	5.65
360.764	5.66
361.213	5.66
361.663	5.66
362.112	5.68
362.561	5.69
363.01	5.7
363.459	5.69
363.908	5.7
364.357	5.72
364.806	5.72
365.255	5.74
365.703	5.76
366.152	5.78
366.601	5.82
367.05	5.83
367.498	5.85
367.947	5.87
368.395	5.91
368.844	5.96
369.292	5.98
369.74	6.02
370.189	6.05
370.637	6.08
371.085	6.11
371.533	6.14
371.981	6.18
372.429	6.22
372.877	6.26
373.325	6.3
373.773	6.33
374.221	6.37
374.669	6.41
375.116	6.46
375.564	6.51
376.012	6.54
376.459	6.58
376.907	6.64
377.354	6.69
377.801	6.75
378.249	6.81
378.696	6.87
379.143	6.92
379.591	6.98
380.038	7.03
380.485	7.08
380.932	7.14
381.379	7.21
381.826	7.25
382.273	7.3
382.72	7.33
383.166	7.37
383.613	7.41
384.06	7.45
384.506	7.48
384.953	7.51
385.4	7.56
385.846	7.6
386.292	7.65
386.739	7.69
387.185	7.73
387.631	7.78
388.078	7.82
388.524	7.86
388.97	7.9
389.416	7.95
389.862	7.99
390.308	8.02
390.754	8.06
391.2	8.1
391.645	8.13
392.091	8.17
392.537	8.2
392.983	8.24
393.428	8.27
393.874	8.3
394.319	8.32
394.765	8.33
395.21	8.34
395.655	8.34
396.101	8.36
396.546	8.36
396.991	8.38
397.436	8.39
397.881	8.41
398.326	8.42
398.771	8.43
399.216	8.46
399.661	8.48
400.106	8.5
400.551	8.51
400.995	8.49
401.44	8.49
401.885	8.47
402.329	8.46
402.774	8.45
403.218	8.46
403.663	8.46
404.107	8.45
404.551	8.44
404.995	8.43
405.44	8.41
405.884	8.42
406.328	8.42
406.772	8.41
407.216	8.41
407.66	8.4
408.104	8.38
408.547	8.37
408.991	8.36
409.435	8.34
409.879	8.33
410.322	8.35
410.766	8.34
411.209	8.35
411.653	8.36
412.096	8.36
412.54	8.37
412.983	8.37
413.426	8.39
413.869	8.4
414.312	8.42
414.756	8.44
415.199	8.44
415.642	8.44
416.085	8.44
416.527	8.44
416.97	8.42
417.413	8.4
417.856	8.38
418.298	8.35
418.741	8.34
419.184	8.32
419.626	8.3
420.069	8.29
420.511	8.29
420.953	8.27
421.396	8.27
421.838	8.27
422.28	8.27
422.722	8.29
423.164	8.3
423.606	8.31
424.048	8.32
424.49	8.32
424.932	8.32
425.374	8.3
425.816	8.28
426.258	8.24
426.699	8.21
427.141	8.2
427.582	8.18
428.024	8.18
428.465	8.18
428.907	8.18
429.348	8.16
429.789	8.14
430.231	8.15
430.672	8.18
431.113	8.2
431.554	8.22
431.995	8.24
432.436	8.25
432.877	8.25
433.318	8.25
433.759	8.26
434.2	8.28
434.64	8.3
435.081	8.31
435.522	8.33
435.962	8.35
436.403	8.38
436.843	8.39
437.284	8.39
437.724	8.4
438.164	8.41
438.604	8.43
439.045	8.44
439.485	8.46
439.925	8.46
440.365	8.47
440.805	8.46
441.245	8.47
441.685	8.49
442.125	8.54
442.564	8.55
443.004	8.56
443.444	8.58
443.883	8.61
444.323	8.62
444.762	8.66
445.202	8.69
445.641	8.72
446.081	8.75
446.52	8.77
446.959	8.78
447.398	8.81
447.837	8.84
448.276	8.85
448.716	8.87
449.154	8.9
449.593	8.92
450.032	8.93
450.471	8.94
450.91	8.96
451.349	8.97
451.787	8.97
452.226	8.97
452.664	8.96
453.103	8.96
453.541	8.95
453.98	8.94
454.418	8.91
454.856	8.89
455.295	8.87
455.733	8.83
456.171	8.8
456.609	8.77
457.047	8.74
457.485	8.73
457.923	8.71
458.361	8.69
458.798	8.68
459.236	8.67
459.674	8.65
460.111	8.63
460.549	8.62
460.987	8.63
461.424	8.62
461.862	8.63
462.299	8.62
462.736	8.61
463.173	8.61
463.611	8.6
464.048	8.6
464.485	8.59
464.922	8.6
465.359	8.6
465.796	8.6
466.233	8.6
466.67	8.6
467.106	8.6
467.543	8.6
467.98	8.6
468.416	8.61
468.853	8.61
469.29	8.61
469.726	8.61
470.162	8.62
470.599	8.63
471.035	8.62
471.471	8.62
471.907	8.62
472.344	8.63
472.78	8.63
473.216	8.61
473.652	8.61
474.088	8.59
474.523	8.6
474.959	8.59
475.395	8.57
475.831	8.57
476.266	8.59
476.702	8.57
477.138	8.57
477.573	8.56
478.008	8.56
478.444	8.55
478.879	8.56
479.314	8.53
479.75	8.53
480.185	8.52
480.62	8.52
481.055	8.5
481.49	8.49
481.925	8.49
482.36	8.47
482.795	8.47
483.229	8.47
483.664	8.47
484.099	8.48
484.534	8.48
484.968	8.49
485.403	8.49
485.837	8.5
486.271	8.51
486.706	8.53
487.14	8.54
487.574	8.56
488.009	8.58
488.443	8.58
488.877	8.61
489.311	8.64
489.745	8.66
490.179	8.69
490.613	8.73
491.046	8.77
491.48	8.81
491.914	8.86
492.348	8.91
492.781	8.96
493.215	9.02
493.648	9.09
494.082	9.14
494.515	9.21
494.948	9.28
495.382	9.35
495.815	9.41
496.248	9.49
496.681	9.58
497.114	9.66
497.547	9.75
497.98	9.84
498.413	9.93
498.846	10.04
499.279	10.14
499.711	10.26
500.144	10.39
500.577	10.51
501.009	10.64
501.442	10.77
501.874	10.92
502.306	11.07
502.739	11.23
503.171	11.39
503.603	11.55
504.036	11.74
504.468	11.92
504.9	12.09
505.332	12.29
505.764	12.49
506.196	12.71
506.627	12.93
507.059	13.16
507.491	13.38
507.923	13.61
508.354	13.88
508.786	14.12
509.217	14.38
509.649	14.65
510.08	14.91
510.512	15.18
510.943	15.45
511.374	15.72
511.805	16.02
512.237	16.31
512.668	16.61
513.099	16.9
513.53	17.22
513.961	17.53
514.391	17.85
514.822	18.18
515.253	18.5
515.684	18.84
516.114	19.18
516.545	19.51
516.975	19.84
517.406	20.18
517.836	20.52
518.267	20.86
518.697	21.19
519.127	21.5
519.558	21.82
519.988	22.17
520.418	22.48
520.848	22.8
521.278	23.11
521.708	23.51
522.138	23.81
522.567	24.09
522.997	24.37
523.427	24.66
523.857	24.94
524.286	25.2
524.716	25.45
525.145	25.7
525.575	25.95
526.004	26.18
526.433	26.32
526.863	26.55
527.292	26.78
527.721	26.98
528.15	27.18
528.579	27.37
529.008	27.56
529.437	27.72
529.866	27.88
530.295	28.03
530.724	28.17
531.152	28.31
531.581	28.45
532.01	28.58
532.438	28.71
532.867	28.82
533.295	28.9
533.723	29
534.152	29.1
534.58	29.19
535.008	29.27
535.436	29.35
535.865	29.41
536.293	29.46
536.721	29.5
537.149	29.56
537.576	29.62
538.004	29.68
538.432	29.71
538.86	29.76
539.287	29.79
539.715	29.85
540.143	29.87
540.57	29.91
540.998	29.93
541.425	29.97
541.852	30
542.28	30.02
542.707	30.05
543.134	30.1
543.561	30.15
543.988	30.17
544.415	30.2
544.842	30.24
545.269	30.28
545.696	30.34
546.123	30.36
546.549	30.39
546.976	30.44
547.403	30.47
547.829	30.49
548.256	30.52
548.682	30.56
549.108	30.58
549.535	30.62
549.961	30.64
550.387	30.64
550.813	30.65
551.24	30.66
551.666	30.65
552.092	30.65
552.518	30.65
552.943	30.63
553.369	30.6
553.795	30.58
554.221	30.55
554.646	30.51
555.072	30.47
555.498	30.43
555.923	30.38
556.349	30.32
556.774	30.24
557.199	30.17
557.625	30.09
558.05	30.04
558.475	29.96
558.9	29.89
559.325	29.83
559.75	29.74
560.175	29.65
560.6	29.54
561.025	29.44
561.449	29.34
561.874	29.22
562.299	29.12
562.723	28.97
563.148	28.82
563.572	28.66
563.997	28.5
564.421	28.33
564.846	28.15
565.27	27.98
565.694	27.82
566.118	27.64
566.542	27.47
566.966	27.27
567.39	27.08
567.814	26.91
568.238	26.73
568.662	26.55
569.086	26.37
569.509	26.2
569.933	26.03
570.357	25.82
570.78	25.65
571.204	25.47
571.627	25.3
572.05	25.14
572.474	24.98
572.897	24.83
573.32	24.66
573.743	24.52
574.166	24.39
574.589	24.26
575.012	24.13
575.435	24
575.858	23.88
576.281	23.77
576.704	23.66
577.126	23.54
577.549	23.42
577.972	23.3
578.394	23.2
578.817	23.09
579.239	22.99
579.661	22.9
580.084	22.81
580.506	22.73
580.928	22.64
581.35	22.53
581.772	22.44
582.194	22.36
582.616	22.28
583.038	22.18
583.46	22.08
583.882	22
584.303	21.92
584.725	21.83
585.147	21.75
585.568	21.66
585.99	21.59
586.411	21.51
586.833	21.43
587.254	21.36
587.675	21.3
588.096	21.24
588.518	21.18
588.939	21.13
589.36	21.07
589.781	21.01
590.202	20.97
590.623	20.93
591.043	20.89
591.464	20.86
591.885	20.82
592.305	20.78
592.726	20.74
593.147	20.68
593.567	20.65
593.987	20.6
594.408	20.55
594.828	20.51
595.248	20.47
595.669	20.45
596.089	20.41
596.509	20.37
596.929	20.33
597.349	20.29
597.769	20.26
598.189	20.21
598.608	20.18
599.028	20.14
599.448	20.1
599.867	20.04
600.287	19.99
600.706	19.93
601.126	19.87
601.545	19.83
601.965	19.79
602.384	19.72
602.803	19.66
603.222	19.59
603.641	19.53
604.061	19.46
604.48	19.39
604.898	19.3
605.317	19.22
605.736	19.15
606.155	19.06
606.574	18.97
606.992	18.89
607.411	18.81
607.829	18.69
608.248	18.6
608.666	18.51
609.085	18.43
609.503	18.36
609.921	18.28
610.339	18.19
610.758	18.11
611.176	18.01
611.594	17.94
612.012	17.86
612.43	17.8
612.847	17.72
613.265	17.63
613.683	17.54
614.101	17.45
614.518	17.37
614.936	17.29
615.353	17.2
615.771	17.13
616.188	17.05
616.606	16.98
617.023	16.92
617.44	16.86
617.857	16.81
618.274	16.75
618.691	16.69
619.108	16.64
619.525	16.59
619.942	16.55
620.359	16.51
620.776	16.47
621.192	16.43
621.609	16.39
622.026	16.36
622.442	16.32
622.859	16.29
623.275	16.26
623.691	16.25
624.108	16.23
624.524	16.2
624.94	16.19
625.356	16.18
625.772	16.16
626.188	16.14
626.604	16.12
627.02	16.11
627.436	16.09
627.852	16.08
628.268	16.07
628.683	16.05
629.099	16.04
629.514	16.01
629.93	15.98
630.345	15.96
630.761	15.92
631.176	15.88
631.591	15.84
632.007	15.79
632.422	15.73
632.837	15.67
633.252	15.6
633.667	15.52
634.082	15.44
634.497	15.35
634.911	15.26
635.326	15.17
635.741	15.06
636.155	14.96
636.57	14.85
636.984	14.74
637.399	14.61
637.813	14.47
638.228	14.33
638.642	14.2
639.056	14.05
639.47	13.91
639.884	13.77
640.298	13.63
640.712	13.49
641.126	13.35
641.54	13.2
641.954	13.06
642.368	12.91
642.781	12.78
643.195	12.66
643.609	12.53
644.022	12.41
644.436	12.3
644.849	12.17
645.262	12.06
645.676	11.95
646.089	11.87
646.502	11.79
646.915	11.72
647.328	11.65
647.741	11.58
648.154	11.52
648.567	11.45
648.98	11.39
649.393	11.35
649.805	11.3
650.218	11.26
650.631	11.22
651.043	11.18
651.456	11.14
651.868	11.1
652.28	11.05
652.693	11.02
653.105	10.98
653.517	10.93
653.929	10.87
654.341	10.82
654.753	10.74
655.165	10.68
655.577	10.61
655.989	10.53
656.401	10.45
656.813	10.38
657.224	10.29
657.636	10.19
658.047	10.11
658.459	10.02
658.87	9.92
659.282	9.83
659.693	9.73
660.104	9.63
660.515	9.54
660.926	9.46
661.338	9.37
661.749	9.29
662.159	9.22
662.57	9.16
662.981	9.09
663.392	9.03
663.803	8.96
664.213	8.9
664.624	8.85
665.035	8.79
665.445	8.75
665.855	8.7
666.266	8.66
666.676	8.62
667.086	8.57
667.497	8.53
667.907	8.51
668.317	8.49
668.727	8.47
669.137	8.47
669.547	8.45
669.956	8.45
670.366	8.44
670.776	8.43
671.186	8.44
671.595	8.44
672.005	8.44
672.414	8.45
672.824	8.45
673.233	8.47
673.642	8.48
674.052	8.51
674.461	8.53
674.87	8.54
675.279	8.58
675.688	8.61
676.097	8.64
676.506	8.69
676.915	8.74
677.323	8.79
677.732	8.83
678.141	8.88
678.549	8.94
678.958	9.01
679.366	9.1
679.775	9.17
680.183	9.25
680.592	9.35
681	9.46
681.408	9.57
681.816	9.7
682.224	9.84
682.632	10
683.04	10.15
683.448	10.34
683.856	10.53
684.264	10.75
684.671	11
685.079	11.25
685.487	11.53
685.894	11.85
686.302	12.18
686.709	12.53
687.116	12.92
687.524	13.33
687.931	13.77
688.338	14.24
688.745	14.73
689.152	15.24
689.559	15.79
689.966	16.35
690.373	16.91
690.78	17.51
691.187	18.12
691.593	18.74
692	19.39
692.407	20.03
692.813	20.68
693.22	21.34
693.626	22
694.032	22.69
694.439	23.38
694.845	24.07
695.251	24.75
695.657	25.42
696.063	26.11
696.469	26.79
696.875	27.48
697.281	28.14
697.687	28.8
698.093	29.46
698.498	30.09
698.904	30.71
699.31	31.33
699.715	31.95
700.12	32.56
700.526	33.14
700.931	33.73
701.337	34.29
701.742	34.85
702.147	35.39
702.552	35.95
702.957	36.45
703.362	36.97
703.767	37.46
704.172	37.94
704.577	38.43
704.981	38.92
705.386	39.4
705.791	39.86
706.195	40.34
706.6	40.81
707.004	41.24
707.408	41.69
707.813	42.14
708.217	42.57
708.621	43.01
709.025	43.39
709.43	43.77
709.834	44.18
710.237	44.57
710.641	44.91
711.045	45.29
711.449	45.67
711.853	46.03
712.256	46.37
712.66	46.71
713.064	47.03
713.467	47.39
713.87	47.74
714.274	48.04
714.677	48.35
715.08	48.66
715.484	48.96
715.887	49.25
716.29	49.54
716.693	49.83
717.096	50.13
717.499	50.43
717.901	50.71
718.304	50.96
718.707	51.22
719.109	51.47
719.512	51.74
719.915	51.96
720.317	52.18
720.719	52.39
721.122	52.59
721.524	52.81
721.926	53.02
722.328	53.2
722.731	53.38
723.133	53.6
723.535	53.8
723.937	53.99
724.338	54.16
724.74	54.35
725.142	54.58
725.544	54.74
725.945	54.91
726.347	55.05
726.748	55.2
727.15	55.35
727.551	55.49
727.952	55.61
728.354	55.74
728.755	55.86
729.156	55.97
729.557	56.06
729.958	56.19
730.359	56.31
730.76	56.43
731.161	56.54
731.562	56.65
731.962	56.71
732.363	56.83
732.763	56.92
733.164	57.01
733.564	57.11
733.965	57.17
734.365	57.24
734.766	57.3
735.166	57.38
735.566	57.44
735.966	57.51
736.366	57.59
736.766	57.64
737.166	57.72
737.566	57.79
737.966	57.83
738.365	57.89
738.765	57.93
739.165	57.99
739.564	58.04
739.964	58.1
740.363	58.12
740.763	58.17
741.162	58.2
741.561	58.18
741.96	58.19
742.36	58.23
742.759	58.26
743.158	58.3
743.557	58.3
743.955	58.33
744.354	58.37
744.753	58.44
745.152	58.47
745.55	58.49
745.949	58.57
746.348	58.6
746.746	58.62
747.144	58.67
747.543	58.69
747.941	58.73
748.339	58.72
748.737	58.73
749.136	58.73
749.534	58.7
749.932	58.73
750.33	58.71
750.727	58.73
751.125	58.73
751.523	58.72
751.921	58.7
752.318	58.69
752.716	58.68
753.113	58.67
753.511	58.68
753.908	58.72
754.305	58.7
754.703	58.7
755.1	58.69
755.497	58.72
755.894	58.7
756.291	58.71
756.688	58.69
757.085	58.71
757.482	58.72
757.878	58.69
758.275	58.65
758.672	58.64
759.068	58.67
759.465	58.65
759.861	58.62
760.258	58.64
760.654	58.64
761.05	58.65
761.447	58.65
761.843	58.65
762.239	58.68
762.635	58.69
763.031	58.71
763.427	58.68
763.822	58.7
764.218	58.72
764.614	58.72
765.01	58.7
765.405	58.69
765.801	58.67
766.196	58.67
766.592	58.64
766.987	58.65
767.382	58.63
767.778	58.66
768.173	58.67
768.568	58.66
768.963	58.65
769.358	58.68
769.753	58.67
770.148	58.67
770.542	58.69
770.937	58.71
771.332	58.69
771.726	58.7
772.121	58.68
772.515	58.66
772.91	58.65
773.304	58.66
773.699	58.65
774.093	58.63
774.487	58.63
774.881	58.63
775.275	58.6
775.669	58.61
776.063	58.6
776.457	58.63
776.851	58.64
777.245	58.62
777.638	58.58
778.032	58.61
778.425	58.66
