Data from N_3_DIV_IL_4N_Splice17_14-16-16-217.txt Node
Date: Sat Mar 07 14:16:16 EST 2020
User: sa697716
Spectrometer: NQ5500242
Trigger mode: 0
Integration Time (sec): 1.450000E-1
Scans to average: 20
Nonlinearity correction enabled: false
Boxcar width: 5
Storing dark spectrum: false
XAxis mode: Wavelengths
Number of Pixels in Spectrum: 512
>>>>>Begin Spectral Data<<<<<
187.83	147.32
188.298	162.18
188.766	141.03
189.233	127.42
189.701	133.56
190.169	150.98
190.636	153.72
191.104	188.17
191.571	-54.67
192.039	-209.52
192.506	-689.75
192.974	204.66
193.441	230.63
193.908	75.45
194.375	65.17
194.842	56.07
195.31	66.96
195.777	-173.65
196.244	42.71
196.711	64.01
197.177	68.04
197.644	69.09
198.111	70.2
198.578	70.72
199.045	71.35
199.511	71.39
199.978	71.5
200.445	71.83
200.911	72.36
201.378	72.8
201.844	72.62
202.31	72.43
202.777	72.47
203.243	72.39
203.709	72.21
204.176	71.82
204.642	71.38
205.108	70.98
205.574	70.3
206.04	69.48
206.506	68.57
206.972	68.24
207.438	67.41
207.903	66.61
208.369	65.2
208.835	64.03
209.301	62.53
209.766	60.97
210.232	59.44
210.697	58.08
211.163	56.74
211.628	55.78
212.094	54.38
212.559	53.14
213.024	51.84
213.49	50.74
213.955	49.61
214.42	48.62
214.885	47.4
215.35	45.73
215.815	43.45
216.28	40.83
216.745	37.78
217.21	34.87
217.675	32.16
218.14	29.74
218.604	27.65
219.069	25.79
219.534	24.3
219.998	23.03
220.463	22
220.927	21.11
221.392	20.34
221.856	19.67
222.32	19.1
222.785	18.6
223.249	18.14
223.713	17.72
224.177	17.39
224.642	17.03
225.106	16.7
225.57	16.36
226.034	16.06
226.497	15.79
226.961	15.52
227.425	15.28
227.889	15.02
228.353	14.8
228.816	14.57
229.28	14.33
229.744	14.11
230.207	13.9
230.671	13.69
231.134	13.5
231.597	13.33
232.061	13.16
232.524	12.98
232.987	12.81
233.45	12.66
233.914	12.5
234.377	12.35
234.84	12.21
235.303	12.08
235.766	11.97
236.229	11.83
236.691	11.7
237.154	11.57
237.617	11.45
238.08	11.34
238.542	11.22
239.005	11.13
239.468	11.02
239.93	10.93
240.393	10.83
240.855	10.71
241.317	10.61
241.78	10.51
242.242	10.4
242.704	10.31
243.166	10.21
243.629	10.12
244.091	10
244.553	9.91
245.015	9.8
245.477	9.71
245.939	9.62
246.4	9.53
246.862	9.45
247.324	9.38
247.786	9.3
248.247	9.23
248.709	9.15
249.17	9.07
249.632	9.02
250.093	8.95
250.555	8.88
251.016	8.82
251.477	8.76
251.939	8.7
252.4	8.65
252.861	8.59
253.322	8.53
253.783	8.48
254.244	8.43
254.705	8.37
255.166	8.32
255.627	8.26
256.088	8.21
256.549	8.16
257.009	8.11
257.47	8.06
257.931	8
258.391	7.94
258.852	7.88
259.312	7.84
259.773	7.79
260.233	7.74
260.694	7.7
261.154	7.65
261.614	7.6
262.074	7.55
262.534	7.51
262.994	7.47
263.455	7.43
263.915	7.4
264.374	7.37
264.834	7.34
265.294	7.3
265.754	7.28
266.214	7.25
266.673	7.23
267.133	7.21
267.593	7.18
268.052	7.15
268.512	7.14
268.971	7.13
269.431	7.11
269.89	7.09
270.349	7.08
270.809	7.05
271.268	7.03
271.727	7.01
272.186	7
272.645	6.99
273.104	6.97
273.563	6.95
274.022	6.93
274.481	6.92
274.94	6.91
275.399	6.89
275.857	6.88
276.316	6.86
276.775	6.85
277.233	6.83
277.692	6.82
278.15	6.81
278.609	6.79
279.067	6.77
279.525	6.75
279.984	6.72
280.442	6.7
280.9	6.69
281.358	6.67
281.816	6.66
282.274	6.64
282.732	6.62
283.19	6.61
283.648	6.59
284.106	6.59
284.564	6.58
285.021	6.58
285.479	6.56
285.937	6.55
286.394	6.54
286.852	6.51
287.309	6.49
287.767	6.48
288.224	6.45
288.682	6.43
289.139	6.4
289.596	6.37
290.053	6.34
290.511	6.31
290.968	6.29
291.425	6.26
291.882	6.24
292.339	6.21
292.796	6.18
293.252	6.16
293.709	6.14
294.166	6.12
294.623	6.1
295.079	6.09
295.536	6.07
295.992	6.05
296.449	6.04
296.905	6.02
297.362	6.01
297.818	6
298.274	5.99
298.731	5.97
299.187	5.95
299.643	5.94
300.099	5.93
300.555	5.92
301.011	5.91
301.467	5.89
301.923	5.87
302.379	5.87
302.835	5.86
303.291	5.85
303.746	5.84
304.202	5.84
304.658	5.83
305.113	5.82
305.569	5.81
306.024	5.81
306.479	5.79
306.935	5.79
307.39	5.79
307.845	5.78
308.301	5.78
308.756	5.78
309.211	5.77
309.666	5.78
310.121	5.77
310.576	5.77
311.031	5.76
311.486	5.77
311.94	5.77
312.395	5.77
312.85	5.76
313.305	5.76
313.759	5.75
314.214	5.74
314.668	5.73
315.123	5.72
315.577	5.71
316.032	5.7
316.486	5.69
316.94	5.67
317.394	5.66
317.849	5.63
318.303	5.62
318.757	5.6
319.211	5.58
319.665	5.57
320.119	5.55
320.572	5.54
321.026	5.53
321.48	5.51
321.934	5.49
322.387	5.48
322.841	5.47
323.295	5.46
323.748	5.45
324.202	5.43
324.655	5.42
325.108	5.42
325.562	5.41
326.015	5.41
326.468	5.4
326.921	5.4
327.374	5.4
327.827	5.4
328.28	5.39
328.733	5.39
329.186	5.39
329.639	5.39
330.092	5.38
330.545	5.38
330.997	5.37
331.45	5.38
331.903	5.38
332.355	5.39
332.808	5.38
333.26	5.39
333.713	5.39
334.165	5.39
334.617	5.4
335.069	5.4
335.522	5.4
335.974	5.4
336.426	5.39
336.878	5.39
337.33	5.38
337.782	5.38
338.234	5.37
338.686	5.37
339.137	5.38
339.589	5.36
340.041	5.34
340.493	5.33
340.944	5.32
341.396	5.3
341.847	5.28
342.299	5.26
342.75	5.24
343.201	5.22
343.653	5.2
344.104	5.18
344.555	5.16
345.006	5.15
345.457	5.13
345.908	5.12
346.359	5.12
346.81	5.11
347.261	5.1
347.712	5.09
348.163	5.08
348.613	5.07
349.064	5.07
349.515	5.06
349.965	5.06
350.416	5.06
350.866	5.06
351.317	5.05
351.767	5.05
352.217	5.06
352.668	5.06
353.118	5.07
353.568	5.06
354.018	5.06
354.468	5.07
354.918	5.07
355.368	5.07
355.818	5.08
356.268	5.08
356.718	5.08
357.168	5.07
357.617	5.07
358.067	5.07
358.517	5.09
358.966	5.1
359.416	5.11
359.865	5.12
360.315	5.13
360.764	5.13
361.213	5.13
361.663	5.14
362.112	5.16
362.561	5.17
363.01	5.17
363.459	5.16
363.908	5.17
364.357	5.18
364.806	5.18
365.255	5.2
365.703	5.22
366.152	5.23
366.601	5.25
367.05	5.27
367.498	5.29
367.947	5.32
368.395	5.35
368.844	5.38
369.292	5.41
369.74	5.44
370.189	5.47
370.637	5.49
371.085	5.52
371.533	5.55
371.981	5.58
372.429	5.61
372.877	5.65
373.325	5.68
373.773	5.72
374.221	5.76
374.669	5.79
375.116	5.84
375.564	5.88
376.012	5.91
376.459	5.95
376.907	6
377.354	6.05
377.801	6.09
378.249	6.14
378.696	6.17
379.143	6.22
379.591	6.27
380.038	6.32
380.485	6.37
380.932	6.44
381.379	6.49
381.826	6.54
382.273	6.59
382.72	6.63
383.166	6.67
383.613	6.71
384.06	6.74
384.506	6.78
384.953	6.82
385.4	6.86
385.846	6.9
386.292	6.93
386.739	6.97
387.185	7.01
387.631	7.06
388.078	7.1
388.524	7.14
388.97	7.18
389.416	7.21
389.862	7.25
390.308	7.29
390.754	7.32
391.2	7.36
391.645	7.39
392.091	7.44
392.537	7.46
392.983	7.5
393.428	7.53
393.874	7.57
394.319	7.6
394.765	7.6
395.21	7.62
395.655	7.63
396.101	7.65
396.546	7.66
396.991	7.67
397.436	7.67
397.881	7.69
398.326	7.7
398.771	7.71
399.216	7.73
399.661	7.75
400.106	7.75
400.551	7.75
400.995	7.73
401.44	7.72
401.885	7.71
402.329	7.71
402.774	7.7
403.218	7.7
403.663	7.7
404.107	7.7
404.551	7.71
404.995	7.72
405.44	7.72
405.884	7.72
406.328	7.73
406.772	7.73
407.216	7.74
407.66	7.73
408.104	7.72
408.547	7.71
408.991	7.71
409.435	7.69
409.879	7.68
410.322	7.68
410.766	7.69
411.209	7.69
411.653	7.69
412.096	7.7
412.54	7.7
412.983	7.71
413.426	7.73
413.869	7.74
414.312	7.76
414.756	7.78
415.199	7.79
415.642	7.8
416.085	7.79
416.527	7.78
416.97	7.75
417.413	7.74
417.856	7.73
418.298	7.71
418.741	7.7
419.184	7.67
419.626	7.65
420.069	7.65
420.511	7.64
420.953	7.64
421.396	7.64
421.838	7.65
422.28	7.65
422.722	7.66
423.164	7.66
423.606	7.65
424.048	7.66
424.49	7.66
424.932	7.64
425.374	7.63
425.816	7.6
426.258	7.58
426.699	7.55
427.141	7.52
427.582	7.51
428.024	7.51
428.465	7.51
428.907	7.52
429.348	7.49
429.789	7.48
430.231	7.48
430.672	7.5
431.113	7.51
431.554	7.53
431.995	7.57
432.436	7.58
432.877	7.57
433.318	7.58
433.759	7.57
434.2	7.61
434.64	7.62
435.081	7.63
435.522	7.64
435.962	7.66
436.403	7.68
436.843	7.69
437.284	7.71
437.724	7.72
438.164	7.71
438.604	7.72
439.045	7.72
439.485	7.73
439.925	7.73
440.365	7.73
440.805	7.74
441.245	7.75
441.685	7.76
442.125	7.77
442.564	7.79
443.004	7.8
443.444	7.82
443.883	7.85
444.323	7.86
444.762	7.89
445.202	7.91
445.641	7.93
446.081	7.95
446.52	7.95
446.959	7.97
447.398	8
447.837	8.04
448.276	8.05
448.716	8.07
449.154	8.1
449.593	8.12
450.032	8.14
450.471	8.15
450.91	8.13
451.349	8.13
451.787	8.12
452.226	8.11
452.664	8.1
453.103	8.08
453.541	8.06
453.98	8.05
454.418	8.01
454.856	7.98
455.295	7.96
455.733	7.94
456.171	7.93
456.609	7.91
457.047	7.87
457.485	7.85
457.923	7.84
458.361	7.81
458.798	7.81
459.236	7.79
459.674	7.79
460.111	7.77
460.549	7.76
460.987	7.76
461.424	7.76
461.862	7.77
462.299	7.76
462.736	7.75
463.173	7.76
463.611	7.75
464.048	7.75
464.485	7.75
464.922	7.76
465.359	7.78
465.796	7.77
466.233	7.76
466.67	7.76
467.106	7.76
467.543	7.77
467.98	7.77
468.416	7.77
468.853	7.78
469.29	7.77
469.726	7.78
470.162	7.79
470.599	7.8
471.035	7.79
471.471	7.79
471.907	7.78
472.344	7.78
472.78	7.78
473.216	7.77
473.652	7.76
474.088	7.75
474.523	7.74
474.959	7.73
475.395	7.71
475.831	7.71
476.266	7.71
476.702	7.71
477.138	7.7
477.573	7.69
478.008	7.7
478.444	7.7
478.879	7.72
479.314	7.7
479.75	7.7
480.185	7.69
480.62	7.69
481.055	7.68
481.49	7.67
481.925	7.67
482.36	7.66
482.795	7.64
483.229	7.63
483.664	7.63
484.099	7.61
484.534	7.6
484.968	7.62
485.403	7.63
485.837	7.64
486.271	7.65
486.706	7.66
487.14	7.67
487.574	7.68
488.009	7.7
488.443	7.72
488.877	7.76
489.311	7.79
489.745	7.81
490.179	7.84
490.613	7.87
491.046	7.9
491.48	7.93
491.914	7.98
492.348	8.03
492.781	8.08
493.215	8.13
493.648	8.18
494.082	8.25
494.515	8.3
494.948	8.35
495.382	8.42
495.815	8.5
496.248	8.56
496.681	8.64
497.114	8.71
497.547	8.79
497.98	8.88
498.413	8.97
498.846	9.06
499.279	9.15
499.711	9.26
500.144	9.38
500.577	9.48
501.009	9.61
501.442	9.73
501.874	9.86
502.306	10
502.739	10.14
503.171	10.29
503.603	10.45
504.036	10.62
504.468	10.78
504.9	10.94
505.332	11.12
505.764	11.29
506.196	11.47
506.627	11.66
507.059	11.86
507.491	12.06
507.923	12.26
508.354	12.49
508.786	12.72
509.217	12.95
509.649	13.18
510.08	13.44
510.512	13.69
510.943	13.96
511.374	14.22
511.805	14.49
512.237	14.76
512.668	15.04
513.099	15.32
513.53	15.58
513.961	15.87
514.391	16.16
514.822	16.46
515.253	16.76
515.684	17.06
516.114	17.36
516.545	17.66
516.975	17.97
517.406	18.29
517.836	18.59
518.267	18.92
518.697	19.22
519.127	19.52
519.558	19.82
519.988	20.12
520.418	20.41
520.848	20.71
521.278	20.98
521.708	21.37
522.138	21.63
522.567	21.9
522.997	22.15
523.427	22.41
523.857	22.66
524.286	22.89
524.716	23.13
525.145	23.37
525.575	23.59
526.004	23.81
526.433	23.93
526.863	24.13
527.292	24.33
527.721	24.53
528.15	24.71
528.579	24.89
529.008	25.06
529.437	25.23
529.866	25.37
530.295	25.52
530.724	25.66
531.152	25.78
531.581	25.91
532.01	26.02
532.438	26.14
532.867	26.23
533.295	26.34
533.723	26.42
534.152	26.5
534.58	26.6
535.008	26.65
535.436	26.72
535.865	26.8
536.293	26.85
536.721	26.92
537.149	26.97
537.576	27.02
538.004	27.08
538.432	27.12
538.86	27.16
539.287	27.17
539.715	27.23
540.143	27.27
540.57	27.29
540.998	27.33
541.425	27.34
541.852	27.37
542.28	27.41
542.707	27.44
543.134	27.48
543.561	27.53
543.988	27.56
544.415	27.59
544.842	27.61
545.269	27.64
545.696	27.68
546.123	27.72
546.549	27.75
546.976	27.78
547.403	27.8
547.829	27.83
548.256	27.85
548.682	27.88
549.108	27.92
549.535	27.96
549.961	27.98
550.387	27.99
550.813	28
551.24	28
551.666	28
552.092	28.01
552.518	28
552.943	27.98
553.369	27.96
553.795	27.93
554.221	27.89
554.646	27.85
555.072	27.83
555.498	27.79
555.923	27.74
556.349	27.69
556.774	27.62
557.199	27.57
557.625	27.51
558.05	27.45
558.475	27.38
558.9	27.31
559.325	27.23
559.75	27.13
560.175	27.06
560.6	26.96
561.025	26.86
561.449	26.74
561.874	26.62
562.299	26.5
562.723	26.38
563.148	26.24
563.572	26.1
563.997	25.95
564.421	25.8
564.846	25.63
565.27	25.49
565.694	25.34
566.118	25.2
566.542	25.04
566.966	24.86
567.39	24.69
567.814	24.53
568.238	24.36
568.662	24.18
569.086	24.02
569.509	23.87
569.933	23.7
570.357	23.54
570.78	23.37
571.204	23.2
571.627	23.05
572.05	22.9
572.474	22.76
572.897	22.63
573.32	22.49
573.743	22.36
574.166	22.22
574.589	22.09
575.012	21.97
575.435	21.88
575.858	21.79
576.281	21.69
576.704	21.6
577.126	21.49
577.549	21.39
577.972	21.29
578.394	21.18
578.817	21.08
579.239	20.99
579.661	20.9
580.084	20.8
580.506	20.7
580.928	20.6
581.35	20.52
581.772	20.42
582.194	20.35
582.616	20.29
583.038	20.23
583.46	20.15
583.882	20.07
584.303	19.97
584.725	19.91
585.147	19.83
585.568	19.77
585.99	19.69
586.411	19.63
586.833	19.57
587.254	19.51
587.675	19.44
588.096	19.4
588.518	19.34
588.939	19.31
589.36	19.26
589.781	19.21
590.202	19.17
590.623	19.13
591.043	19.09
591.464	19.06
591.885	19.01
592.305	18.97
592.726	18.94
593.147	18.91
593.567	18.87
593.987	18.82
594.408	18.79
594.828	18.75
595.248	18.71
595.669	18.68
596.089	18.64
596.509	18.61
596.929	18.56
597.349	18.52
597.769	18.48
598.189	18.44
598.608	18.42
599.028	18.38
599.448	18.33
599.867	18.29
600.287	18.23
600.706	18.19
601.126	18.13
601.545	18.09
601.965	18.04
602.384	17.98
602.803	17.93
603.222	17.86
603.641	17.79
604.061	17.74
604.48	17.66
604.898	17.58
605.317	17.51
605.736	17.44
606.155	17.37
606.574	17.28
606.992	17.22
607.411	17.14
607.829	17.03
608.248	16.95
608.666	16.86
609.085	16.79
609.503	16.71
609.921	16.63
610.339	16.55
610.758	16.47
611.176	16.39
611.594	16.31
612.012	16.23
612.43	16.17
612.847	16.09
613.265	16.02
613.683	15.94
614.101	15.87
614.518	15.79
614.936	15.73
615.353	15.65
615.771	15.59
616.188	15.53
616.606	15.47
617.023	15.41
617.44	15.37
617.857	15.32
618.274	15.27
618.691	15.22
619.108	15.16
619.525	15.12
619.942	15.08
620.359	15.04
620.776	15
621.192	14.97
621.609	14.94
622.026	14.9
622.442	14.87
622.859	14.84
623.275	14.82
623.691	14.81
624.108	14.8
624.524	14.78
624.94	14.76
625.356	14.74
625.772	14.73
626.188	14.71
626.604	14.69
627.02	14.67
627.436	14.67
627.852	14.65
628.268	14.64
628.683	14.61
629.099	14.59
629.514	14.57
629.93	14.54
630.345	14.52
630.761	14.48
631.176	14.46
631.591	14.42
632.007	14.37
632.422	14.32
632.837	14.27
633.252	14.21
633.667	14.14
634.082	14.05
634.497	13.98
634.911	13.89
635.326	13.8
635.741	13.71
636.155	13.62
636.57	13.52
636.984	13.41
637.399	13.29
637.813	13.16
638.228	13.04
638.642	12.91
639.056	12.79
639.47	12.67
639.884	12.55
640.298	12.41
640.712	12.27
641.126	12.14
641.54	12.01
641.954	11.88
642.368	11.77
642.781	11.64
643.195	11.54
643.609	11.41
644.022	11.3
644.436	11.18
644.849	11.09
645.262	11
645.676	10.91
646.089	10.84
646.502	10.76
646.915	10.69
647.328	10.64
647.741	10.57
648.154	10.52
648.567	10.46
648.98	10.4
649.393	10.36
649.805	10.31
650.218	10.28
650.631	10.24
651.043	10.2
651.456	10.17
651.868	10.12
652.28	10.08
652.693	10.05
653.105	10.02
653.517	9.98
653.929	9.93
654.341	9.87
654.753	9.8
655.165	9.74
655.577	9.68
655.989	9.6
656.401	9.54
656.813	9.46
657.224	9.38
657.636	9.29
658.047	9.21
658.459	9.12
658.87	9.04
659.282	8.96
659.693	8.88
660.104	8.78
660.515	8.7
660.926	8.62
661.338	8.53
661.749	8.46
662.159	8.39
662.57	8.33
662.981	8.27
663.392	8.2
663.803	8.14
664.213	8.08
664.624	8.03
665.035	7.97
665.445	7.93
665.855	7.9
666.266	7.87
666.676	7.84
667.086	7.8
667.497	7.77
667.907	7.76
668.317	7.75
668.727	7.73
669.137	7.72
669.547	7.72
669.956	7.71
670.366	7.7
670.776	7.69
671.186	7.7
671.595	7.7
672.005	7.7
672.414	7.71
672.824	7.7
673.233	7.72
673.642	7.73
674.052	7.75
674.461	7.76
674.87	7.79
675.279	7.82
675.688	7.85
676.097	7.89
676.506	7.92
676.915	7.97
677.323	8.02
677.732	8.07
678.141	8.12
678.549	8.17
678.958	8.23
679.366	8.3
679.775	8.36
680.183	8.43
680.592	8.52
681	8.62
681.408	8.71
681.816	8.84
682.224	8.98
682.632	9.12
683.04	9.27
683.448	9.44
683.856	9.62
684.264	9.83
684.671	10.04
685.079	10.28
685.487	10.55
685.894	10.84
686.302	11.14
686.709	11.46
687.116	11.8
687.524	12.19
687.931	12.59
688.338	13.03
688.745	13.47
689.152	13.94
689.559	14.43
689.966	14.95
690.373	15.48
690.78	16.02
691.187	16.58
691.593	17.17
692	17.74
692.407	18.34
692.813	18.92
693.22	19.52
693.626	20.16
694.032	20.78
694.439	21.4
694.845	22.03
695.251	22.66
695.657	23.28
696.063	23.91
696.469	24.54
696.875	25.14
697.281	25.76
697.687	26.37
698.093	26.95
698.498	27.54
698.904	28.11
699.31	28.67
699.715	29.23
700.12	29.79
700.526	30.32
700.931	30.84
701.337	31.37
701.742	31.86
702.147	32.37
702.552	32.86
702.957	33.32
703.362	33.79
703.767	34.24
704.172	34.69
704.577	35.14
704.981	35.59
705.386	36.03
705.791	36.44
706.195	36.86
706.6	37.28
707.004	37.69
707.408	38.1
707.813	38.5
708.217	38.88
708.621	39.25
709.025	39.58
709.43	39.93
709.834	40.3
710.237	40.64
710.641	40.99
711.045	41.31
711.449	41.65
711.853	42
712.256	42.3
712.66	42.61
713.064	42.91
713.467	43.25
713.87	43.56
714.274	43.82
714.677	44.14
715.08	44.42
715.484	44.7
715.887	44.98
716.29	45.21
716.693	45.49
717.096	45.76
717.499	46.04
717.901	46.32
718.304	46.57
718.707	46.84
719.109	47.08
719.512	47.34
719.915	47.56
720.317	47.78
720.719	48
721.122	48.22
721.524	48.44
721.926	48.64
722.328	48.82
722.731	48.99
723.133	49.19
723.535	49.37
723.937	49.53
724.338	49.72
724.74	49.9
725.142	50.1
725.544	50.25
725.945	50.4
726.347	50.55
726.748	50.67
727.15	50.8
727.551	50.92
727.952	51.03
728.354	51.16
728.755	51.25
729.156	51.35
729.557	51.39
729.958	51.48
730.359	51.56
730.76	51.65
731.161	51.77
731.562	51.89
731.962	51.95
732.363	52.04
732.763	52.11
733.164	52.18
733.564	52.23
733.965	52.32
734.365	52.42
734.766	52.49
735.166	52.56
735.566	52.6
735.966	52.65
736.366	52.7
736.766	52.75
737.166	52.81
737.566	52.85
737.966	52.91
738.365	52.94
738.765	52.98
739.165	53.02
739.564	53.06
739.964	53.09
740.363	53.11
740.763	53.17
741.162	53.19
741.561	53.21
741.96	53.24
742.36	53.28
742.759	53.31
743.158	53.34
743.557	53.35
743.955	53.39
744.354	53.42
744.753	53.46
745.152	53.49
745.55	53.56
745.949	53.62
746.348	53.65
746.746	53.69
747.144	53.74
747.543	53.76
747.941	53.82
748.339	53.8
748.737	53.84
749.136	53.87
749.534	53.88
749.932	53.86
750.33	53.84
750.727	53.87
751.125	53.87
751.523	53.88
751.921	53.89
752.318	53.87
752.716	53.89
753.113	53.88
753.511	53.89
753.908	53.88
754.305	53.89
754.703	53.86
755.1	53.83
755.497	53.84
755.894	53.81
756.291	53.78
756.688	53.74
757.085	53.73
757.482	53.71
757.878	53.68
758.275	53.66
758.672	53.65
759.068	53.69
759.465	53.66
759.861	53.63
760.258	53.65
760.654	53.66
761.05	53.67
761.447	53.67
761.843	53.67
762.239	53.67
762.635	53.65
763.031	53.66
763.427	53.62
763.822	53.65
764.218	53.65
764.614	53.65
765.01	53.62
765.405	53.63
765.801	53.61
766.196	53.59
766.592	53.59
766.987	53.62
767.382	53.61
767.778	53.65
768.173	53.66
768.568	53.66
768.963	53.65
769.358	53.66
769.753	53.65
770.148	53.66
770.542	53.68
770.937	53.69
771.332	53.68
771.726	53.68
772.121	53.65
772.515	53.65
772.91	53.64
773.304	53.67
773.699	53.69
774.093	53.69
774.487	53.7
774.881	53.74
775.275	53.74
775.669	53.71
776.063	53.72
776.457	53.74
776.851	53.71
777.245	53.69
777.638	53.68
778.032	53.67
778.425	53.71
778.819	53.71
779.212	53.7
779.606	53.71
779.999	53.74
