Data from N_3_DEC_CT_2N_Splice17_13-56-22-754.txt Node
Date: Sat Mar 07 13:56:22 EST 2020
User: sa697716
Spectrometer: NQ5500242
Trigger mode: 0
Integration Time (sec): 1.450000E-1
Scans to average: 20
Nonlinearity correction enabled: false
Boxcar width: 5
Storing dark spectrum: false
XAxis mode: Wavelengths
Number of Pixels in Spectrum: 512
>>>>>Begin Spectral Data<<<<<
187.83	151.36
188.298	154.07
188.766	130.27
189.233	115.39
189.701	116.98
190.169	138.86
190.636	122.15
191.104	111
191.571	-127.41
192.039	-102.39
192.506	-414.96
192.974	79.83
193.441	11.33
193.908	-73.11
194.375	-43.85
194.842	-42.55
195.31	-10.06
195.777	-152.44
196.244	50.7
196.711	54.48
197.177	57.91
197.644	57.6
198.111	57.43
198.578	57.82
199.045	58.62
199.511	58.78
199.978	58.2
200.445	58.65
200.911	58.92
201.378	59.01
201.844	59.16
202.31	59.04
202.777	59.2
203.243	59.26
203.709	58.88
204.176	58.25
204.642	58.1
205.108	58.3
205.574	57.83
206.04	57.38
206.506	56.73
206.972	56.51
207.438	55.83
207.903	55.25
208.369	54.04
208.835	53.43
209.301	52.55
209.766	51.16
210.232	49.83
210.697	48.5
211.163	47.31
211.628	46.49
212.094	45.38
212.559	44.66
213.024	43.74
213.49	43.12
213.955	42.15
214.42	41.63
214.885	40.88
215.35	39.75
215.815	38.19
216.28	36.17
216.745	33.86
217.21	31.72
217.675	29.55
218.14	27.76
218.604	26.12
219.069	24.76
219.534	23.56
219.998	22.6
220.463	21.79
220.927	21.04
221.392	20.49
221.856	20
222.32	19.56
222.785	19.18
223.249	18.81
223.713	18.49
224.177	18.23
224.642	17.95
225.106	17.64
225.57	17.37
226.034	17.14
226.497	16.89
226.961	16.65
227.425	16.41
227.889	16.18
228.353	15.94
228.816	15.73
229.28	15.5
229.744	15.29
230.207	15.09
230.671	14.87
231.134	14.67
231.597	14.49
232.061	14.3
232.524	14.11
232.987	13.94
233.45	13.79
233.914	13.62
234.377	13.46
234.84	13.29
235.303	13.15
235.766	13.02
236.229	12.87
236.691	12.71
237.154	12.58
237.617	12.45
238.08	12.32
238.542	12.17
239.005	12.06
239.468	11.93
239.93	11.83
240.393	11.71
240.855	11.58
241.317	11.47
241.78	11.36
242.242	11.26
242.704	11.16
243.166	11.06
243.629	10.97
244.091	10.85
244.553	10.75
245.015	10.65
245.477	10.53
245.939	10.44
246.4	10.34
246.862	10.25
247.324	10.15
247.786	10.05
248.247	9.96
248.709	9.85
249.17	9.74
249.632	9.67
250.093	9.58
250.555	9.5
251.016	9.42
251.477	9.33
251.939	9.26
252.4	9.19
252.861	9.12
253.322	9.05
253.783	8.99
254.244	8.93
254.705	8.86
255.166	8.8
255.627	8.74
256.088	8.7
256.549	8.65
257.009	8.58
257.47	8.52
257.931	8.45
258.391	8.37
258.852	8.31
259.312	8.26
259.773	8.2
260.233	8.14
260.694	8.08
261.154	8.02
261.614	7.96
262.074	7.9
262.534	7.84
262.994	7.8
263.455	7.76
263.915	7.72
264.374	7.67
264.834	7.64
265.294	7.59
265.754	7.56
266.214	7.53
266.673	7.51
267.133	7.48
267.593	7.45
268.052	7.43
268.512	7.4
268.971	7.38
269.431	7.36
269.89	7.33
270.349	7.31
270.809	7.29
271.268	7.27
271.727	7.25
272.186	7.23
272.645	7.21
273.104	7.19
273.563	7.17
274.022	7.14
274.481	7.13
274.94	7.1
275.399	7.08
275.857	7.05
276.316	7.03
276.775	7.01
277.233	6.99
277.692	6.96
278.15	6.94
278.609	6.93
279.067	6.91
279.525	6.9
279.984	6.88
280.442	6.87
280.9	6.86
281.358	6.84
281.816	6.83
282.274	6.81
282.732	6.8
283.19	6.78
283.648	6.76
284.106	6.74
284.564	6.72
285.021	6.7
285.479	6.69
285.937	6.67
286.394	6.66
286.852	6.63
287.309	6.61
287.767	6.59
288.224	6.57
288.682	6.55
289.139	6.52
289.596	6.49
290.053	6.45
290.511	6.41
290.968	6.39
291.425	6.35
291.882	6.33
292.339	6.3
292.796	6.27
293.252	6.24
293.709	6.21
294.166	6.19
294.623	6.17
295.079	6.15
295.536	6.14
295.992	6.12
296.449	6.11
296.905	6.1
297.362	6.08
297.818	6.07
298.274	6.06
298.731	6.04
299.187	6.03
299.643	6.01
300.099	6
300.555	5.97
301.011	5.96
301.467	5.95
301.923	5.92
302.379	5.91
302.835	5.9
303.291	5.89
303.746	5.87
304.202	5.86
304.658	5.85
305.113	5.85
305.569	5.85
306.024	5.83
306.479	5.82
306.935	5.81
307.39	5.81
307.845	5.8
308.301	5.8
308.756	5.8
309.211	5.79
309.666	5.79
310.121	5.78
310.576	5.78
311.031	5.78
311.486	5.77
311.94	5.77
312.395	5.76
312.85	5.76
313.305	5.75
313.759	5.75
314.214	5.74
314.668	5.73
315.123	5.72
315.577	5.71
316.032	5.7
316.486	5.68
316.94	5.68
317.394	5.66
317.849	5.63
318.303	5.61
318.757	5.59
319.211	5.57
319.665	5.55
320.119	5.53
320.572	5.51
321.026	5.49
321.48	5.48
321.934	5.45
322.387	5.43
322.841	5.42
323.295	5.41
323.748	5.4
324.202	5.39
324.655	5.38
325.108	5.37
325.562	5.36
326.015	5.36
326.468	5.35
326.921	5.35
327.374	5.34
327.827	5.34
328.28	5.33
328.733	5.33
329.186	5.32
329.639	5.32
330.092	5.31
330.545	5.31
330.997	5.3
331.45	5.3
331.903	5.31
332.355	5.31
332.808	5.3
333.26	5.29
333.713	5.28
334.165	5.28
334.617	5.28
335.069	5.28
335.522	5.28
335.974	5.29
336.426	5.28
336.878	5.27
337.33	5.27
337.782	5.27
338.234	5.27
338.686	5.26
339.137	5.27
339.589	5.25
340.041	5.25
340.493	5.23
340.944	5.21
341.396	5.19
341.847	5.17
342.299	5.16
342.75	5.14
343.201	5.12
343.653	5.1
344.104	5.07
344.555	5.04
345.006	5.02
345.457	5.01
345.908	4.99
346.359	4.99
346.81	4.99
347.261	4.98
347.712	4.96
348.163	4.95
348.613	4.95
349.064	4.95
349.515	4.95
349.965	4.95
350.416	4.94
350.866	4.94
351.317	4.92
351.767	4.92
352.217	4.92
352.668	4.92
353.118	4.91
353.568	4.9
354.018	4.9
354.468	4.91
354.918	4.92
355.368	4.92
355.818	4.92
356.268	4.92
356.718	4.93
357.168	4.92
357.617	4.92
358.067	4.92
358.517	4.93
358.966	4.93
359.416	4.93
359.865	4.91
360.315	4.92
360.764	4.92
361.213	4.9
361.663	4.89
362.112	4.89
362.561	4.89
363.01	4.88
363.459	4.86
363.908	4.85
364.357	4.85
364.806	4.84
365.255	4.83
365.703	4.83
366.152	4.84
366.601	4.84
367.05	4.84
367.498	4.84
367.947	4.86
368.395	4.85
368.844	4.85
369.292	4.84
369.74	4.84
370.189	4.82
370.637	4.82
371.085	4.82
371.533	4.82
371.981	4.82
372.429	4.81
372.877	4.8
373.325	4.8
373.773	4.8
374.221	4.8
374.669	4.8
375.116	4.8
375.564	4.79
376.012	4.79
376.459	4.8
376.907	4.8
377.354	4.8
377.801	4.8
378.249	4.81
378.696	4.81
379.143	4.82
379.591	4.82
380.038	4.82
380.485	4.82
380.932	4.82
381.379	4.83
381.826	4.82
382.273	4.82
382.72	4.81
383.166	4.81
383.613	4.8
384.06	4.79
384.506	4.8
384.953	4.8
385.4	4.81
385.846	4.82
386.292	4.82
386.739	4.83
387.185	4.84
387.631	4.86
388.078	4.87
388.524	4.88
388.97	4.89
389.416	4.9
389.862	4.92
390.308	4.94
390.754	4.95
391.2	4.96
391.645	4.98
392.091	5
392.537	5.01
392.983	5.02
393.428	5.03
393.874	5.04
394.319	5.06
394.765	5.06
395.21	5.07
395.655	5.08
396.101	5.1
396.546	5.11
396.991	5.13
397.436	5.14
397.881	5.17
398.326	5.2
398.771	5.22
399.216	5.23
399.661	5.25
400.106	5.27
400.551	5.28
400.995	5.28
401.44	5.3
401.885	5.3
402.329	5.31
402.774	5.32
403.218	5.33
403.663	5.34
404.107	5.35
404.551	5.36
404.995	5.37
405.44	5.38
405.884	5.39
406.328	5.4
406.772	5.4
407.216	5.4
407.66	5.4
408.104	5.39
408.547	5.39
408.991	5.41
409.435	5.4
409.879	5.41
410.322	5.42
410.766	5.44
411.209	5.46
411.653	5.49
412.096	5.51
412.54	5.53
412.983	5.55
413.426	5.59
413.869	5.61
414.312	5.64
414.756	5.67
415.199	5.67
415.642	5.68
416.085	5.69
416.527	5.68
416.97	5.67
417.413	5.66
417.856	5.65
418.298	5.63
418.741	5.6
419.184	5.58
419.626	5.58
420.069	5.59
420.511	5.58
420.953	5.57
421.396	5.6
421.838	5.61
422.28	5.62
422.722	5.65
423.164	5.66
423.606	5.68
424.048	5.71
424.49	5.72
424.932	5.71
425.374	5.7
425.816	5.69
426.258	5.66
426.699	5.66
427.141	5.66
427.582	5.66
428.024	5.68
428.465	5.69
428.907	5.68
429.348	5.67
429.789	5.68
430.231	5.71
430.672	5.73
431.113	5.77
431.554	5.79
431.995	5.81
432.436	5.82
432.877	5.82
433.318	5.84
433.759	5.87
434.2	5.91
434.64	5.94
435.081	5.95
435.522	5.97
435.962	5.98
436.403	6.01
436.843	6.02
437.284	6.02
437.724	6.02
438.164	6.01
438.604	6.02
439.045	6.02
439.485	6.04
439.925	6.04
440.365	6.04
440.805	6.04
441.245	6.05
441.685	6.08
442.125	6.11
442.564	6.12
443.004	6.13
443.444	6.15
443.883	6.16
444.323	6.14
444.762	6.17
445.202	6.18
445.641	6.22
446.081	6.23
446.52	6.22
446.959	6.23
447.398	6.25
447.837	6.28
448.276	6.3
448.716	6.31
449.154	6.33
449.593	6.35
450.032	6.36
450.471	6.34
450.91	6.33
451.349	6.35
451.787	6.33
452.226	6.32
452.664	6.3
453.103	6.28
453.541	6.28
453.98	6.27
454.418	6.25
454.856	6.22
455.295	6.2
455.733	6.18
456.171	6.17
456.609	6.17
457.047	6.15
457.485	6.14
457.923	6.13
458.361	6.11
458.798	6.11
459.236	6.1
459.674	6.11
460.111	6.11
460.549	6.11
460.987	6.12
461.424	6.11
461.862	6.12
462.299	6.13
462.736	6.14
463.173	6.16
463.611	6.16
464.048	6.16
464.485	6.17
464.922	6.18
465.359	6.19
465.796	6.2
466.233	6.21
466.67	6.22
467.106	6.22
467.543	6.21
467.98	6.19
468.416	6.19
468.853	6.19
469.29	6.18
469.726	6.19
470.162	6.17
470.599	6.17
471.035	6.15
471.471	6.14
471.907	6.13
472.344	6.14
472.78	6.14
473.216	6.14
473.652	6.14
474.088	6.11
474.523	6.11
474.959	6.11
475.395	6.08
475.831	6.08
476.266	6.07
476.702	6.06
477.138	6.05
477.573	6.05
478.008	6.04
478.444	6.02
478.879	6.03
479.314	6.01
479.75	6.01
480.185	6
480.62	5.97
481.055	5.95
481.49	5.94
481.925	5.93
482.36	5.92
482.795	5.91
483.229	5.91
483.664	5.91
484.099	5.9
484.534	5.89
484.968	5.89
485.403	5.9
485.837	5.92
486.271	5.93
486.706	5.93
487.14	5.93
487.574	5.94
488.009	5.95
488.443	5.95
488.877	5.97
489.311	5.99
489.745	6.01
490.179	6.04
490.613	6.06
491.046	6.08
491.48	6.11
491.914	6.14
492.348	6.17
492.781	6.21
493.215	6.25
493.648	6.29
494.082	6.32
494.515	6.35
494.948	6.4
495.382	6.44
495.815	6.5
496.248	6.56
496.681	6.62
497.114	6.68
497.547	6.74
497.98	6.81
498.413	6.89
498.846	6.97
499.279	7.05
499.711	7.15
500.144	7.25
500.577	7.35
501.009	7.45
501.442	7.56
501.874	7.69
502.306	7.81
502.739	7.94
503.171	8.08
503.603	8.22
504.036	8.38
504.468	8.53
504.9	8.68
505.332	8.84
505.764	9.02
506.196	9.2
506.627	9.39
507.059	9.59
507.491	9.79
507.923	10
508.354	10.24
508.786	10.48
509.217	10.73
509.649	10.99
510.08	11.25
510.512	11.53
510.943	11.82
511.374	12.11
511.805	12.41
512.237	12.71
512.668	13.04
513.099	13.34
513.53	13.67
513.961	14
514.391	14.33
514.822	14.68
515.253	15.03
515.684	15.39
516.114	15.75
516.545	16.11
516.975	16.5
517.406	16.86
517.836	17.24
518.267	17.63
518.697	18
519.127	18.37
519.558	18.75
519.988	19.12
520.418	19.49
520.848	19.86
521.278	20.23
521.708	20.77
522.138	21.14
522.567	21.49
522.997	21.83
523.427	22.18
523.857	22.52
524.286	22.84
524.716	23.16
525.145	23.48
525.575	23.78
526.004	24.08
526.433	24.19
526.863	24.46
527.292	24.74
527.721	24.99
528.15	25.22
528.579	25.45
529.008	25.68
529.437	25.89
529.866	26.1
530.295	26.31
530.724	26.49
531.152	26.66
531.581	26.84
532.01	27.01
532.438	27.17
532.867	27.31
533.295	27.43
533.723	27.57
534.152	27.69
534.58	27.82
535.008	27.89
535.436	28.01
535.865	28.1
536.293	28.18
536.721	28.27
537.149	28.34
537.576	28.43
538.004	28.51
538.432	28.57
538.86	28.62
539.287	28.65
539.715	28.73
540.143	28.76
540.57	28.79
540.998	28.83
541.425	28.86
541.852	28.9
542.28	28.93
542.707	28.97
543.134	29.01
543.561	29.04
543.988	29.1
544.415	29.13
544.842	29.16
545.269	29.21
545.696	29.26
546.123	29.3
546.549	29.33
546.976	29.37
547.403	29.42
547.829	29.44
548.256	29.49
548.682	29.51
549.108	29.54
549.535	29.58
549.961	29.6
550.387	29.62
550.813	29.64
551.24	29.65
551.666	29.65
552.092	29.64
552.518	29.64
552.943	29.62
553.369	29.6
553.795	29.56
554.221	29.54
554.646	29.48
555.072	29.43
555.498	29.36
555.923	29.29
556.349	29.19
556.774	29.1
557.199	29.01
557.625	28.91
558.05	28.81
558.475	28.71
558.9	28.59
559.325	28.49
559.75	28.36
560.175	28.23
560.6	28.1
561.025	27.99
561.449	27.85
561.874	27.69
562.299	27.52
562.723	27.34
563.148	27.15
563.572	26.94
563.997	26.73
564.421	26.52
564.846	26.33
565.27	26.11
565.694	25.87
566.118	25.65
566.542	25.42
566.966	25.19
567.39	24.97
567.814	24.75
568.238	24.54
568.662	24.32
569.086	24.11
569.509	23.87
569.933	23.66
570.357	23.44
570.78	23.23
571.204	23.04
571.627	22.86
572.05	22.66
572.474	22.48
572.897	22.3
573.32	22.12
573.743	21.94
574.166	21.78
574.589	21.6
575.012	21.45
575.435	21.29
575.858	21.12
576.281	20.97
576.704	20.83
577.126	20.67
577.549	20.52
577.972	20.37
578.394	20.24
578.817	20.11
579.239	19.99
579.661	19.87
580.084	19.75
580.506	19.64
580.928	19.52
581.35	19.42
581.772	19.3
582.194	19.19
582.616	19.1
583.038	18.99
583.46	18.88
583.882	18.78
584.303	18.68
584.725	18.58
585.147	18.5
585.568	18.42
585.99	18.33
586.411	18.25
586.833	18.18
587.254	18.1
587.675	18.03
588.096	17.96
588.518	17.9
588.939	17.85
589.36	17.79
589.781	17.71
590.202	17.65
590.623	17.59
591.043	17.53
591.464	17.46
591.885	17.41
592.305	17.35
592.726	17.31
593.147	17.25
593.567	17.2
593.987	17.14
594.408	17.08
594.828	17.03
595.248	16.99
595.669	16.95
596.089	16.91
596.509	16.86
596.929	16.81
597.349	16.77
597.769	16.72
598.189	16.66
598.608	16.62
599.028	16.59
599.448	16.54
599.867	16.48
600.287	16.43
600.706	16.38
601.126	16.32
601.545	16.27
601.965	16.23
602.384	16.16
602.803	16.1
603.222	16.04
603.641	15.95
604.061	15.88
604.48	15.8
604.898	15.72
605.317	15.64
605.736	15.57
606.155	15.49
606.574	15.38
606.992	15.28
607.411	15.19
607.829	15.07
608.248	14.99
608.666	14.9
609.085	14.81
609.503	14.72
609.921	14.63
610.339	14.53
610.758	14.42
611.176	14.32
611.594	14.24
612.012	14.14
612.43	14.07
612.847	13.97
613.265	13.88
613.683	13.79
614.101	13.69
614.518	13.59
614.936	13.5
615.353	13.4
615.771	13.34
616.188	13.26
616.606	13.19
617.023	13.12
617.44	13.07
617.857	12.99
618.274	12.92
618.691	12.87
619.108	12.8
619.525	12.75
619.942	12.71
620.359	12.65
620.776	12.61
621.192	12.56
621.609	12.53
622.026	12.47
622.442	12.44
622.859	12.42
623.275	12.38
623.691	12.37
624.108	12.35
624.524	12.32
624.94	12.31
625.356	12.28
625.772	12.27
626.188	12.26
626.604	12.25
627.02	12.24
627.436	12.23
627.852	12.22
628.268	12.2
628.683	12.19
629.099	12.18
629.514	12.16
629.93	12.15
630.345	12.12
630.761	12.08
631.176	12.04
631.591	11.99
632.007	11.95
632.422	11.89
632.837	11.83
633.252	11.76
633.667	11.68
634.082	11.59
634.497	11.51
634.911	11.42
635.326	11.33
635.741	11.23
636.155	11.14
636.57	11.03
636.984	10.92
637.399	10.8
637.813	10.68
638.228	10.56
638.642	10.44
639.056	10.31
639.47	10.19
639.884	10.08
640.298	9.94
640.712	9.81
641.126	9.68
641.54	9.55
641.954	9.44
642.368	9.32
642.781	9.21
643.195	9.1
643.609	8.99
644.022	8.88
644.436	8.78
644.849	8.68
645.262	8.58
645.676	8.5
646.089	8.42
646.502	8.34
646.915	8.27
647.328	8.19
647.741	8.12
648.154	8.07
648.567	8.02
648.98	7.95
649.393	7.92
649.805	7.89
650.218	7.85
650.631	7.82
651.043	7.78
651.456	7.75
651.868	7.7
652.28	7.67
652.693	7.64
653.105	7.59
653.517	7.56
653.929	7.52
654.341	7.47
654.753	7.42
655.165	7.37
655.577	7.32
655.989	7.26
656.401	7.21
656.813	7.16
657.224	7.08
657.636	7.01
658.047	6.95
658.459	6.87
658.87	6.8
659.282	6.73
659.693	6.66
660.104	6.59
660.515	6.53
660.926	6.48
661.338	6.41
661.749	6.36
662.159	6.3
662.57	6.26
662.981	6.21
663.392	6.17
663.803	6.13
664.213	6.09
664.624	6.06
665.035	6.03
665.445	6
665.855	5.99
666.266	5.97
666.676	5.97
667.086	5.94
667.497	5.93
667.907	5.93
668.317	5.93
668.727	5.94
669.137	5.94
669.547	5.93
669.956	5.93
670.366	5.93
670.776	5.94
671.186	5.94
671.595	5.96
672.005	5.96
672.414	5.98
672.824	5.98
673.233	6
673.642	6.02
674.052	6.04
674.461	6.07
674.87	6.09
675.279	6.12
675.688	6.15
676.097	6.18
676.506	6.24
676.915	6.26
677.323	6.3
677.732	6.33
678.141	6.37
678.549	6.41
678.958	6.45
679.366	6.5
679.775	6.55
680.183	6.6
680.592	6.66
681	6.72
681.408	6.8
681.816	6.88
682.224	6.97
682.632	7.07
683.04	7.18
683.448	7.32
683.856	7.44
684.264	7.59
684.671	7.76
685.079	7.93
685.487	8.13
685.894	8.36
686.302	8.61
686.709	8.89
687.116	9.21
687.524	9.56
687.931	9.94
688.338	10.35
688.745	10.79
689.152	11.27
689.559	11.8
689.966	12.34
690.373	12.91
690.78	13.51
691.187	14.14
691.593	14.79
692	15.46
692.407	16.15
692.813	16.88
693.22	17.62
693.626	18.36
694.032	19.13
694.439	19.91
694.845	20.72
695.251	21.5
695.657	22.3
696.063	23.13
696.469	23.95
696.875	24.77
697.281	25.59
697.687	26.43
698.093	27.25
698.498	28.05
698.904	28.87
699.31	29.67
699.715	30.49
700.12	31.28
700.526	32.05
700.931	32.82
701.337	33.59
701.742	34.3
702.147	35.03
702.552	35.74
702.957	36.44
703.362	37.12
703.767	37.79
704.172	38.45
704.577	39.12
704.981	39.79
705.386	40.43
705.791	41.06
706.195	41.72
706.6	42.38
707.004	42.98
707.408	43.61
707.813	44.21
708.217	44.8
708.621	45.4
709.025	45.98
709.43	46.53
709.834	47.09
710.237	47.64
710.641	48.17
711.045	48.67
711.449	49.22
711.853	49.74
712.256	50.24
712.66	50.76
713.064	51.23
713.467	51.7
713.87	52.18
714.274	52.63
714.677	53.09
715.08	53.51
715.484	53.97
715.887	54.43
716.29	54.84
716.693	55.27
717.096	55.7
717.499	56.13
717.901	56.53
718.304	56.94
718.707	57.32
719.109	57.7
719.512	58.12
719.915	58.48
720.317	58.8
720.719	59.13
721.122	59.47
721.524	59.78
721.926	60.09
722.328	60.43
722.731	60.72
723.133	61.03
723.535	61.32
723.937	61.6
724.338	61.86
724.74	62.13
725.142	62.53
725.544	62.77
725.945	63.04
726.347	63.25
726.748	63.46
727.15	63.63
727.551	63.84
727.952	64.02
728.354	64.21
728.755	64.4
729.156	64.58
729.557	64.63
729.958	64.8
730.359	64.95
730.76	65.14
731.161	65.29
731.562	65.49
731.962	65.61
732.363	65.77
732.763	65.93
733.164	66.06
733.564	66.23
733.965	66.32
734.365	66.42
734.766	66.52
735.166	66.61
735.566	66.73
735.966	66.82
736.366	66.92
736.766	66.99
737.166	67.08
737.566	67.17
737.966	67.23
738.365	67.33
738.765	67.46
739.165	67.54
739.564	67.63
739.964	67.69
740.363	67.72
740.763	67.8
741.162	67.88
741.561	67.87
741.96	67.91
742.36	67.92
742.759	67.99
743.158	68.01
743.557	68.04
743.955	68.07
744.354	68.12
744.753	68.21
745.152	68.28
745.55	68.33
745.949	68.4
746.348	68.49
746.746	68.54
747.144	68.59
747.543	68.62
747.941	68.64
748.339	68.66
748.737	68.66
749.136	68.67
749.534	68.66
749.932	68.66
750.33	68.66
750.727	68.64
751.125	68.69
751.523	68.69
751.921	68.71
752.318	68.74
752.716	68.77
753.113	68.77
753.511	68.76
753.908	68.79
754.305	68.83
754.703	68.83
755.1	68.85
755.497	68.84
755.894	68.85
756.291	68.84
756.688	68.82
757.085	68.83
757.482	68.86
757.878	68.9
758.275	68.89
758.672	68.89
759.068	68.93
759.465	68.93
759.861	68.92
760.258	68.91
760.654	68.94
761.05	68.99
761.447	68.99
761.843	68.98
762.239	68.96
762.635	68.95
763.031	68.93
763.427	68.87
763.822	68.88
764.218	68.91
764.614	68.92
765.01	68.89
765.405	68.86
765.801	68.82
766.196	68.84
766.592	68.79
766.987	68.82
767.382	68.81
767.778	68.83
768.173	68.82
768.568	68.78
768.963	68.74
769.358	68.77
769.753	68.77
770.148	68.79
770.542	68.79
770.937	68.82
771.332	68.79
771.726	68.8
772.121	68.79
772.515	68.81
772.91	68.84
773.304	68.88
773.699	68.86
774.093	68.86
774.487	68.83
774.881	68.81
775.275	68.8
775.669	68.8
776.063	68.79
776.457	68.83
776.851	68.82
777.245	68.77
777.638	68.73
778.032	68.74
778.425	68.77
778.819	68.79
779.212	68.83
779.606	68.88
779.999	68.87
780.392	68.91
780.786	68.9
