Data from N_3_DEC_OH_4N_Splice17_14-22-33-210.txt Node
Date: Sat Mar 07 14:22:33 EST 2020
User: sa697716
Spectrometer: NQ5500242
Trigger mode: 0
Integration Time (sec): 1.450000E-1
Scans to average: 20
Nonlinearity correction enabled: false
Boxcar width: 5
Storing dark spectrum: false
XAxis mode: Wavelengths
Number of Pixels in Spectrum: 512
>>>>>Begin Spectral Data<<<<<
187.83	160.25
188.298	171.19
188.766	145.04
189.233	124.79
189.701	130.88
190.169	148.81
190.636	193.08
191.104	226.73
191.571	266.61
192.039	48.01
192.506	76.37
192.974	177.74
193.441	244.91
193.908	94.58
194.375	71.6
194.842	42.79
195.31	110.85
195.777	309.28
196.244	71.25
196.711	69.89
197.177	71.72
197.644	72.56
198.111	71.86
198.578	72.33
199.045	73.02
199.511	72.99
199.978	73.19
200.445	73.31
200.911	73.28
201.378	73.43
201.844	73.37
202.31	72.77
202.777	72.51
203.243	72.22
203.709	71.83
204.176	70.8
204.642	70.1
205.108	69.72
205.574	69.09
206.04	68.16
206.506	67.31
206.972	67.03
207.438	66.42
207.903	65.34
208.369	64.17
208.835	62.63
209.301	61.28
209.766	59.57
210.232	57.51
210.697	55.57
211.163	54.01
211.628	52.55
212.094	50.78
212.559	49.49
213.024	48.21
213.49	46.91
213.955	45.8
214.42	44.65
214.885	43.32
215.35	41.67
215.815	39.26
216.28	36.39
216.745	33.33
217.21	30.21
217.675	27.24
218.14	24.56
218.604	22.3
219.069	20.33
219.534	18.72
219.998	17.4
220.463	16.29
220.927	15.38
221.392	14.62
221.856	13.99
222.32	13.46
222.785	12.98
223.249	12.62
223.713	12.26
224.177	11.94
224.642	11.63
225.106	11.33
225.57	11.04
226.034	10.8
226.497	10.6
226.961	10.37
227.425	10.16
227.889	9.97
228.353	9.76
228.816	9.56
229.28	9.39
229.744	9.22
230.207	9.06
230.671	8.91
231.134	8.76
231.597	8.62
232.061	8.48
232.524	8.35
232.987	8.24
233.45	8.13
233.914	8.02
234.377	7.9
234.84	7.8
235.303	7.7
235.766	7.62
236.229	7.54
236.691	7.44
237.154	7.37
237.617	7.29
238.08	7.21
238.542	7.13
239.005	7.07
239.468	7.01
239.93	6.94
240.393	6.9
240.855	6.82
241.317	6.75
241.78	6.68
242.242	6.61
242.704	6.56
243.166	6.49
243.629	6.43
244.091	6.37
244.553	6.31
245.015	6.24
245.477	6.18
245.939	6.13
246.4	6.08
246.862	6.03
247.324	5.99
247.786	5.92
248.247	5.88
248.709	5.83
249.17	5.78
249.632	5.74
250.093	5.71
250.555	5.66
251.016	5.63
251.477	5.59
251.939	5.56
252.4	5.52
252.861	5.49
253.322	5.46
253.783	5.43
254.244	5.41
254.705	5.37
255.166	5.33
255.627	5.3
256.088	5.27
256.549	5.24
257.009	5.2
257.47	5.17
257.931	5.14
258.391	5.1
258.852	5.06
259.312	5.03
259.773	4.99
260.233	4.97
260.694	4.93
261.154	4.89
261.614	4.86
262.074	4.82
262.534	4.79
262.994	4.77
263.455	4.75
263.915	4.73
264.374	4.71
264.834	4.7
265.294	4.68
265.754	4.66
266.214	4.65
266.673	4.63
267.133	4.62
267.593	4.61
268.052	4.6
268.512	4.58
268.971	4.57
269.431	4.56
269.89	4.54
270.349	4.53
270.809	4.52
271.268	4.52
271.727	4.51
272.186	4.5
272.645	4.5
273.104	4.49
273.563	4.48
274.022	4.48
274.481	4.47
274.94	4.46
275.399	4.45
275.857	4.44
276.316	4.44
276.775	4.42
277.233	4.42
277.692	4.42
278.15	4.41
278.609	4.4
279.067	4.39
279.525	4.39
279.984	4.38
280.442	4.38
280.9	4.39
281.358	4.38
281.816	4.39
282.274	4.38
282.732	4.38
283.19	4.38
283.648	4.38
284.106	4.38
284.564	4.38
285.021	4.39
285.479	4.38
285.937	4.38
286.394	4.37
286.852	4.36
287.309	4.35
287.767	4.33
288.224	4.31
288.682	4.3
289.139	4.29
289.596	4.28
290.053	4.25
290.511	4.23
290.968	4.22
291.425	4.2
291.882	4.18
292.339	4.17
292.796	4.16
293.252	4.15
293.709	4.14
294.166	4.12
294.623	4.12
295.079	4.1
295.536	4.1
295.992	4.09
296.449	4.08
296.905	4.08
297.362	4.07
297.818	4.06
298.274	4.05
298.731	4.04
299.187	4.04
299.643	4.03
300.099	4.02
300.555	4.02
301.011	4.01
301.467	4
301.923	3.99
302.379	3.99
302.835	3.99
303.291	3.99
303.746	3.99
304.202	3.99
304.658	3.98
305.113	3.98
305.569	3.97
306.024	3.98
306.479	3.97
306.935	3.97
307.39	3.98
307.845	3.98
308.301	3.98
308.756	3.98
309.211	3.98
309.666	3.99
310.121	3.99
310.576	3.99
311.031	4
311.486	4
311.94	4.01
312.395	4.01
312.85	4.01
313.305	4.01
313.759	4.02
314.214	4.01
314.668	4.01
315.123	4.01
315.577	4.01
316.032	4.01
316.486	4
316.94	3.99
317.394	3.98
317.849	3.97
318.303	3.95
318.757	3.93
319.211	3.92
319.665	3.91
320.119	3.9
320.572	3.88
321.026	3.87
321.48	3.86
321.934	3.85
322.387	3.85
322.841	3.85
323.295	3.84
323.748	3.85
324.202	3.85
324.655	3.84
325.108	3.84
325.562	3.84
326.015	3.84
326.468	3.84
326.921	3.84
327.374	3.83
327.827	3.83
328.28	3.83
328.733	3.83
329.186	3.83
329.639	3.84
330.092	3.84
330.545	3.83
330.997	3.83
331.45	3.84
331.903	3.84
332.355	3.86
332.808	3.87
333.26	3.88
333.713	3.88
334.165	3.87
334.617	3.88
335.069	3.88
335.522	3.89
335.974	3.9
336.426	3.9
336.878	3.89
337.33	3.88
337.782	3.89
338.234	3.89
338.686	3.9
339.137	3.91
339.589	3.9
340.041	3.9
340.493	3.89
340.944	3.87
341.396	3.86
341.847	3.85
342.299	3.83
342.75	3.81
343.201	3.79
343.653	3.77
344.104	3.75
344.555	3.73
345.006	3.72
345.457	3.71
345.908	3.7
346.359	3.7
346.81	3.7
347.261	3.69
347.712	3.69
348.163	3.68
348.613	3.68
349.064	3.68
349.515	3.68
349.965	3.68
350.416	3.68
350.866	3.67
351.317	3.66
351.767	3.67
352.217	3.67
352.668	3.66
353.118	3.67
353.568	3.67
354.018	3.67
354.468	3.68
354.918	3.68
355.368	3.69
355.818	3.69
356.268	3.7
356.718	3.71
357.168	3.7
357.617	3.71
358.067	3.71
358.517	3.73
358.966	3.74
359.416	3.74
359.865	3.74
360.315	3.75
360.764	3.75
361.213	3.74
361.663	3.74
362.112	3.76
362.561	3.77
363.01	3.77
363.459	3.75
363.908	3.74
364.357	3.75
364.806	3.74
365.255	3.74
365.703	3.74
366.152	3.75
366.601	3.75
367.05	3.74
367.498	3.74
367.947	3.74
368.395	3.74
368.844	3.74
369.292	3.73
369.74	3.74
370.189	3.74
370.637	3.74
371.085	3.74
371.533	3.74
371.981	3.73
372.429	3.73
372.877	3.72
373.325	3.72
373.773	3.74
374.221	3.74
374.669	3.74
375.116	3.73
375.564	3.73
376.012	3.73
376.459	3.73
376.907	3.74
377.354	3.75
377.801	3.76
378.249	3.76
378.696	3.75
379.143	3.76
379.591	3.76
380.038	3.77
380.485	3.78
380.932	3.79
381.379	3.8
381.826	3.8
382.273	3.8
382.72	3.79
383.166	3.8
383.613	3.81
384.06	3.8
384.506	3.81
384.953	3.82
385.4	3.83
385.846	3.83
386.292	3.84
386.739	3.84
387.185	3.84
387.631	3.86
388.078	3.86
388.524	3.87
388.97	3.88
389.416	3.88
389.862	3.9
390.308	3.91
390.754	3.92
391.2	3.94
391.645	3.94
392.091	3.96
392.537	3.98
392.983	4
393.428	4.01
393.874	4.03
394.319	4.04
394.765	4.04
395.21	4.04
395.655	4.05
396.101	4.06
396.546	4.08
396.991	4.1
397.436	4.11
397.881	4.13
398.326	4.15
398.771	4.17
399.216	4.19
399.661	4.23
400.106	4.25
400.551	4.26
400.995	4.27
401.44	4.28
401.885	4.29
402.329	4.3
402.774	4.31
403.218	4.34
403.663	4.36
404.107	4.37
404.551	4.38
404.995	4.39
405.44	4.4
405.884	4.42
406.328	4.43
406.772	4.44
407.216	4.46
407.66	4.46
408.104	4.45
408.547	4.46
408.991	4.47
409.435	4.48
409.879	4.49
410.322	4.5
410.766	4.53
411.209	4.56
411.653	4.59
412.096	4.6
412.54	4.61
412.983	4.64
413.426	4.67
413.869	4.69
414.312	4.73
414.756	4.76
415.199	4.77
415.642	4.77
416.085	4.79
416.527	4.78
416.97	4.78
417.413	4.78
417.856	4.77
418.298	4.76
418.741	4.76
419.184	4.75
419.626	4.74
420.069	4.74
420.511	4.75
420.953	4.74
421.396	4.76
421.838	4.77
422.28	4.79
422.722	4.83
423.164	4.84
423.606	4.85
424.048	4.87
424.49	4.88
424.932	4.89
425.374	4.9
425.816	4.89
426.258	4.86
426.699	4.85
427.141	4.83
427.582	4.83
428.024	4.84
428.465	4.84
428.907	4.84
429.348	4.84
429.789	4.84
430.231	4.85
430.672	4.87
431.113	4.91
431.554	4.94
431.995	4.96
432.436	4.96
432.877	4.97
433.318	4.99
433.759	5.02
434.2	5.04
434.64	5.06
435.081	5.08
435.522	5.09
435.962	5.1
436.403	5.13
436.843	5.14
437.284	5.15
437.724	5.15
438.164	5.15
438.604	5.16
439.045	5.17
439.485	5.19
439.925	5.17
440.365	5.19
440.805	5.18
441.245	5.19
441.685	5.22
442.125	5.23
442.564	5.26
443.004	5.28
443.444	5.27
443.883	5.29
444.323	5.27
444.762	5.3
445.202	5.3
445.641	5.33
446.081	5.34
446.52	5.33
446.959	5.36
447.398	5.36
447.837	5.36
448.276	5.36
448.716	5.34
449.154	5.37
449.593	5.37
450.032	5.37
450.471	5.35
450.91	5.34
451.349	5.34
451.787	5.32
452.226	5.29
452.664	5.29
453.103	5.28
453.541	5.28
453.98	5.26
454.418	5.24
454.856	5.23
455.295	5.22
455.733	5.18
456.171	5.17
456.609	5.15
457.047	5.13
457.485	5.11
457.923	5.11
458.361	5.09
458.798	5.09
459.236	5.09
459.674	5.09
460.111	5.09
460.549	5.11
460.987	5.12
461.424	5.13
461.862	5.14
462.299	5.15
462.736	5.15
463.173	5.16
463.611	5.16
464.048	5.17
464.485	5.16
464.922	5.16
465.359	5.17
465.796	5.17
466.233	5.17
466.67	5.18
467.106	5.18
467.543	5.19
467.98	5.19
468.416	5.19
468.853	5.18
469.29	5.2
469.726	5.21
470.162	5.19
470.599	5.19
471.035	5.18
471.471	5.18
471.907	5.17
472.344	5.17
472.78	5.17
473.216	5.17
473.652	5.17
474.088	5.16
474.523	5.16
474.959	5.16
475.395	5.15
475.831	5.15
476.266	5.14
476.702	5.13
477.138	5.11
477.573	5.1
478.008	5.09
478.444	5.08
478.879	5.08
479.314	5.06
479.75	5.05
480.185	5.03
480.62	5.01
481.055	5
481.49	5
481.925	4.99
482.36	4.99
482.795	4.98
483.229	4.98
483.664	4.98
484.099	4.97
484.534	4.96
484.968	4.97
485.403	4.97
485.837	4.98
486.271	4.99
486.706	4.99
487.14	4.99
487.574	5
488.009	5
488.443	5
488.877	5.01
489.311	5.03
489.745	5.04
490.179	5.06
490.613	5.08
491.046	5.09
491.48	5.11
491.914	5.14
492.348	5.17
492.781	5.19
493.215	5.23
493.648	5.26
494.082	5.29
494.515	5.32
494.948	5.35
495.382	5.38
495.815	5.43
496.248	5.47
496.681	5.51
497.114	5.55
497.547	5.6
497.98	5.65
498.413	5.7
498.846	5.75
499.279	5.8
499.711	5.85
500.144	5.91
500.577	5.96
501.009	6.01
501.442	6.06
501.874	6.13
502.306	6.2
502.739	6.27
503.171	6.35
503.603	6.41
504.036	6.51
504.468	6.6
504.9	6.66
505.332	6.75
505.764	6.85
506.196	6.94
506.627	7.04
507.059	7.14
507.491	7.24
507.923	7.34
508.354	7.45
508.786	7.56
509.217	7.67
509.649	7.79
510.08	7.91
510.512	8.02
510.943	8.14
511.374	8.26
511.805	8.39
512.237	8.5
512.668	8.63
513.099	8.74
513.53	8.86
513.961	8.98
514.391	9.11
514.822	9.24
515.253	9.38
515.684	9.51
516.114	9.65
516.545	9.77
516.975	9.92
517.406	10.05
517.836	10.2
518.267	10.35
518.697	10.47
519.127	10.59
519.558	10.71
519.988	10.83
520.418	10.95
520.848	11.07
521.278	11.19
521.708	11.4
522.138	11.52
522.567	11.62
522.997	11.72
523.427	11.84
523.857	11.96
524.286	12.06
524.716	12.17
525.145	12.27
525.575	12.36
526.004	12.47
526.433	12.46
526.863	12.55
527.292	12.64
527.721	12.73
528.15	12.81
528.579	12.89
529.008	12.97
529.437	13.04
529.866	13.11
530.295	13.17
530.724	13.22
531.152	13.3
531.581	13.36
532.01	13.41
532.438	13.47
532.867	13.53
533.295	13.58
533.723	13.63
534.152	13.67
534.58	13.72
535.008	13.75
535.436	13.8
535.865	13.82
536.293	13.85
536.721	13.88
537.149	13.91
537.576	13.94
538.004	13.97
538.432	14
538.86	14.02
539.287	14.04
539.715	14.08
540.143	14.11
540.57	14.13
540.998	14.16
541.425	14.19
541.852	14.2
542.28	14.23
542.707	14.25
543.134	14.26
543.561	14.31
543.988	14.32
544.415	14.33
544.842	14.36
545.269	14.39
545.696	14.42
546.123	14.44
546.549	14.47
546.976	14.49
547.403	14.52
547.829	14.55
548.256	14.55
548.682	14.58
549.108	14.61
549.535	14.63
549.961	14.65
550.387	14.66
550.813	14.67
551.24	14.67
551.666	14.7
552.092	14.71
552.518	14.73
552.943	14.74
553.369	14.76
553.795	14.75
554.221	14.76
554.646	14.75
555.072	14.75
555.498	14.76
555.923	14.75
556.349	14.73
556.774	14.73
557.199	14.71
557.625	14.7
558.05	14.69
558.475	14.67
558.9	14.65
559.325	14.63
559.75	14.6
560.175	14.56
560.6	14.54
561.025	14.51
561.449	14.46
561.874	14.43
562.299	14.39
562.723	14.34
563.148	14.29
563.572	14.23
563.997	14.17
564.421	14.11
564.846	14.05
565.27	13.98
565.694	13.93
566.118	13.87
566.542	13.81
566.966	13.74
567.39	13.66
567.814	13.6
568.238	13.54
568.662	13.47
569.086	13.41
569.509	13.36
569.933	13.31
570.357	13.24
570.78	13.17
571.204	13.11
571.627	13.05
572.05	13
572.474	12.97
572.897	12.92
573.32	12.88
573.743	12.83
574.166	12.79
574.589	12.74
575.012	12.7
575.435	12.68
575.858	12.65
576.281	12.61
576.704	12.58
577.126	12.55
577.549	12.51
577.972	12.48
578.394	12.45
578.817	12.41
579.239	12.39
579.661	12.36
580.084	12.33
580.506	12.3
580.928	12.28
581.35	12.26
581.772	12.22
582.194	12.21
582.616	12.18
583.038	12.15
583.46	12.13
583.882	12.09
584.303	12.06
584.725	12.01
585.147	11.99
585.568	11.96
585.99	11.94
586.411	11.91
586.833	11.88
587.254	11.85
587.675	11.83
588.096	11.81
588.518	11.79
588.939	11.79
589.36	11.77
589.781	11.75
590.202	11.74
590.623	11.72
591.043	11.71
591.464	11.7
591.885	11.68
592.305	11.66
592.726	11.66
593.147	11.63
593.567	11.61
593.987	11.6
594.408	11.57
594.828	11.55
595.248	11.52
595.669	11.51
596.089	11.48
596.509	11.47
596.929	11.45
597.349	11.42
597.769	11.4
598.189	11.38
598.608	11.37
599.028	11.36
599.448	11.34
599.867	11.33
600.287	11.31
600.706	11.29
601.126	11.27
601.545	11.26
601.965	11.25
602.384	11.24
602.803	11.22
603.222	11.19
603.641	11.18
604.061	11.16
604.48	11.13
604.898	11.11
605.317	11.1
605.736	11.09
606.155	11.07
606.574	11.04
606.992	11.01
607.411	10.99
607.829	10.96
608.248	10.92
608.666	10.89
609.085	10.87
609.503	10.86
609.921	10.83
610.339	10.8
610.758	10.77
611.176	10.74
611.594	10.72
612.012	10.7
612.43	10.69
612.847	10.67
613.265	10.64
613.683	10.63
614.101	10.6
614.518	10.57
614.936	10.55
615.353	10.52
615.771	10.51
616.188	10.49
616.606	10.47
617.023	10.45
617.44	10.44
617.857	10.42
618.274	10.4
618.691	10.38
619.108	10.36
619.525	10.35
619.942	10.34
620.359	10.33
620.776	10.32
621.192	10.32
621.609	10.31
622.026	10.3
622.442	10.3
622.859	10.29
623.275	10.3
623.691	10.3
624.108	10.3
624.524	10.29
624.94	10.29
625.356	10.3
625.772	10.29
626.188	10.29
626.604	10.3
627.02	10.29
627.436	10.29
627.852	10.28
628.268	10.27
628.683	10.26
629.099	10.26
629.514	10.26
629.93	10.25
630.345	10.23
630.761	10.21
631.176	10.18
631.591	10.16
632.007	10.12
632.422	10.09
632.837	10.06
633.252	10.02
633.667	9.98
634.082	9.93
634.497	9.88
634.911	9.82
635.326	9.75
635.741	9.71
636.155	9.64
636.57	9.58
636.984	9.52
637.399	9.44
637.813	9.36
638.228	9.27
638.642	9.18
639.056	9.09
639.47	9.02
639.884	8.94
640.298	8.84
640.712	8.75
641.126	8.67
641.54	8.58
641.954	8.51
642.368	8.43
642.781	8.36
643.195	8.29
643.609	8.22
644.022	8.14
644.436	8.09
644.849	8.04
645.262	7.98
645.676	7.92
646.089	7.87
646.502	7.83
646.915	7.78
647.328	7.76
647.741	7.72
648.154	7.7
648.567	7.69
648.98	7.67
649.393	7.65
649.805	7.63
650.218	7.63
650.631	7.63
651.043	7.61
651.456	7.61
651.868	7.6
652.28	7.59
652.693	7.59
653.105	7.58
653.517	7.56
653.929	7.56
654.341	7.55
654.753	7.53
655.165	7.51
655.577	7.5
655.989	7.48
656.401	7.46
656.813	7.44
657.224	7.4
657.636	7.38
658.047	7.35
658.459	7.31
658.87	7.28
659.282	7.25
659.693	7.21
660.104	7.19
660.515	7.15
660.926	7.12
661.338	7.08
661.749	7.06
662.159	7.02
662.57	7
662.981	6.98
663.392	6.95
663.803	6.92
664.213	6.89
664.624	6.86
665.035	6.84
665.445	6.83
665.855	6.8
666.266	6.8
666.676	6.79
667.086	6.76
667.497	6.75
667.907	6.74
668.317	6.74
668.727	6.74
669.137	6.75
669.547	6.75
669.956	6.75
670.366	6.75
670.776	6.75
671.186	6.76
671.595	6.77
672.005	6.78
672.414	6.79
672.824	6.81
673.233	6.83
673.642	6.84
674.052	6.86
674.461	6.89
674.87	6.92
675.279	6.96
675.688	6.98
676.097	7.02
676.506	7.06
676.915	7.1
677.323	7.14
677.732	7.17
678.141	7.23
678.549	7.27
678.958	7.33
679.366	7.39
679.775	7.45
680.183	7.52
680.592	7.61
681	7.7
681.408	7.79
681.816	7.9
682.224	8.02
682.632	8.15
683.04	8.28
683.448	8.42
683.856	8.58
684.264	8.74
684.671	8.92
685.079	9.1
685.487	9.3
685.894	9.52
686.302	9.76
686.709	10
687.116	10.27
687.524	10.56
687.931	10.85
688.338	11.15
688.745	11.46
689.152	11.78
689.559	12.13
689.966	12.46
690.373	12.8
690.78	13.15
691.187	13.5
691.593	13.86
692	14.19
692.407	14.54
692.813	14.89
693.22	15.25
693.626	15.6
694.032	15.94
694.439	16.3
694.845	16.64
695.251	16.97
695.657	17.3
696.063	17.62
696.469	17.96
696.875	18.28
697.281	18.59
697.687	18.91
698.093	19.22
698.498	19.5
698.904	19.8
699.31	20.1
699.715	20.38
700.12	20.65
700.526	20.92
700.931	21.2
701.337	21.45
701.742	21.7
702.147	21.93
702.552	22.15
702.957	22.37
703.362	22.57
703.767	22.77
704.172	22.98
704.577	23.17
704.981	23.37
705.386	23.56
705.791	23.75
706.195	23.92
706.6	24.12
707.004	24.3
707.408	24.5
707.813	24.67
708.217	24.84
708.621	25.02
709.025	25.18
709.43	25.33
709.834	25.48
710.237	25.64
710.641	25.8
711.045	25.93
711.449	26.08
711.853	26.24
712.256	26.38
712.66	26.52
713.064	26.65
713.467	26.79
713.87	26.92
714.274	27.04
714.677	27.15
715.08	27.26
715.484	27.41
715.887	27.54
716.29	27.64
716.693	27.76
717.096	27.88
717.499	27.99
717.901	28.11
718.304	28.21
718.707	28.32
719.109	28.44
719.512	28.54
719.915	28.62
720.317	28.7
720.719	28.78
721.122	28.87
721.524	28.96
721.926	29.05
722.328	29.12
722.731	29.22
723.133	29.31
723.535	29.38
723.937	29.47
724.338	29.56
724.74	29.65
725.142	29.77
725.544	29.81
725.945	29.9
726.347	29.96
726.748	30.04
727.15	30.1
727.551	30.19
727.952	30.25
728.354	30.3
728.755	30.36
729.156	30.4
729.557	30.42
729.958	30.49
730.359	30.53
730.76	30.6
731.161	30.64
731.562	30.68
731.962	30.69
732.363	30.73
732.763	30.76
733.164	30.79
733.564	30.85
733.965	30.86
734.365	30.91
734.766	30.93
735.166	30.95
735.566	30.98
735.966	31.01
736.366	31.04
736.766	31.08
737.166	31.13
737.566	31.18
737.966	31.18
738.365	31.22
738.765	31.25
739.165	31.29
739.564	31.33
739.964	31.35
740.363	31.36
740.763	31.41
741.162	31.42
741.561	31.43
741.96	31.41
742.36	31.43
742.759	31.45
743.158	31.47
743.557	31.47
743.955	31.51
744.354	31.54
744.753	31.59
745.152	31.61
745.55	31.65
745.949	31.68
746.348	31.74
746.746	31.77
747.144	31.8
747.543	31.84
747.941	31.87
748.339	31.89
748.737	31.89
749.136	31.92
749.534	31.91
749.932	31.91
750.33	31.93
750.727	31.94
751.125	31.97
751.523	31.96
751.921	31.96
752.318	31.97
752.716	31.96
753.113	31.95
753.511	31.97
753.908	31.99
754.305	32
754.703	31.98
755.1	31.97
755.497	31.96
755.894	31.96
756.291	31.96
756.688	31.94
757.085	31.95
757.482	31.96
757.878	31.95
758.275	31.93
758.672	31.92
759.068	31.94
759.465	31.94
759.861	31.96
760.258	31.97
760.654	31.96
761.05	31.97
761.447	31.98
761.843	31.97
762.239	31.97
762.635	31.98
763.031	31.99
763.427	31.98
763.822	31.98
764.218	31.98
764.614	31.98
765.01	31.99
765.405	32
765.801	31.97
766.196	31.97
766.592	31.97
766.987	31.99
767.382	31.99
767.778	32
768.173	32.01
768.568	32.02
768.963	32.03
769.358	32.06
769.753	32.08
770.148	32.11
770.542	32.15
770.937	32.16
771.332	32.19
771.726	32.21
772.121	32.24
772.515	32.26
772.91	32.26
773.304	32.3
773.699	32.31
774.093	32.33
774.487	32.35
774.881	32.37
775.275	32.39
775.669	32.34
776.063	32.36
776.457	32.37
776.851	32.36
777.245	32.36
777.638	32.38
778.032	32.36
778.425	32.39
778.819	32.39
779.212	32.42
779.606	32.44
779.999	32.49
780.392	32.51
780.786	32.54
781.179	32.57
781.572	32.62
781.965	32.63
782.358	32.66
782.751	32.66
783.143	32.67
783.536	32.67
