Data from N_3_DIV_PA_2N_Splice17_14-11-10-472.txt Node
Date: Sat Mar 07 14:11:10 EST 2020
User: sa697716
Spectrometer: NQ5500242
Trigger mode: 0
Integration Time (sec): 1.450000E-1
Scans to average: 20
Nonlinearity correction enabled: false
Boxcar width: 5
Storing dark spectrum: false
XAxis mode: Wavelengths
Number of Pixels in Spectrum: 512
>>>>>Begin Spectral Data<<<<<
187.83	121.37
188.298	128.92
188.766	112.63
189.233	85.78
189.701	80.01
190.169	99.99
190.636	69.77
191.104	71.29
191.571	-48.41
192.039	-143.56
192.506	-516.17
192.974	223.47
193.441	238.53
193.908	83.47
194.375	17.66
194.842	-32
195.31	-2.87
195.777	-390.64
196.244	28.2
196.711	49.09
197.177	54.23
197.644	54.96
198.111	54.89
198.578	55.8
199.045	56.59
199.511	56.82
199.978	57.24
200.445	57.66
200.911	57.87
201.378	57.87
201.844	58.06
202.31	57.58
202.777	57.68
203.243	57.71
203.709	57.47
204.176	56.94
204.642	56.7
205.108	56.31
205.574	55.88
206.04	55.44
206.506	55.06
206.972	54.94
207.438	54.46
207.903	53.89
208.369	52.74
208.835	51.64
209.301	50.86
209.766	49.6
210.232	48.36
210.697	47.18
211.163	46.35
211.628	45.17
212.094	43.94
212.559	43.19
213.024	42.03
213.49	41.31
213.955	40.53
214.42	39.81
214.885	38.99
215.35	38.07
215.815	36.59
216.28	34.74
216.745	32.96
217.21	30.92
217.675	29
218.14	27.35
218.604	25.97
219.069	24.78
219.534	23.69
219.998	22.78
220.463	22.01
220.927	21.27
221.392	20.72
221.856	20.22
222.32	19.8
222.785	19.43
223.249	19.09
223.713	18.74
224.177	18.44
224.642	18.15
225.106	17.86
225.57	17.55
226.034	17.33
226.497	17.07
226.961	16.82
227.425	16.61
227.889	16.38
228.353	16.15
228.816	15.91
229.28	15.67
229.744	15.46
230.207	15.25
230.671	15.07
231.134	14.88
231.597	14.72
232.061	14.55
232.524	14.36
232.987	14.19
233.45	14.03
233.914	13.88
234.377	13.71
234.84	13.57
235.303	13.42
235.766	13.28
236.229	13.14
236.691	12.99
237.154	12.86
237.617	12.75
238.08	12.63
238.542	12.5
239.005	12.4
239.468	12.29
239.93	12.18
240.393	12.07
240.855	11.94
241.317	11.84
241.78	11.73
242.242	11.61
242.704	11.5
243.166	11.39
243.629	11.29
244.091	11.17
244.553	11.08
245.015	10.96
245.477	10.85
245.939	10.77
246.4	10.67
246.862	10.58
247.324	10.49
247.786	10.39
248.247	10.31
248.709	10.22
249.17	10.12
249.632	10.05
250.093	9.98
250.555	9.91
251.016	9.83
251.477	9.74
251.939	9.67
252.4	9.61
252.861	9.54
253.322	9.47
253.783	9.41
254.244	9.37
254.705	9.3
255.166	9.23
255.627	9.17
256.088	9.12
256.549	9.08
257.009	9.01
257.47	8.95
257.931	8.89
258.391	8.83
258.852	8.76
259.312	8.7
259.773	8.64
260.233	8.6
260.694	8.54
261.154	8.48
261.614	8.42
262.074	8.37
262.534	8.32
262.994	8.28
263.455	8.24
263.915	8.2
264.374	8.16
264.834	8.12
265.294	8.07
265.754	8.05
266.214	8.02
266.673	7.98
267.133	7.96
267.593	7.93
268.052	7.9
268.512	7.87
268.971	7.84
269.431	7.82
269.89	7.78
270.349	7.76
270.809	7.72
271.268	7.69
271.727	7.67
272.186	7.64
272.645	7.62
273.104	7.58
273.563	7.55
274.022	7.53
274.481	7.5
274.94	7.48
275.399	7.46
275.857	7.44
276.316	7.42
276.775	7.39
277.233	7.37
277.692	7.34
278.15	7.32
278.609	7.3
279.067	7.28
279.525	7.26
279.984	7.23
280.442	7.2
280.9	7.18
281.358	7.16
281.816	7.14
282.274	7.11
282.732	7.09
283.19	7.07
283.648	7.05
284.106	7.02
284.564	7.01
285.021	7
285.479	6.97
285.937	6.96
286.394	6.94
286.852	6.93
287.309	6.9
287.767	6.87
288.224	6.84
288.682	6.81
289.139	6.79
289.596	6.75
290.053	6.72
290.511	6.69
290.968	6.65
291.425	6.62
291.882	6.59
292.339	6.57
292.796	6.55
293.252	6.52
293.709	6.5
294.166	6.48
294.623	6.46
295.079	6.44
295.536	6.43
295.992	6.4
296.449	6.38
296.905	6.36
297.362	6.34
297.818	6.32
298.274	6.31
298.731	6.29
299.187	6.26
299.643	6.25
300.099	6.23
300.555	6.2
301.011	6.18
301.467	6.17
301.923	6.14
302.379	6.12
302.835	6.1
303.291	6.08
303.746	6.06
304.202	6.05
304.658	6.03
305.113	6.02
305.569	6.01
306.024	5.99
306.479	5.97
306.935	5.97
307.39	5.96
307.845	5.95
308.301	5.95
308.756	5.93
309.211	5.92
309.666	5.92
310.121	5.9
310.576	5.9
311.031	5.89
311.486	5.89
311.94	5.87
312.395	5.86
312.85	5.85
313.305	5.84
313.759	5.84
314.214	5.82
314.668	5.81
315.123	5.8
315.577	5.78
316.032	5.77
316.486	5.76
316.94	5.74
317.394	5.73
317.849	5.71
318.303	5.68
318.757	5.66
319.211	5.64
319.665	5.63
320.119	5.6
320.572	5.58
321.026	5.56
321.48	5.54
321.934	5.52
322.387	5.5
322.841	5.49
323.295	5.48
323.748	5.47
324.202	5.46
324.655	5.45
325.108	5.45
325.562	5.44
326.015	5.43
326.468	5.42
326.921	5.41
327.374	5.4
327.827	5.4
328.28	5.38
328.733	5.38
329.186	5.36
329.639	5.35
330.092	5.35
330.545	5.35
330.997	5.34
331.45	5.34
331.903	5.33
332.355	5.33
332.808	5.32
333.26	5.32
333.713	5.31
334.165	5.31
334.617	5.31
335.069	5.29
335.522	5.28
335.974	5.29
336.426	5.27
336.878	5.26
337.33	5.25
337.782	5.25
338.234	5.25
338.686	5.25
339.137	5.25
339.589	5.24
340.041	5.24
340.493	5.22
340.944	5.2
341.396	5.19
341.847	5.17
342.299	5.15
342.75	5.13
343.201	5.11
343.653	5.09
344.104	5.06
344.555	5.04
345.006	5.01
345.457	5
345.908	4.98
346.359	4.97
346.81	4.96
347.261	4.95
347.712	4.95
348.163	4.93
348.613	4.93
349.064	4.92
349.515	4.92
349.965	4.91
350.416	4.9
350.866	4.89
351.317	4.88
351.767	4.87
352.217	4.86
352.668	4.85
353.118	4.84
353.568	4.83
354.018	4.82
354.468	4.82
354.918	4.82
355.368	4.83
355.818	4.82
356.268	4.82
356.718	4.82
357.168	4.81
357.617	4.81
358.067	4.81
358.517	4.82
358.966	4.83
359.416	4.82
359.865	4.81
360.315	4.81
360.764	4.81
361.213	4.81
361.663	4.8
362.112	4.8
362.561	4.8
363.01	4.79
363.459	4.77
363.908	4.76
364.357	4.75
364.806	4.74
365.255	4.73
365.703	4.72
366.152	4.71
366.601	4.7
367.05	4.7
367.498	4.69
367.947	4.69
368.395	4.7
368.844	4.7
369.292	4.69
369.74	4.68
370.189	4.68
370.637	4.67
371.085	4.66
371.533	4.66
371.981	4.66
372.429	4.65
372.877	4.65
373.325	4.63
373.773	4.63
374.221	4.62
374.669	4.61
375.116	4.59
375.564	4.58
376.012	4.57
376.459	4.58
376.907	4.57
377.354	4.56
377.801	4.56
378.249	4.55
378.696	4.55
379.143	4.55
379.591	4.54
380.038	4.53
380.485	4.54
380.932	4.53
381.379	4.52
381.826	4.52
382.273	4.53
382.72	4.52
383.166	4.51
383.613	4.51
384.06	4.5
384.506	4.5
384.953	4.51
385.4	4.51
385.846	4.52
386.292	4.53
386.739	4.53
387.185	4.53
387.631	4.54
388.078	4.54
388.524	4.54
388.97	4.55
389.416	4.55
389.862	4.55
390.308	4.55
390.754	4.57
391.2	4.58
391.645	4.59
392.091	4.61
392.537	4.62
392.983	4.64
393.428	4.66
393.874	4.67
394.319	4.69
394.765	4.7
395.21	4.71
395.655	4.72
396.101	4.73
396.546	4.74
396.991	4.75
397.436	4.77
397.881	4.79
398.326	4.82
398.771	4.84
399.216	4.87
399.661	4.92
400.106	4.95
400.551	4.96
400.995	4.97
401.44	4.98
401.885	5
402.329	5.02
402.774	5.03
403.218	5.05
403.663	5.06
404.107	5.08
404.551	5.07
404.995	5.08
405.44	5.1
405.884	5.12
406.328	5.15
406.772	5.16
407.216	5.18
407.66	5.2
408.104	5.21
408.547	5.21
408.991	5.23
409.435	5.24
409.879	5.25
410.322	5.28
410.766	5.31
411.209	5.33
411.653	5.36
412.096	5.38
412.54	5.4
412.983	5.41
413.426	5.46
413.869	5.48
414.312	5.53
414.756	5.55
415.199	5.56
415.642	5.58
416.085	5.61
416.527	5.6
416.97	5.6
417.413	5.6
417.856	5.62
418.298	5.62
418.741	5.62
419.184	5.62
419.626	5.62
420.069	5.65
420.511	5.66
420.953	5.66
421.396	5.68
421.838	5.7
422.28	5.73
422.722	5.75
423.164	5.76
423.606	5.78
424.048	5.79
424.49	5.81
424.932	5.81
425.374	5.82
425.816	5.81
426.258	5.8
426.699	5.79
427.141	5.78
427.582	5.78
428.024	5.79
428.465	5.79
428.907	5.8
429.348	5.79
429.789	5.77
430.231	5.78
430.672	5.79
431.113	5.82
431.554	5.84
431.995	5.86
432.436	5.87
432.877	5.87
433.318	5.88
433.759	5.9
434.2	5.93
434.64	5.96
435.081	5.96
435.522	5.97
435.962	5.99
436.403	6.02
436.843	6.04
437.284	6.04
437.724	6.06
438.164	6.06
438.604	6.07
439.045	6.07
439.485	6.07
439.925	6.08
440.365	6.1
440.805	6.12
441.245	6.11
441.685	6.14
442.125	6.17
442.564	6.18
443.004	6.21
443.444	6.23
443.883	6.25
444.323	6.26
444.762	6.28
445.202	6.3
445.641	6.3
446.081	6.35
446.52	6.35
446.959	6.36
447.398	6.39
447.837	6.41
448.276	6.42
448.716	6.43
449.154	6.48
449.593	6.49
450.032	6.51
450.471	6.52
450.91	6.5
451.349	6.51
451.787	6.5
452.226	6.5
452.664	6.49
453.103	6.49
453.541	6.49
453.98	6.48
454.418	6.46
454.856	6.44
455.295	6.42
455.733	6.4
456.171	6.39
456.609	6.39
457.047	6.37
457.485	6.34
457.923	6.33
458.361	6.32
458.798	6.3
459.236	6.29
459.674	6.28
460.111	6.28
460.549	6.29
460.987	6.29
461.424	6.29
461.862	6.29
462.299	6.3
462.736	6.29
463.173	6.29
463.611	6.29
464.048	6.28
464.485	6.28
464.922	6.28
465.359	6.28
465.796	6.29
466.233	6.28
466.67	6.28
467.106	6.29
467.543	6.29
467.98	6.29
468.416	6.28
468.853	6.28
469.29	6.28
469.726	6.3
470.162	6.28
470.599	6.28
471.035	6.27
471.471	6.26
471.907	6.26
472.344	6.26
472.78	6.27
473.216	6.27
473.652	6.27
474.088	6.27
474.523	6.27
474.959	6.26
475.395	6.24
475.831	6.24
476.266	6.25
476.702	6.24
477.138	6.24
477.573	6.23
478.008	6.23
478.444	6.21
478.879	6.21
479.314	6.19
479.75	6.19
480.185	6.17
480.62	6.16
481.055	6.15
481.49	6.14
481.925	6.13
482.36	6.13
482.795	6.12
483.229	6.11
483.664	6.12
484.099	6.11
484.534	6.11
484.968	6.12
485.403	6.12
485.837	6.13
486.271	6.15
486.706	6.16
487.14	6.17
487.574	6.18
488.009	6.2
488.443	6.21
488.877	6.23
489.311	6.26
489.745	6.28
490.179	6.31
490.613	6.34
491.046	6.37
491.48	6.4
491.914	6.43
492.348	6.47
492.781	6.52
493.215	6.56
493.648	6.61
494.082	6.65
494.515	6.69
494.948	6.75
495.382	6.8
495.815	6.87
496.248	6.93
496.681	7
497.114	7.06
497.547	7.13
497.98	7.2
498.413	7.28
498.846	7.37
499.279	7.44
499.711	7.53
500.144	7.62
500.577	7.71
501.009	7.8
501.442	7.9
501.874	8.01
502.306	8.13
502.739	8.23
503.171	8.35
503.603	8.47
504.036	8.61
504.468	8.74
504.9	8.87
505.332	9.02
505.764	9.16
506.196	9.31
506.627	9.47
507.059	9.64
507.491	9.81
507.923	9.98
508.354	10.18
508.786	10.36
509.217	10.54
509.649	10.73
510.08	10.92
510.512	11.12
510.943	11.34
511.374	11.54
511.805	11.75
512.237	11.97
512.668	12.2
513.099	12.41
513.53	12.63
513.961	12.87
514.391	13.1
514.822	13.35
515.253	13.58
515.684	13.81
516.114	14.05
516.545	14.29
516.975	14.53
517.406	14.76
517.836	15.01
518.267	15.27
518.697	15.49
519.127	15.73
519.558	15.97
519.988	16.2
520.418	16.42
520.848	16.64
521.278	16.86
521.708	17.1
522.138	17.32
522.567	17.52
522.997	17.71
523.427	17.91
523.857	18.11
524.286	18.29
524.716	18.46
525.145	18.64
525.575	18.82
526.004	19
526.433	19.14
526.863	19.29
527.292	19.45
527.721	19.59
528.15	19.73
528.579	19.86
529.008	19.98
529.437	20.1
529.866	20.21
530.295	20.34
530.724	20.43
531.152	20.53
531.581	20.63
532.01	20.71
532.438	20.8
532.867	20.89
533.295	20.97
533.723	21.05
534.152	21.12
534.58	21.19
535.008	21.23
535.436	21.28
535.865	21.32
536.293	21.36
536.721	21.41
537.149	21.44
537.576	21.46
538.004	21.5
538.432	21.51
538.86	21.54
539.287	21.54
539.715	21.57
540.143	21.6
540.57	21.62
540.998	21.64
541.425	21.65
541.852	21.66
542.28	21.69
542.707	21.71
543.134	21.74
543.561	21.77
543.988	21.81
544.415	21.81
544.842	21.83
545.269	21.85
545.696	21.87
546.123	21.9
546.549	21.94
546.976	21.96
547.403	21.97
547.829	22
548.256	22.01
548.682	22.04
549.108	22.08
549.535	22.11
549.961	22.13
550.387	22.14
550.813	22.13
551.24	22.12
551.666	22.12
552.092	22.12
552.518	22.11
552.943	22.09
553.369	22.07
553.795	22.05
554.221	22.03
554.646	22.01
555.072	21.98
555.498	21.96
555.923	21.94
556.349	21.9
556.774	21.88
557.199	21.83
557.625	21.81
558.05	21.74
558.475	21.69
558.9	21.63
559.325	21.57
559.75	21.53
560.175	21.45
560.6	21.37
561.025	21.29
561.449	21.19
561.874	21.1
562.299	20.99
562.723	20.91
563.148	20.81
563.572	20.7
563.997	20.58
564.421	20.46
564.846	20.34
565.27	20.23
565.694	20.1
566.118	19.98
566.542	19.85
566.966	19.72
567.39	19.59
567.814	19.46
568.238	19.31
568.662	19.19
569.086	19.05
569.509	18.92
569.933	18.77
570.357	18.65
570.78	18.51
571.204	18.38
571.627	18.26
572.05	18.13
572.474	18.01
572.897	17.91
573.32	17.78
573.743	17.68
574.166	17.58
574.589	17.48
575.012	17.37
575.435	17.29
575.858	17.21
576.281	17.13
576.704	17.05
577.126	16.96
577.549	16.88
577.972	16.82
578.394	16.73
578.817	16.66
579.239	16.58
579.661	16.52
580.084	16.44
580.506	16.38
580.928	16.31
581.35	16.24
581.772	16.18
582.194	16.12
582.616	16.06
583.038	16.01
583.46	15.95
583.882	15.9
584.303	15.85
584.725	15.8
585.147	15.73
585.568	15.68
585.99	15.62
586.411	15.57
586.833	15.51
587.254	15.45
587.675	15.4
588.096	15.36
588.518	15.32
588.939	15.28
589.36	15.23
589.781	15.19
590.202	15.15
590.623	15.12
591.043	15.09
591.464	15.06
591.885	15.03
592.305	15
592.726	14.97
593.147	14.93
593.567	14.89
593.987	14.87
594.408	14.84
594.828	14.81
595.248	14.79
595.669	14.75
596.089	14.72
596.509	14.68
596.929	14.65
597.349	14.64
597.769	14.61
598.189	14.57
598.608	14.54
599.028	14.52
599.448	14.48
599.867	14.44
600.287	14.42
600.706	14.38
601.126	14.34
601.545	14.3
601.965	14.25
602.384	14.22
602.803	14.19
603.222	14.14
603.641	14.09
604.061	14.05
604.48	14
604.898	13.93
605.317	13.88
605.736	13.82
606.155	13.77
606.574	13.7
606.992	13.62
607.411	13.56
607.829	13.47
608.248	13.4
608.666	13.33
609.085	13.27
609.503	13.21
609.921	13.14
610.339	13.09
610.758	13.04
611.176	12.97
611.594	12.92
612.012	12.86
612.43	12.82
612.847	12.77
613.265	12.7
613.683	12.64
614.101	12.57
614.518	12.51
614.936	12.44
615.353	12.37
615.771	12.31
616.188	12.26
616.606	12.2
617.023	12.16
617.44	12.11
617.857	12.06
618.274	12.02
618.691	11.97
619.108	11.92
619.525	11.89
619.942	11.86
620.359	11.83
620.776	11.81
621.192	11.78
621.609	11.76
622.026	11.74
622.442	11.72
622.859	11.7
623.275	11.69
623.691	11.67
624.108	11.65
624.524	11.63
624.94	11.6
625.356	11.59
625.772	11.57
626.188	11.56
626.604	11.53
627.02	11.52
627.436	11.5
627.852	11.49
628.268	11.47
628.683	11.47
629.099	11.45
629.514	11.44
629.93	11.41
630.345	11.39
630.761	11.35
631.176	11.32
631.591	11.28
632.007	11.24
632.422	11.19
632.837	11.15
633.252	11.09
633.667	11.04
634.082	10.98
634.497	10.91
634.911	10.84
635.326	10.77
635.741	10.7
636.155	10.63
636.57	10.56
636.984	10.48
637.399	10.39
637.813	10.29
638.228	10.19
638.642	10.08
639.056	9.99
639.47	9.9
639.884	9.8
640.298	9.68
640.712	9.59
641.126	9.48
641.54	9.37
641.954	9.28
642.368	9.19
642.781	9.1
643.195	9.01
643.609	8.93
644.022	8.83
644.436	8.75
644.849	8.68
645.262	8.59
645.676	8.52
646.089	8.45
646.502	8.39
646.915	8.34
647.328	8.28
647.741	8.23
648.154	8.17
648.567	8.13
648.98	8.08
649.393	8.03
649.805	8
650.218	7.96
650.631	7.93
651.043	7.89
651.456	7.85
651.868	7.81
652.28	7.79
652.693	7.77
653.105	7.74
653.517	7.7
653.929	7.67
654.341	7.64
654.753	7.6
655.165	7.56
655.577	7.52
655.989	7.47
656.401	7.42
656.813	7.36
657.224	7.28
657.636	7.21
658.047	7.15
658.459	7.07
658.87	6.99
659.282	6.91
659.693	6.84
660.104	6.76
660.515	6.67
660.926	6.6
661.338	6.53
661.749	6.47
662.159	6.41
662.57	6.37
662.981	6.32
663.392	6.26
663.803	6.21
664.213	6.15
664.624	6.12
665.035	6.08
665.445	6.05
665.855	6.02
666.266	5.99
666.676	5.97
667.086	5.93
667.497	5.91
667.907	5.89
668.317	5.88
668.727	5.87
669.137	5.86
669.547	5.85
669.956	5.83
670.366	5.82
670.776	5.81
671.186	5.8
671.595	5.8
672.005	5.8
672.414	5.81
672.824	5.81
673.233	5.83
673.642	5.83
674.052	5.85
674.461	5.87
674.87	5.9
675.279	5.94
675.688	5.98
676.097	6
676.506	6.03
676.915	6.06
677.323	6.09
677.732	6.11
678.141	6.16
678.549	6.19
678.958	6.23
679.366	6.29
679.775	6.33
680.183	6.38
680.592	6.45
681	6.52
681.408	6.59
681.816	6.69
682.224	6.81
682.632	6.92
683.04	7.04
683.448	7.17
683.856	7.29
684.264	7.45
684.671	7.62
685.079	7.8
685.487	8
685.894	8.24
686.302	8.47
686.709	8.72
687.116	8.99
687.524	9.28
687.931	9.59
688.338	9.94
688.745	10.29
689.152	10.65
689.559	11.06
689.966	11.48
690.373	11.9
690.78	12.33
691.187	12.76
691.593	13.22
692	13.68
692.407	14.15
692.813	14.63
693.22	15.1
693.626	15.59
694.032	16.07
694.439	16.55
694.845	17.04
695.251	17.51
695.657	17.98
696.063	18.47
696.469	18.94
696.875	19.41
697.281	19.87
697.687	20.33
698.093	20.79
698.498	21.21
698.904	21.63
699.31	22.04
699.715	22.47
700.12	22.9
700.526	23.3
700.931	23.71
701.337	24.11
701.742	24.51
702.147	24.89
702.552	25.25
702.957	25.61
703.362	25.99
703.767	26.35
704.172	26.71
704.577	27.05
704.981	27.39
705.386	27.69
705.791	28.01
706.195	28.31
706.6	28.63
707.004	28.93
707.408	29.25
707.813	29.53
708.217	29.84
708.621	30.13
709.025	30.41
709.43	30.66
709.834	30.96
710.237	31.21
710.641	31.47
711.045	31.7
711.449	31.97
711.853	32.23
712.256	32.47
712.66	32.67
713.064	32.89
713.467	33.08
713.87	33.31
714.274	33.51
714.677	33.73
715.08	33.94
715.484	34.15
715.887	34.35
716.29	34.52
716.693	34.69
717.096	34.88
717.499	35.06
717.901	35.24
718.304	35.42
718.707	35.6
719.109	35.79
719.512	35.96
719.915	36.14
720.317	36.29
720.719	36.44
721.122	36.6
721.524	36.77
721.926	36.93
722.328	37.07
722.731	37.22
723.133	37.38
723.535	37.49
723.937	37.62
724.338	37.73
724.74	37.84
725.142	38
725.544	38.11
725.945	38.23
726.347	38.3
726.748	38.4
727.15	38.47
727.551	38.58
727.952	38.66
728.354	38.75
728.755	38.82
729.156	38.88
729.557	38.93
729.958	39
730.359	39.05
730.76	39.14
731.161	39.21
731.562	39.3
731.962	39.34
732.363	39.4
732.763	39.45
733.164	39.52
733.564	39.59
733.965	39.61
734.365	39.67
734.766	39.73
735.166	39.78
735.566	39.84
735.966	39.88
736.366	39.91
736.766	39.94
737.166	39.99
737.566	40.02
737.966	40.04
738.365	40.09
738.765	40.13
739.165	40.15
739.564	40.16
739.964	40.17
740.363	40.17
740.763	40.2
741.162	40.21
741.561	40.21
741.96	40.23
742.36	40.25
742.759	40.26
743.158	40.26
743.557	40.26
743.955	40.29
744.354	40.3
744.753	40.34
745.152	40.37
745.55	40.41
745.949	40.43
746.348	40.45
746.746	40.47
747.144	40.49
747.543	40.51
747.941	40.54
748.339	40.53
748.737	40.55
749.136	40.53
749.534	40.53
749.932	40.52
750.33	40.52
750.727	40.54
751.125	40.54
751.523	40.54
751.921	40.56
752.318	40.58
752.716	40.59
753.113	40.59
753.511	40.59
753.908	40.61
754.305	40.6
754.703	40.58
755.1	40.56
755.497	40.54
755.894	40.52
756.291	40.49
756.688	40.46
757.085	40.47
757.482	40.44
757.878	40.45
758.275	40.41
758.672	40.42
759.068	40.44
759.465	40.44
759.861	40.45
760.258	40.45
760.654	40.45
761.05	40.48
761.447	40.46
761.843	40.47
762.239	40.46
762.635	40.47
763.031	40.44
763.427	40.42
763.822	40.41
764.218	40.42
764.614	40.42
765.01	40.41
765.405	40.36
765.801	40.34
766.196	40.35
766.592	40.35
766.987	40.33
767.382	40.35
767.778	40.36
768.173	40.35
768.568	40.32
768.963	40.33
769.358	40.33
769.753	40.35
770.148	40.36
770.542	40.38
770.937	40.35
771.332	40.35
771.726	40.32
772.121	40.34
772.515	40.33
772.91	40.33
773.304	40.35
773.699	40.36
774.093	40.33
774.487	40.33
774.881	40.31
775.275	40.32
775.669	40.31
776.063	40.31
776.457	40.29
776.851	40.28
777.245	40.24
777.638	40.22
778.032	40.23
778.425	40.27
778.819	40.24
779.212	40.24
779.606	40.23
779.999	40.23
780.392	40.24
780.786	40.23
781.179	40.26
