Data from N_3_DEC_CT_2N_Splice17_13-56-16-818.txt Node
Date: Sat Mar 07 13:56:16 EST 2020
User: sa697716
Spectrometer: NQ5500242
Trigger mode: 0
Integration Time (sec): 1.450000E-1
Scans to average: 20
Nonlinearity correction enabled: false
Boxcar width: 5
Storing dark spectrum: false
XAxis mode: Wavelengths
Number of Pixels in Spectrum: 512
>>>>>Begin Spectral Data<<<<<
187.83	119.1
188.298	127.58
188.766	111.33
189.233	79.56
189.701	86.87
190.169	99.59
190.636	86.78
191.104	32.42
191.571	-234.56
192.039	-226.59
192.506	-603.99
192.974	131.07
193.441	168.39
193.908	60.57
194.375	15.88
194.842	-24.39
195.31	6.89
195.777	-135.88
196.244	25.64
196.711	38.99
197.177	45.95
197.644	46.19
198.111	46.1
198.578	46.6
199.045	47.22
199.511	46.95
199.978	47.36
200.445	47.53
200.911	47.65
201.378	47.73
201.844	47.74
202.31	47.23
202.777	47.08
203.243	47.31
203.709	47.03
204.176	46.5
204.642	46.36
205.108	46.03
205.574	45.6
206.04	45.25
206.506	44.89
206.972	44.72
207.438	44.28
207.903	43.77
208.369	42.79
208.835	42.01
209.301	41.24
209.766	40.02
210.232	39.02
210.697	38.15
211.163	37.13
211.628	36.17
212.094	35.39
212.559	34.63
213.024	34.03
213.49	33.46
213.955	32.69
214.42	31.98
214.885	31.41
215.35	30.52
215.815	29.25
216.28	27.62
216.745	25.76
217.21	23.77
217.675	21.91
218.14	20.29
218.604	18.93
219.069	17.76
219.534	16.82
219.998	15.98
220.463	15.27
220.927	14.6
221.392	14.11
221.856	13.72
222.32	13.36
222.785	13.1
223.249	12.85
223.713	12.59
224.177	12.39
224.642	12.17
225.106	11.96
225.57	11.74
226.034	11.57
226.497	11.41
226.961	11.23
227.425	11.08
227.889	10.91
228.353	10.73
228.816	10.57
229.28	10.4
229.744	10.26
230.207	10.1
230.671	9.95
231.134	9.83
231.597	9.7
232.061	9.58
232.524	9.46
232.987	9.33
233.45	9.23
233.914	9.11
234.377	9.01
234.84	8.9
235.303	8.82
235.766	8.75
236.229	8.65
236.691	8.55
237.154	8.46
237.617	8.38
238.08	8.29
238.542	8.2
239.005	8.13
239.468	8.04
239.93	7.96
240.393	7.88
240.855	7.78
241.317	7.7
241.78	7.61
242.242	7.52
242.704	7.45
243.166	7.37
243.629	7.31
244.091	7.24
244.553	7.17
245.015	7.1
245.477	7.02
245.939	6.95
246.4	6.89
246.862	6.84
247.324	6.79
247.786	6.72
248.247	6.66
248.709	6.58
249.17	6.52
249.632	6.48
250.093	6.43
250.555	6.37
251.016	6.33
251.477	6.27
251.939	6.23
252.4	6.18
252.861	6.13
253.322	6.1
253.783	6.06
254.244	6.02
254.705	5.97
255.166	5.93
255.627	5.89
256.088	5.86
256.549	5.82
257.009	5.78
257.47	5.74
257.931	5.7
258.391	5.65
258.852	5.6
259.312	5.56
259.773	5.53
260.233	5.5
260.694	5.47
261.154	5.42
261.614	5.39
262.074	5.35
262.534	5.32
262.994	5.29
263.455	5.26
263.915	5.24
264.374	5.22
264.834	5.19
265.294	5.16
265.754	5.14
266.214	5.12
266.673	5.1
267.133	5.09
267.593	5.08
268.052	5.06
268.512	5.05
268.971	5.04
269.431	5.02
269.89	5.01
270.349	5
270.809	4.99
271.268	4.97
271.727	4.96
272.186	4.94
272.645	4.93
273.104	4.91
273.563	4.9
274.022	4.88
274.481	4.87
274.94	4.86
275.399	4.83
275.857	4.82
276.316	4.81
276.775	4.8
277.233	4.8
277.692	4.79
278.15	4.78
278.609	4.77
279.067	4.76
279.525	4.75
279.984	4.73
280.442	4.73
280.9	4.71
281.358	4.7
281.816	4.7
282.274	4.68
282.732	4.67
283.19	4.65
283.648	4.64
284.106	4.62
284.564	4.62
285.021	4.61
285.479	4.6
285.937	4.58
286.394	4.57
286.852	4.56
287.309	4.55
287.767	4.53
288.224	4.51
288.682	4.49
289.139	4.48
289.596	4.46
290.053	4.44
290.511	4.41
290.968	4.39
291.425	4.36
291.882	4.35
292.339	4.32
292.796	4.31
293.252	4.29
293.709	4.28
294.166	4.26
294.623	4.25
295.079	4.23
295.536	4.23
295.992	4.22
296.449	4.21
296.905	4.2
297.362	4.2
297.818	4.19
298.274	4.19
298.731	4.18
299.187	4.17
299.643	4.16
300.099	4.15
300.555	4.14
301.011	4.13
301.467	4.12
301.923	4.11
302.379	4.1
302.835	4.09
303.291	4.08
303.746	4.07
304.202	4.07
304.658	4.06
305.113	4.05
305.569	4.05
306.024	4.05
306.479	4.03
306.935	4.03
307.39	4.02
307.845	4.01
308.301	4.02
308.756	4.02
309.211	4.01
309.666	4.01
310.121	4.02
310.576	4.01
311.031	4.01
311.486	4.01
311.94	4.01
312.395	4.01
312.85	4.01
313.305	3.99
313.759	3.98
314.214	3.97
314.668	3.96
315.123	3.95
315.577	3.95
316.032	3.94
316.486	3.92
316.94	3.92
317.394	3.9
317.849	3.89
318.303	3.88
318.757	3.86
319.211	3.85
319.665	3.84
320.119	3.83
320.572	3.82
321.026	3.81
321.48	3.8
321.934	3.78
322.387	3.77
322.841	3.77
323.295	3.77
323.748	3.76
324.202	3.76
324.655	3.74
325.108	3.74
325.562	3.73
326.015	3.73
326.468	3.72
326.921	3.72
327.374	3.71
327.827	3.71
328.28	3.69
328.733	3.69
329.186	3.69
329.639	3.69
330.092	3.69
330.545	3.69
330.997	3.68
331.45	3.69
331.903	3.69
332.355	3.7
332.808	3.7
333.26	3.69
333.713	3.69
334.165	3.68
334.617	3.69
335.069	3.68
335.522	3.68
335.974	3.68
336.426	3.67
336.878	3.66
337.33	3.66
337.782	3.65
338.234	3.67
338.686	3.66
339.137	3.67
339.589	3.66
340.041	3.66
340.493	3.66
340.944	3.64
341.396	3.63
341.847	3.62
342.299	3.61
342.75	3.59
343.201	3.58
343.653	3.57
344.104	3.54
344.555	3.53
345.006	3.52
345.457	3.51
345.908	3.51
346.359	3.51
346.81	3.51
347.261	3.5
347.712	3.5
348.163	3.49
348.613	3.49
349.064	3.49
349.515	3.49
349.965	3.49
350.416	3.48
350.866	3.48
351.317	3.47
351.767	3.46
352.217	3.47
352.668	3.47
353.118	3.47
353.568	3.46
354.018	3.46
354.468	3.46
354.918	3.46
355.368	3.46
355.818	3.46
356.268	3.46
356.718	3.46
357.168	3.45
357.617	3.45
358.067	3.44
358.517	3.45
358.966	3.45
359.416	3.45
359.865	3.45
360.315	3.45
360.764	3.45
361.213	3.44
361.663	3.43
362.112	3.43
362.561	3.44
363.01	3.44
363.459	3.42
363.908	3.42
364.357	3.41
364.806	3.4
365.255	3.4
365.703	3.41
366.152	3.42
366.601	3.42
367.05	3.42
367.498	3.41
367.947	3.41
368.395	3.42
368.844	3.41
369.292	3.41
369.74	3.41
370.189	3.4
370.637	3.4
371.085	3.38
371.533	3.38
371.981	3.38
372.429	3.39
372.877	3.39
373.325	3.39
373.773	3.39
374.221	3.39
374.669	3.38
375.116	3.38
375.564	3.38
376.012	3.38
376.459	3.38
376.907	3.38
377.354	3.37
377.801	3.39
378.249	3.39
378.696	3.39
379.143	3.39
379.591	3.41
380.038	3.41
380.485	3.41
380.932	3.41
381.379	3.41
381.826	3.43
382.273	3.43
382.72	3.41
383.166	3.41
383.613	3.42
384.06	3.41
384.506	3.41
384.953	3.42
385.4	3.44
385.846	3.45
386.292	3.46
386.739	3.45
387.185	3.47
387.631	3.48
388.078	3.49
388.524	3.5
388.97	3.52
389.416	3.54
389.862	3.56
390.308	3.59
390.754	3.62
391.2	3.64
391.645	3.67
392.091	3.7
392.537	3.74
392.983	3.77
393.428	3.82
393.874	3.87
394.319	3.93
394.765	3.97
395.21	4
395.655	4.06
396.101	4.13
396.546	4.19
396.991	4.27
397.436	4.34
397.881	4.44
398.326	4.51
398.771	4.59
399.216	4.65
399.661	4.72
400.106	4.78
400.551	4.83
400.995	4.87
401.44	4.91
401.885	4.94
402.329	4.99
402.774	5.02
403.218	5.1
403.663	5.16
404.107	5.22
404.551	5.28
404.995	5.34
405.44	5.39
405.884	5.45
406.328	5.52
406.772	5.59
407.216	5.66
407.66	5.73
408.104	5.78
408.547	5.83
408.991	5.88
409.435	5.95
409.879	6.02
410.322	6.1
410.766	6.2
411.209	6.28
411.653	6.37
412.096	6.44
412.54	6.51
412.983	6.57
413.426	6.66
413.869	6.73
414.312	6.81
414.756	6.88
415.199	6.92
415.642	6.97
416.085	7.01
416.527	7.03
416.97	7.03
417.413	7.03
417.856	7.03
418.298	7
418.741	7
419.184	7
419.626	7
420.069	7.03
420.511	7.05
420.953	7.08
421.396	7.12
421.838	7.17
422.28	7.24
422.722	7.32
423.164	7.39
423.606	7.45
424.048	7.49
424.49	7.52
424.932	7.5
425.374	7.44
425.816	7.34
426.258	7.26
426.699	7.2
427.141	7.2
427.582	7.24
428.024	7.31
428.465	7.38
428.907	7.44
429.348	7.48
429.789	7.57
430.231	7.72
430.672	7.92
431.113	8.12
431.554	8.32
431.995	8.46
432.436	8.57
432.877	8.65
433.318	8.73
433.759	8.81
434.2	8.93
434.64	9.05
435.081	9.16
435.522	9.25
435.962	9.34
436.403	9.41
436.843	9.46
437.284	9.5
437.724	9.56
438.164	9.63
438.604	9.73
439.045	9.82
439.485	9.9
439.925	9.96
440.365	10.01
440.805	10.03
441.245	10.09
441.685	10.15
442.125	10.22
442.564	10.27
443.004	10.33
443.444	10.39
443.883	10.46
444.323	10.52
444.762	10.58
445.202	10.67
445.641	10.77
446.081	10.88
446.52	11
446.959	11.12
447.398	11.2
447.837	11.25
448.276	11.27
448.716	11.29
449.154	11.31
449.593	11.34
450.032	11.33
450.471	11.3
450.91	11.27
451.349	11.23
451.787	11.19
452.226	11.16
452.664	11.17
453.103	11.15
453.541	11.14
453.98	11.12
454.418	11.07
454.856	11.04
455.295	11.01
455.733	10.99
456.171	10.96
456.609	10.94
457.047	10.92
457.485	10.91
457.923	10.91
458.361	10.92
458.798	10.93
459.236	10.96
459.674	10.98
460.111	11
460.549	11.02
460.987	11.04
461.424	11.07
461.862	11.11
462.299	11.14
462.736	11.18
463.173	11.22
463.611	11.27
464.048	11.35
464.485	11.41
464.922	11.49
465.359	11.57
465.796	11.65
466.233	11.73
466.67	11.8
467.106	11.9
467.543	11.99
467.98	12.08
468.416	12.17
468.853	12.23
469.29	12.31
469.726	12.4
470.162	12.47
470.599	12.55
471.035	12.6
471.471	12.64
471.907	12.66
472.344	12.7
472.78	12.73
473.216	12.76
473.652	12.8
474.088	12.82
474.523	12.84
474.959	12.85
475.395	12.83
475.831	12.84
476.266	12.86
476.702	12.86
477.138	12.86
477.573	12.84
478.008	12.82
478.444	12.78
478.879	12.74
479.314	12.68
479.75	12.63
480.185	12.55
480.62	12.45
481.055	12.3
481.49	12.12
481.925	11.93
482.36	11.75
482.795	11.59
483.229	11.47
483.664	11.39
484.099	11.3
484.534	11.23
484.968	11.2
485.403	11.21
485.837	11.25
486.271	11.33
486.706	11.43
487.14	11.5
487.574	11.54
488.009	11.57
488.443	11.59
488.877	11.64
489.311	11.67
489.745	11.71
490.179	11.75
490.613	11.8
491.046	11.84
491.48	11.88
491.914	11.95
492.348	12.04
492.781	12.14
493.215	12.22
493.648	12.29
494.082	12.36
494.515	12.41
494.948	12.47
495.382	12.52
495.815	12.59
496.248	12.65
496.681	12.7
497.114	12.75
497.547	12.8
497.98	12.88
498.413	12.98
498.846	13.09
499.279	13.21
499.711	13.32
500.144	13.45
500.577	13.58
501.009	13.76
501.442	13.97
501.874	14.17
502.306	14.38
502.739	14.6
503.171	14.8
503.603	15
504.036	15.23
504.468	15.45
504.9	15.69
505.332	15.92
505.764	16.15
506.196	16.36
506.627	16.61
507.059	16.87
507.491	17.11
507.923	17.38
508.354	17.67
508.786	17.95
509.217	18.22
509.649	18.48
510.08	18.76
510.512	19.03
510.943	19.35
511.374	19.65
511.805	19.92
512.237	20.15
512.668	20.36
513.099	20.58
513.53	20.83
513.961	21.1
514.391	21.42
514.822	21.77
515.253	22.13
515.684	22.49
516.114	22.89
516.545	23.32
516.975	23.83
517.406	24.36
517.836	24.89
518.267	25.41
518.697	25.92
519.127	26.4
519.558	26.9
519.988	27.4
520.418	27.88
520.848	28.32
521.278	28.74
521.708	29.28
522.138	29.61
522.567	29.91
522.997	30.21
523.427	30.54
523.857	30.9
524.286	31.25
524.716	31.59
525.145	31.92
525.575	32.23
526.004	32.59
526.433	32.79
526.863	33.21
527.292	33.61
527.721	33.95
528.15	34.22
528.579	34.45
529.008	34.64
529.437	34.79
529.866	34.95
530.295	35.12
530.724	35.26
531.152	35.42
531.581	35.56
532.01	35.7
532.438	35.86
532.867	36.02
533.295	36.16
533.723	36.31
534.152	36.46
534.58	36.57
535.008	36.65
535.436	36.7
535.865	36.7
536.293	36.69
536.721	36.73
537.149	36.78
537.576	36.86
538.004	36.95
538.432	37
538.86	37.07
539.287	37.18
539.715	37.3
540.143	37.44
540.57	37.6
540.998	37.77
541.425	37.92
541.852	38.06
542.28	38.2
542.707	38.31
543.134	38.43
543.561	38.54
543.988	38.64
544.415	38.73
544.842	38.84
545.269	38.96
545.696	39.06
546.123	39.16
546.549	39.24
546.976	39.33
547.403	39.44
547.829	39.55
548.256	39.66
548.682	39.74
549.108	39.85
549.535	39.93
549.961	39.98
550.387	40.05
550.813	40.12
551.24	40.19
551.666	40.21
552.092	40.21
552.518	40.17
552.943	40.13
553.369	40.1
553.795	40.02
554.221	39.92
554.646	39.79
555.072	39.65
555.498	39.49
555.923	39.35
556.349	39.22
556.774	39.1
557.199	38.99
557.625	38.87
558.05	38.75
558.475	38.66
558.9	38.55
559.325	38.45
559.75	38.33
560.175	38.21
560.6	38.03
561.025	37.85
561.449	37.61
561.874	37.37
562.299	37.15
562.723	36.91
563.148	36.64
563.572	36.36
563.997	36.08
564.421	35.79
564.846	35.5
565.27	35.22
565.694	34.96
566.118	34.69
566.542	34.41
566.966	34.11
567.39	33.83
567.814	33.56
568.238	33.33
568.662	33.12
569.086	32.91
569.509	32.7
569.933	32.5
570.357	32.29
570.78	32.09
571.204	31.92
571.627	31.74
572.05	31.56
572.474	31.4
572.897	31.22
573.32	31.02
573.743	30.82
574.166	30.63
574.589	30.44
575.012	30.29
575.435	30.16
575.858	30.04
576.281	29.91
576.704	29.79
577.126	29.67
577.549	29.57
577.972	29.47
578.394	29.38
578.817	29.31
579.239	29.25
579.661	29.17
580.084	29.09
580.506	28.99
580.928	28.89
581.35	28.78
581.772	28.66
582.194	28.53
582.616	28.42
583.038	28.3
583.46	28.16
583.882	28
584.303	27.8
584.725	27.57
585.147	27.35
585.568	27.15
585.99	26.98
586.411	26.83
586.833	26.68
587.254	26.54
587.675	26.42
588.096	26.29
588.518	26.19
588.939	26.14
589.36	26.12
589.781	26.1
590.202	26.07
590.623	26.02
591.043	25.95
591.464	25.87
591.885	25.79
592.305	25.71
592.726	25.63
593.147	25.53
593.567	25.44
593.987	25.34
594.408	25.25
594.828	25.15
595.248	25.07
595.669	24.98
596.089	24.87
596.509	24.76
596.929	24.64
597.349	24.52
597.769	24.41
598.189	24.29
598.608	24.21
599.028	24.13
599.448	24.04
599.867	23.94
600.287	23.88
600.706	23.8
601.126	23.72
601.545	23.65
601.965	23.58
602.384	23.51
602.803	23.42
603.222	23.31
603.641	23.18
604.061	23.06
604.48	22.92
604.898	22.77
605.317	22.63
605.736	22.5
606.155	22.35
606.574	22.2
606.992	22.07
607.411	21.93
607.829	21.76
608.248	21.62
608.666	21.48
609.085	21.36
609.503	21.22
609.921	21.09
610.339	20.94
610.758	20.81
611.176	20.66
611.594	20.49
612.012	20.33
612.43	20.18
612.847	20.05
613.265	19.92
613.683	19.79
614.101	19.68
614.518	19.56
614.936	19.44
615.353	19.32
615.771	19.24
616.188	19.18
616.606	19.11
617.023	19.06
617.44	19
617.857	18.91
618.274	18.82
618.691	18.72
619.108	18.63
619.525	18.54
619.942	18.45
620.359	18.36
620.776	18.25
621.192	18.14
621.609	18.04
622.026	17.94
622.442	17.87
622.859	17.81
623.275	17.73
623.691	17.65
624.108	17.58
624.524	17.53
624.94	17.47
625.356	17.43
625.772	17.39
626.188	17.35
626.604	17.3
627.02	17.25
627.436	17.2
627.852	17.18
628.268	17.15
628.683	17.13
629.099	17.11
629.514	17.08
629.93	17.05
630.345	17.03
630.761	16.98
631.176	16.95
631.591	16.92
632.007	16.88
632.422	16.83
632.837	16.79
633.252	16.73
633.667	16.67
634.082	16.59
634.497	16.54
634.911	16.46
635.326	16.37
635.741	16.27
636.155	16.16
636.57	16.05
636.984	15.94
637.399	15.8
637.813	15.68
638.228	15.54
638.642	15.41
639.056	15.27
639.47	15.15
639.884	15.02
640.298	14.89
640.712	14.78
641.126	14.66
641.54	14.52
641.954	14.38
642.368	14.26
642.781	14.15
643.195	14.02
643.609	13.89
644.022	13.77
644.436	13.66
644.849	13.54
645.262	13.42
645.676	13.3
646.089	13.2
646.502	13.12
646.915	13.04
647.328	12.95
647.741	12.89
648.154	12.81
648.567	12.75
648.98	12.69
649.393	12.64
649.805	12.61
650.218	12.58
650.631	12.52
651.043	12.45
651.456	12.33
651.868	12.2
652.28	12.06
652.693	11.94
653.105	11.83
653.517	11.72
653.929	11.64
654.341	11.55
654.753	11.47
655.165	11.4
655.577	11.35
655.989	11.33
656.401	11.34
656.813	11.35
657.224	11.34
657.636	11.31
658.047	11.28
658.459	11.21
658.87	11.14
659.282	11.05
659.693	10.97
660.104	10.87
660.515	10.79
660.926	10.7
661.338	10.61
661.749	10.53
662.159	10.43
662.57	10.34
662.981	10.26
663.392	10.18
663.803	10.12
664.213	10.04
664.624	9.97
665.035	9.9
665.445	9.84
665.855	9.77
666.266	9.71
666.676	9.66
667.086	9.59
667.497	9.53
667.907	9.48
668.317	9.43
668.727	9.39
669.137	9.35
669.547	9.3
669.956	9.27
670.366	9.25
670.776	9.21
671.186	9.2
671.595	9.18
672.005	9.17
672.414	9.16
672.824	9.15
673.233	9.15
673.642	9.14
674.052	9.14
674.461	9.14
674.87	9.14
675.279	9.16
675.688	9.15
676.097	9.17
676.506	9.2
676.915	9.22
677.323	9.24
677.732	9.26
678.141	9.3
678.549	9.32
678.958	9.35
679.366	9.39
679.775	9.42
680.183	9.47
680.592	9.54
681	9.6
681.408	9.67
681.816	9.73
682.224	9.77
682.632	9.8
683.04	9.82
683.448	9.86
683.856	9.91
684.264	9.98
684.671	10.07
685.079	10.16
685.487	10.28
685.894	10.43
686.302	10.64
686.709	10.89
687.116	11.21
687.524	11.58
687.931	11.98
688.338	12.39
688.745	12.84
689.152	13.31
689.559	13.82
689.966	14.34
690.373	14.87
690.78	15.41
691.187	15.97
691.593	16.54
692	17.13
692.407	17.74
692.813	18.37
693.22	19
693.626	19.63
694.032	20.26
694.439	20.9
694.845	21.56
695.251	22.21
695.657	22.86
696.063	23.52
696.469	24.16
696.875	24.8
697.281	25.45
697.687	26.1
698.093	26.73
698.498	27.36
698.904	28.01
699.31	28.64
699.715	29.27
700.12	29.91
700.526	30.54
700.931	31.16
701.337	31.78
701.742	32.37
702.147	32.96
702.552	33.57
702.957	34.13
703.362	34.69
703.767	35.25
704.172	35.81
704.577	36.33
704.981	36.85
705.386	37.36
705.791	37.86
706.195	38.38
706.6	38.9
707.004	39.38
707.408	39.91
707.813	40.4
708.217	40.85
708.621	41.31
709.025	41.77
709.43	42.22
709.834	42.7
710.237	43.13
710.641	43.54
711.045	43.92
711.449	44.33
711.853	44.72
712.256	45.06
712.66	45.41
713.064	45.72
713.467	46.01
713.87	46.26
714.274	46.44
714.677	46.65
715.08	46.85
715.484	47.05
715.887	47.26
716.29	47.43
716.693	47.71
717.096	48.01
717.499	48.36
717.901	48.73
718.304	49.12
718.707	49.53
719.109	49.92
719.512	50.27
719.915	50.63
720.317	50.95
720.719	51.24
721.122	51.51
721.524	51.74
721.926	51.97
722.328	52.18
722.731	52.38
723.133	52.59
723.535	52.8
723.937	53.03
724.338	53.25
724.74	53.48
725.142	53.8
725.544	54
725.945	54.26
726.347	54.42
726.748	54.58
727.15	54.75
727.551	54.95
727.952	55.12
728.354	55.31
728.755	55.5
729.156	55.69
729.557	55.81
729.958	56.02
730.359	56.19
730.76	56.42
731.161	56.61
731.562	56.79
731.962	56.93
732.363	57.1
732.763	57.26
733.164	57.37
733.564	57.49
733.965	57.6
734.365	57.69
734.766	57.75
735.166	57.81
735.566	57.88
735.966	57.97
736.366	58.07
736.766	58.1
737.166	58.13
737.566	58.2
737.966	58.23
738.365	58.29
738.765	58.35
739.165	58.43
739.564	58.52
739.964	58.55
740.363	58.58
740.763	58.59
741.162	58.66
741.561	58.72
741.96	58.74
742.36	58.8
742.759	58.84
743.158	58.88
743.557	58.88
743.955	58.89
744.354	58.93
744.753	58.96
745.152	59
745.55	59.02
745.949	59.06
746.348	59.12
746.746	59.1
747.144	59.1
747.543	59.1
747.941	59.12
748.339	59.11
748.737	59.12
749.136	59.14
749.534	59.15
749.932	59.18
750.33	59.19
750.727	59.2
751.125	59.27
751.523	59.28
751.921	59.29
752.318	59.34
752.716	59.38
753.113	59.41
753.511	59.43
753.908	59.46
754.305	59.46
754.703	59.34
755.1	59.1
755.497	58.65
755.894	58.02
756.291	57.26
756.688	56.42
757.085	55.65
757.482	54.95
757.878	54.29
758.275	53.62
758.672	52.96
759.068	52.42
759.465	52.01
759.861	51.84
760.258	51.91
760.654	52.16
761.05	52.52
761.447	52.91
761.843	53.24
762.239	53.59
762.635	54
763.031	54.48
763.427	54.99
763.822	55.55
764.218	56.09
764.614	56.62
765.01	57.06
765.405	57.47
765.801	57.8
766.196	58.15
766.592	58.45
766.987	58.72
767.382	58.9
767.778	59.05
768.173	59.17
768.568	59.25
768.963	59.31
769.358	59.42
769.753	59.5
770.148	59.56
770.542	59.58
770.937	59.61
771.332	59.62
771.726	59.63
772.121	59.64
772.515	59.65
772.91	59.63
773.304	59.66
773.699	59.65
774.093	59.62
774.487	59.61
774.881	59.62
775.275	59.6
775.669	59.55
776.063	59.5
776.457	59.47
776.851	59.43
