Data from N_3_DEC_VA_2N_Splice17_14-19-41-036.txt Node
Date: Sat Mar 07 14:19:41 EST 2020
User: sa697716
Spectrometer: NQ5500242
Trigger mode: 0
Integration Time (sec): 1.450000E-1
Scans to average: 20
Nonlinearity correction enabled: false
Boxcar width: 5
Storing dark spectrum: false
XAxis mode: Wavelengths
Number of Pixels in Spectrum: 512
>>>>>Begin Spectral Data<<<<<
187.83	155.27
188.298	166.71
188.766	148.48
189.233	128.14
189.701	116.62
190.169	114.62
190.636	101.56
191.104	95.29
191.571	-57.86
192.039	26.28
192.506	323.95
192.974	154.56
193.441	281.27
193.908	144.5
194.375	117.55
194.842	41.18
195.31	78.71
195.777	98.01
196.244	75.58
196.711	83.67
197.177	86.89
197.644	87.73
198.111	87.17
198.578	86.83
199.045	87.28
199.511	87.61
199.978	87.89
200.445	87.77
200.911	87.72
201.378	88.22
201.844	88.09
202.31	87.87
202.777	87.82
203.243	87.79
203.709	87.76
204.176	87.22
204.642	86.59
205.108	85.82
205.574	85.38
206.04	84.81
206.506	83.93
206.972	83.41
207.438	82.53
207.903	81.42
208.369	80.02
208.835	78.2
209.301	76.47
209.766	74.33
210.232	72.46
210.697	70.42
211.163	68.7
211.628	67.13
212.094	65.52
212.559	63.98
213.024	62.53
213.49	61.04
213.955	59.81
214.42	58.68
214.885	57.36
215.35	55.6
215.815	52.95
216.28	49.57
216.745	45.71
217.21	41.95
217.675	38.46
218.14	35.36
218.604	32.63
219.069	30.34
219.534	28.33
219.998	26.73
220.463	25.42
220.927	24.23
221.392	23.31
221.856	22.55
222.32	21.89
222.785	21.31
223.249	20.79
223.713	20.34
224.177	19.91
224.642	19.53
225.106	19.09
225.57	18.66
226.034	18.34
226.497	18.02
226.961	17.7
227.425	17.41
227.889	17.12
228.353	16.84
228.816	16.58
229.28	16.31
229.744	16.07
230.207	15.86
230.671	15.65
231.134	15.42
231.597	15.22
232.061	15.01
232.524	14.81
232.987	14.62
233.45	14.43
233.914	14.23
234.377	14.04
234.84	13.86
235.303	13.7
235.766	13.55
236.229	13.41
236.691	13.27
237.154	13.13
237.617	13
238.08	12.86
238.542	12.74
239.005	12.63
239.468	12.53
239.93	12.42
240.393	12.3
240.855	12.16
241.317	12.03
241.78	11.91
242.242	11.78
242.704	11.67
243.166	11.55
243.629	11.44
244.091	11.31
244.553	11.2
245.015	11.1
245.477	10.99
245.939	10.89
246.4	10.8
246.862	10.7
247.324	10.62
247.786	10.51
248.247	10.43
248.709	10.32
249.17	10.23
249.632	10.14
250.093	10.05
250.555	9.97
251.016	9.9
251.477	9.81
251.939	9.74
252.4	9.67
252.861	9.6
253.322	9.54
253.783	9.49
254.244	9.44
254.705	9.38
255.166	9.33
255.627	9.28
256.088	9.23
256.549	9.18
257.009	9.12
257.47	9.06
257.931	9.01
258.391	8.94
258.852	8.87
259.312	8.81
259.773	8.75
260.233	8.7
260.694	8.64
261.154	8.57
261.614	8.51
262.074	8.45
262.534	8.4
262.994	8.35
263.455	8.31
263.915	8.27
264.374	8.23
264.834	8.2
265.294	8.15
265.754	8.12
266.214	8.09
266.673	8.06
267.133	8.04
267.593	8.02
268.052	7.99
268.512	7.97
268.971	7.94
269.431	7.91
269.89	7.89
270.349	7.87
270.809	7.84
271.268	7.82
271.727	7.8
272.186	7.78
272.645	7.76
273.104	7.74
273.563	7.71
274.022	7.69
274.481	7.68
274.94	7.66
275.399	7.63
275.857	7.62
276.316	7.6
276.775	7.58
277.233	7.57
277.692	7.55
278.15	7.54
278.609	7.53
279.067	7.51
279.525	7.5
279.984	7.48
280.442	7.47
280.9	7.46
281.358	7.45
281.816	7.44
282.274	7.42
282.732	7.42
283.19	7.4
283.648	7.39
284.106	7.38
284.564	7.37
285.021	7.37
285.479	7.35
285.937	7.34
286.394	7.32
286.852	7.31
287.309	7.3
287.767	7.26
288.224	7.24
288.682	7.22
289.139	7.18
289.596	7.16
290.053	7.12
290.511	7.08
290.968	7.05
291.425	7.03
291.882	6.99
292.339	6.97
292.796	6.95
293.252	6.93
293.709	6.91
294.166	6.89
294.623	6.86
295.079	6.85
295.536	6.83
295.992	6.8
296.449	6.78
296.905	6.77
297.362	6.75
297.818	6.73
298.274	6.72
298.731	6.7
299.187	6.68
299.643	6.66
300.099	6.64
300.555	6.63
301.011	6.61
301.467	6.6
301.923	6.58
302.379	6.57
302.835	6.57
303.291	6.57
303.746	6.56
304.202	6.56
304.658	6.56
305.113	6.56
305.569	6.56
306.024	6.56
306.479	6.56
306.935	6.55
307.39	6.55
307.845	6.55
308.301	6.55
308.756	6.54
309.211	6.53
309.666	6.54
310.121	6.54
310.576	6.54
311.031	6.55
311.486	6.55
311.94	6.56
312.395	6.55
312.85	6.55
313.305	6.54
313.759	6.54
314.214	6.54
314.668	6.53
315.123	6.51
315.577	6.51
316.032	6.49
316.486	6.47
316.94	6.45
317.394	6.43
317.849	6.41
318.303	6.39
318.757	6.36
319.211	6.34
319.665	6.31
320.119	6.29
320.572	6.27
321.026	6.26
321.48	6.24
321.934	6.21
322.387	6.19
322.841	6.18
323.295	6.18
323.748	6.17
324.202	6.16
324.655	6.16
325.108	6.15
325.562	6.14
326.015	6.13
326.468	6.13
326.921	6.12
327.374	6.13
327.827	6.13
328.28	6.12
328.733	6.11
329.186	6.11
329.639	6.11
330.092	6.1
330.545	6.1
330.997	6.1
331.45	6.11
331.903	6.11
332.355	6.12
332.808	6.11
333.26	6.11
333.713	6.11
334.165	6.12
334.617	6.13
335.069	6.13
335.522	6.13
335.974	6.14
336.426	6.13
336.878	6.12
337.33	6.12
337.782	6.13
338.234	6.13
338.686	6.12
339.137	6.12
339.589	6.1
340.041	6.1
340.493	6.08
340.944	6.06
341.396	6.05
341.847	6.04
342.299	6.02
342.75	5.99
343.201	5.97
343.653	5.96
344.104	5.94
344.555	5.92
345.006	5.89
345.457	5.87
345.908	5.85
346.359	5.85
346.81	5.84
347.261	5.82
347.712	5.82
348.163	5.8
348.613	5.79
349.064	5.77
349.515	5.77
349.965	5.76
350.416	5.76
350.866	5.76
351.317	5.74
351.767	5.74
352.217	5.74
352.668	5.74
353.118	5.75
353.568	5.74
354.018	5.75
354.468	5.76
354.918	5.76
355.368	5.76
355.818	5.77
356.268	5.78
356.718	5.78
357.168	5.77
357.617	5.77
358.067	5.77
358.517	5.79
358.966	5.79
359.416	5.79
359.865	5.79
360.315	5.8
360.764	5.8
361.213	5.8
361.663	5.79
362.112	5.8
362.561	5.81
363.01	5.8
363.459	5.78
363.908	5.76
364.357	5.75
364.806	5.74
365.255	5.74
365.703	5.74
366.152	5.74
366.601	5.74
367.05	5.73
367.498	5.72
367.947	5.72
368.395	5.73
368.844	5.73
369.292	5.73
369.74	5.74
370.189	5.72
370.637	5.71
371.085	5.7
371.533	5.69
371.981	5.69
372.429	5.68
372.877	5.68
373.325	5.68
373.773	5.68
374.221	5.67
374.669	5.65
375.116	5.66
375.564	5.65
376.012	5.66
376.459	5.66
376.907	5.67
377.354	5.67
377.801	5.66
378.249	5.66
378.696	5.67
379.143	5.68
379.591	5.68
380.038	5.69
380.485	5.69
380.932	5.69
381.379	5.7
381.826	5.69
382.273	5.7
382.72	5.69
383.166	5.69
383.613	5.69
384.06	5.68
384.506	5.68
384.953	5.68
385.4	5.69
385.846	5.7
386.292	5.7
386.739	5.71
387.185	5.72
387.631	5.73
388.078	5.74
388.524	5.75
388.97	5.76
389.416	5.77
389.862	5.79
390.308	5.81
390.754	5.82
391.2	5.84
391.645	5.87
392.091	5.9
392.537	5.94
392.983	5.96
393.428	5.98
393.874	6.02
394.319	6.04
394.765	6.06
395.21	6.07
395.655	6.1
396.101	6.13
396.546	6.14
396.991	6.17
397.436	6.19
397.881	6.23
398.326	6.27
398.771	6.31
399.216	6.34
399.661	6.38
400.106	6.41
400.551	6.42
400.995	6.43
401.44	6.44
401.885	6.44
402.329	6.45
402.774	6.47
403.218	6.5
403.663	6.52
404.107	6.54
404.551	6.56
404.995	6.57
405.44	6.58
405.884	6.62
406.328	6.64
406.772	6.67
407.216	6.68
407.66	6.69
408.104	6.68
408.547	6.68
408.991	6.69
409.435	6.69
409.879	6.72
410.322	6.74
410.766	6.77
411.209	6.81
411.653	6.83
412.096	6.86
412.54	6.89
412.983	6.91
413.426	6.98
413.869	7.01
414.312	7.06
414.756	7.09
415.199	7.11
415.642	7.12
416.085	7.14
416.527	7.14
416.97	7.14
417.413	7.15
417.856	7.15
418.298	7.13
418.741	7.12
419.184	7.11
419.626	7.12
420.069	7.12
420.511	7.13
420.953	7.13
421.396	7.15
421.838	7.17
422.28	7.18
422.722	7.21
423.164	7.22
423.606	7.24
424.048	7.25
424.49	7.25
424.932	7.27
425.374	7.25
425.816	7.23
426.258	7.19
426.699	7.15
427.141	7.14
427.582	7.14
428.024	7.15
428.465	7.15
428.907	7.14
429.348	7.13
429.789	7.12
430.231	7.16
430.672	7.19
431.113	7.24
431.554	7.28
431.995	7.31
432.436	7.3
432.877	7.3
433.318	7.33
433.759	7.36
434.2	7.38
434.64	7.42
435.081	7.43
435.522	7.46
435.962	7.48
436.403	7.51
436.843	7.52
437.284	7.52
437.724	7.55
438.164	7.54
438.604	7.56
439.045	7.59
439.485	7.59
439.925	7.59
440.365	7.6
440.805	7.59
441.245	7.61
441.685	7.65
442.125	7.68
442.564	7.7
443.004	7.73
443.444	7.75
443.883	7.75
444.323	7.76
444.762	7.8
445.202	7.8
445.641	7.82
446.081	7.84
446.52	7.84
446.959	7.88
447.398	7.9
447.837	7.91
448.276	7.93
448.716	7.95
449.154	7.96
449.593	7.98
450.032	8
450.471	8
450.91	7.99
451.349	8
451.787	7.99
452.226	7.98
452.664	7.96
453.103	7.94
453.541	7.92
453.98	7.92
454.418	7.87
454.856	7.85
455.295	7.84
455.733	7.8
456.171	7.76
456.609	7.74
457.047	7.71
457.485	7.7
457.923	7.68
458.361	7.66
458.798	7.65
459.236	7.64
459.674	7.62
460.111	7.6
460.549	7.61
460.987	7.63
461.424	7.62
461.862	7.63
462.299	7.63
462.736	7.62
463.173	7.63
463.611	7.62
464.048	7.62
464.485	7.61
464.922	7.62
465.359	7.62
465.796	7.62
466.233	7.63
466.67	7.63
467.106	7.64
467.543	7.63
467.98	7.63
468.416	7.64
468.853	7.65
469.29	7.65
469.726	7.65
470.162	7.65
470.599	7.65
471.035	7.63
471.471	7.62
471.907	7.61
472.344	7.61
472.78	7.6
473.216	7.59
473.652	7.58
474.088	7.56
474.523	7.56
474.959	7.55
475.395	7.53
475.831	7.53
476.266	7.53
476.702	7.51
477.138	7.5
477.573	7.49
478.008	7.49
478.444	7.47
478.879	7.47
479.314	7.45
479.75	7.43
480.185	7.42
480.62	7.4
481.055	7.39
481.49	7.38
481.925	7.37
482.36	7.36
482.795	7.35
483.229	7.34
483.664	7.35
484.099	7.34
484.534	7.34
484.968	7.35
485.403	7.35
485.837	7.36
486.271	7.38
486.706	7.38
487.14	7.39
487.574	7.4
488.009	7.42
488.443	7.42
488.877	7.44
489.311	7.46
489.745	7.48
490.179	7.52
490.613	7.55
491.046	7.58
491.48	7.62
491.914	7.66
492.348	7.71
492.781	7.76
493.215	7.81
493.648	7.87
494.082	7.93
494.515	7.99
494.948	8.04
495.382	8.11
495.815	8.18
496.248	8.25
496.681	8.33
497.114	8.41
497.547	8.48
497.98	8.57
498.413	8.65
498.846	8.75
499.279	8.84
499.711	8.95
500.144	9.06
500.577	9.17
501.009	9.29
501.442	9.41
501.874	9.54
502.306	9.68
502.739	9.84
503.171	10
503.603	10.15
504.036	10.32
504.468	10.48
504.9	10.64
505.332	10.82
505.764	11
506.196	11.2
506.627	11.4
507.059	11.61
507.491	11.82
507.923	12.04
508.354	12.28
508.786	12.52
509.217	12.77
509.649	13.03
510.08	13.28
510.512	13.55
510.943	13.82
511.374	14.11
511.805	14.39
512.237	14.68
512.668	14.98
513.099	15.27
513.53	15.57
513.961	15.88
514.391	16.2
514.822	16.52
515.253	16.84
515.684	17.16
516.114	17.48
516.545	17.79
516.975	18.12
517.406	18.44
517.836	18.78
518.267	19.11
518.697	19.44
519.127	19.75
519.558	20.07
519.988	20.41
520.418	20.73
520.848	21.06
521.278	21.39
521.708	21.78
522.138	22.08
522.567	22.37
522.997	22.66
523.427	22.95
523.857	23.24
524.286	23.5
524.716	23.76
525.145	24.02
525.575	24.26
526.004	24.5
526.433	24.64
526.863	24.85
527.292	25.06
527.721	25.25
528.15	25.44
528.579	25.62
529.008	25.8
529.437	25.97
529.866	26.11
530.295	26.27
530.724	26.4
531.152	26.55
531.581	26.69
532.01	26.82
532.438	26.94
532.867	27.06
533.295	27.16
533.723	27.25
534.152	27.32
534.58	27.42
535.008	27.48
535.436	27.56
535.865	27.62
536.293	27.68
536.721	27.73
537.149	27.79
537.576	27.84
538.004	27.89
538.432	27.93
538.86	27.97
539.287	27.98
539.715	28.02
540.143	28.03
540.57	28.06
540.998	28.09
541.425	28.13
541.852	28.14
542.28	28.17
542.707	28.19
543.134	28.2
543.561	28.24
543.988	28.28
544.415	28.32
544.842	28.36
545.269	28.39
545.696	28.41
546.123	28.42
546.549	28.45
546.976	28.51
547.403	28.54
547.829	28.59
548.256	28.61
548.682	28.64
549.108	28.65
549.535	28.68
549.961	28.71
550.387	28.73
550.813	28.75
551.24	28.77
551.666	28.75
552.092	28.73
552.518	28.72
552.943	28.7
553.369	28.68
553.795	28.65
554.221	28.61
554.646	28.56
555.072	28.53
555.498	28.49
555.923	28.41
556.349	28.34
556.774	28.28
557.199	28.22
557.625	28.14
558.05	28.05
558.475	27.98
558.9	27.89
559.325	27.82
559.75	27.72
560.175	27.61
560.6	27.5
561.025	27.39
561.449	27.28
561.874	27.12
562.299	26.99
562.723	26.86
563.148	26.7
563.572	26.53
563.997	26.36
564.421	26.17
564.846	25.99
565.27	25.82
565.694	25.65
566.118	25.45
566.542	25.29
566.966	25.09
567.39	24.89
567.814	24.7
568.238	24.51
568.662	24.31
569.086	24.13
569.509	23.94
569.933	23.75
570.357	23.54
570.78	23.35
571.204	23.17
571.627	23.01
572.05	22.82
572.474	22.66
572.897	22.5
573.32	22.35
573.743	22.2
574.166	22.05
574.589	21.9
575.012	21.78
575.435	21.65
575.858	21.5
576.281	21.36
576.704	21.24
577.126	21.11
577.549	21
577.972	20.87
578.394	20.76
578.817	20.65
579.239	20.55
579.661	20.45
580.084	20.35
580.506	20.26
580.928	20.19
581.35	20.09
581.772	19.99
582.194	19.89
582.616	19.81
583.038	19.73
583.46	19.64
583.882	19.56
584.303	19.48
584.725	19.42
585.147	19.34
585.568	19.25
585.99	19.18
586.411	19.11
586.833	19.05
587.254	18.97
587.675	18.91
588.096	18.85
588.518	18.79
588.939	18.74
589.36	18.67
589.781	18.62
590.202	18.57
590.623	18.52
591.043	18.47
591.464	18.43
591.885	18.38
592.305	18.33
592.726	18.29
593.147	18.24
593.567	18.2
593.987	18.15
594.408	18.09
594.828	18.04
595.248	18.01
595.669	17.98
596.089	17.94
596.509	17.91
596.929	17.88
597.349	17.82
597.769	17.78
598.189	17.72
598.608	17.69
599.028	17.66
599.448	17.62
599.867	17.57
600.287	17.53
600.706	17.47
601.126	17.41
601.545	17.36
601.965	17.31
602.384	17.24
602.803	17.19
603.222	17.11
603.641	17.05
604.061	16.98
604.48	16.91
604.898	16.82
605.317	16.75
605.736	16.68
606.155	16.62
606.574	16.54
606.992	16.46
607.411	16.38
607.829	16.28
608.248	16.19
608.666	16.11
609.085	16.03
609.503	15.95
609.921	15.87
610.339	15.77
610.758	15.68
611.176	15.59
611.594	15.51
612.012	15.44
612.43	15.37
612.847	15.3
613.265	15.22
613.683	15.14
614.101	15.06
614.518	14.98
614.936	14.91
615.353	14.83
615.771	14.77
616.188	14.69
616.606	14.62
617.023	14.56
617.44	14.51
617.857	14.45
618.274	14.39
618.691	14.34
619.108	14.29
619.525	14.24
619.942	14.2
620.359	14.15
620.776	14.1
621.192	14.07
621.609	14.03
622.026	13.99
622.442	13.97
622.859	13.94
623.275	13.91
623.691	13.89
624.108	13.88
624.524	13.85
624.94	13.84
625.356	13.83
625.772	13.82
626.188	13.81
626.604	13.8
627.02	13.77
627.436	13.75
627.852	13.74
628.268	13.72
628.683	13.7
629.099	13.69
629.514	13.68
629.93	13.65
630.345	13.6
630.761	13.56
631.176	13.52
631.591	13.47
632.007	13.42
632.422	13.36
632.837	13.3
633.252	13.22
633.667	13.14
634.082	13.05
634.497	12.97
634.911	12.88
635.326	12.79
635.741	12.69
636.155	12.59
636.57	12.49
636.984	12.38
637.399	12.26
637.813	12.13
638.228	12
638.642	11.88
639.056	11.74
639.47	11.62
639.884	11.5
640.298	11.37
640.712	11.24
641.126	11.12
641.54	10.98
641.954	10.86
642.368	10.74
642.781	10.63
643.195	10.53
643.609	10.43
644.022	10.32
644.436	10.22
644.849	10.11
645.262	10.01
645.676	9.93
646.089	9.86
646.502	9.79
646.915	9.73
647.328	9.67
647.741	9.6
648.154	9.53
648.567	9.48
648.98	9.44
649.393	9.4
649.805	9.36
650.218	9.32
650.631	9.29
651.043	9.25
651.456	9.21
651.868	9.17
652.28	9.14
652.693	9.11
653.105	9.07
653.517	9.02
653.929	8.98
654.341	8.94
654.753	8.89
655.165	8.83
655.577	8.77
655.989	8.71
656.401	8.65
656.813	8.59
657.224	8.51
657.636	8.43
658.047	8.37
658.459	8.29
658.87	8.22
659.282	8.14
659.693	8.07
660.104	8
660.515	7.93
660.926	7.86
661.338	7.79
661.749	7.73
662.159	7.67
662.57	7.61
662.981	7.56
663.392	7.5
663.803	7.45
664.213	7.41
664.624	7.35
665.035	7.31
665.445	7.27
665.855	7.23
666.266	7.21
666.676	7.19
667.086	7.15
667.497	7.14
667.907	7.12
668.317	7.1
668.727	7.09
669.137	7.08
669.547	7.09
669.956	7.08
670.366	7.09
670.776	7.08
671.186	7.09
671.595	7.1
672.005	7.1
672.414	7.12
672.824	7.13
673.233	7.15
673.642	7.17
674.052	7.19
674.461	7.22
674.87	7.24
675.279	7.28
675.688	7.31
676.097	7.35
676.506	7.39
676.915	7.42
677.323	7.46
677.732	7.51
678.141	7.56
678.549	7.6
678.958	7.65
679.366	7.71
679.775	7.76
680.183	7.82
680.592	7.9
681	8
681.408	8.1
681.816	8.2
682.224	8.3
682.632	8.43
683.04	8.57
683.448	8.72
683.856	8.87
684.264	9.06
684.671	9.27
685.079	9.48
685.487	9.73
685.894	9.99
686.302	10.28
686.709	10.59
687.116	10.92
687.524	11.28
687.931	11.69
688.338	12.12
688.745	12.57
689.152	13.05
689.559	13.56
689.966	14.08
690.373	14.63
690.78	15.21
691.187	15.8
691.593	16.42
692	17.06
692.407	17.67
692.813	18.33
693.22	18.99
693.626	19.65
694.032	20.32
694.439	21
694.845	21.69
695.251	22.39
695.657	23.09
696.063	23.78
696.469	24.47
696.875	25.2
697.281	25.9
697.687	26.6
698.093	27.3
698.498	27.97
698.904	28.67
699.31	29.34
699.715	30.01
700.12	30.66
700.526	31.31
700.931	31.95
701.337	32.56
701.742	33.15
702.147	33.74
702.552	34.33
702.957	34.89
703.362	35.43
703.767	35.98
704.172	36.53
704.577	37.06
704.981	37.6
705.386	38.11
705.791	38.63
706.195	39.14
706.6	39.65
707.004	40.13
707.408	40.66
707.813	41.16
708.217	41.61
708.621	42.08
709.025	42.52
709.43	42.92
709.834	43.38
710.237	43.79
710.641	44.2
711.045	44.63
711.449	45.06
711.853	45.46
712.256	45.85
712.66	46.25
713.064	46.63
713.467	47.01
713.87	47.41
714.274	47.75
714.677	48.16
715.08	48.5
715.484	48.87
715.887	49.21
716.29	49.54
716.693	49.86
717.096	50.2
717.499	50.54
717.901	50.87
718.304	51.18
718.707	51.49
719.109	51.78
719.512	52.11
719.915	52.38
720.317	52.64
720.719	52.89
721.122	53.18
721.524	53.44
721.926	53.69
722.328	53.95
722.731	54.18
723.133	54.44
723.535	54.64
723.937	54.86
724.338	55.06
724.74	55.27
725.142	55.51
725.544	55.68
725.945	55.88
726.347	56.02
726.748	56.17
727.15	56.32
727.551	56.46
727.952	56.62
728.354	56.76
728.755	56.9
729.156	57.05
729.557	57.14
729.958	57.25
730.359	57.38
730.76	57.52
731.161	57.64
731.562	57.78
731.962	57.88
732.363	58
732.763	58.1
733.164	58.2
733.564	58.28
733.965	58.38
734.365	58.49
734.766	58.57
735.166	58.65
735.566	58.72
735.966	58.8
736.366	58.88
736.766	58.95
737.166	59.04
737.566	59.1
737.966	59.16
738.365	59.22
738.765	59.25
739.165	59.3
739.564	59.37
739.964	59.43
740.363	59.46
740.763	59.51
741.162	59.55
741.561	59.57
741.96	59.6
742.36	59.65
742.759	59.68
743.158	59.71
743.557	59.72
743.955	59.76
744.354	59.8
744.753	59.87
745.152	59.93
745.55	59.97
745.949	60.01
746.348	60.06
746.746	60.1
747.144	60.16
747.543	60.2
747.941	60.28
748.339	60.28
748.737	60.31
749.136	60.31
749.534	60.3
749.932	60.33
750.33	60.33
750.727	60.36
751.125	60.36
751.523	60.38
751.921	60.4
752.318	60.37
752.716	60.36
753.113	60.34
753.511	60.32
753.908	60.34
754.305	60.32
754.703	60.32
755.1	60.28
755.497	60.27
755.894	60.25
756.291	60.22
756.688	60.2
757.085	60.2
757.482	60.19
757.878	60.17
758.275	60.15
758.672	60.15
759.068	60.16
759.465	60.17
759.861	60.19
760.258	60.2
760.654	60.19
761.05	60.22
761.447	60.25
761.843	60.25
762.239	60.27
762.635	60.25
763.031	60.23
763.427	60.21
763.822	60.21
764.218	60.22
764.614	60.23
765.01	60.25
765.405	60.26
765.801	60.22
766.196	60.24
766.592	60.22
766.987	60.24
767.382	60.25
767.778	60.26
768.173	60.26
768.568	60.22
768.963	60.22
769.358	60.23
769.753	60.2
770.148	60.2
770.542	60.2
770.937	60.22
771.332	60.2
771.726	60.19
772.121	60.17
772.515	60.17
772.91	60.16
773.304	60.17
773.699	60.19
774.093	60.19
774.487	60.19
774.881	60.2
775.275	60.19
775.669	60.23
776.063	60.25
776.457	60.26
776.851	60.24
777.245	60.24
777.638	60.23
778.032	60.2
778.425	60.24
778.819	60.21
779.212	60.2
779.606	60.22
779.999	60.22
780.392	60.23
