Data from N_3_DIV_PA_2N_Splice17_14-11-33-180.txt Node
Date: Sat Mar 07 14:11:33 EST 2020
User: sa697716
Spectrometer: NQ5500242
Trigger mode: 0
Integration Time (sec): 1.450000E-1
Scans to average: 20
Nonlinearity correction enabled: false
Boxcar width: 5
Storing dark spectrum: false
XAxis mode: Wavelengths
Number of Pixels in Spectrum: 512
>>>>>Begin Spectral Data<<<<<
187.83	127.13
188.298	144.64
188.766	125.87
189.233	105.13
189.701	90.29
190.169	110.99
190.636	110.99
191.104	99.83
191.571	93.46
192.039	-42.04
192.506	-529.43
192.974	202.12
193.441	368.02
193.908	175.22
194.375	90.69
194.842	4.97
195.31	62.37
195.777	-1.07
196.244	47.59
196.711	63.69
197.177	65.77
197.644	65.16
198.111	64.98
198.578	65.26
199.045	65.66
199.511	66.03
199.978	65.97
200.445	65.91
200.911	66.22
201.378	66.69
201.844	66.71
202.31	66.54
202.777	66.79
203.243	67.1
203.709	66.83
204.176	66.34
204.642	66.01
205.108	66.19
205.574	66.21
206.04	65.62
206.506	65.13
206.972	64.61
207.438	64.24
207.903	63.54
208.369	62.49
208.835	61.76
209.301	60.84
209.766	59.6
210.232	58.21
210.697	57
211.163	56
211.628	54.7
212.094	53.45
212.559	52.34
213.024	51.35
213.49	50.36
213.955	49.2
214.42	48.38
214.885	47.36
215.35	46.1
215.815	44.26
216.28	42.08
216.745	39.94
217.21	37.65
217.675	35.46
218.14	33.52
218.604	31.82
219.069	30.45
219.534	29.22
219.998	28.13
220.463	27.26
220.927	26.45
221.392	25.77
221.856	25.17
222.32	24.66
222.785	24.2
223.249	23.79
223.713	23.38
224.177	22.99
224.642	22.64
225.106	22.3
225.57	21.96
226.034	21.63
226.497	21.34
226.961	21.02
227.425	20.74
227.889	20.46
228.353	20.14
228.816	19.88
229.28	19.61
229.744	19.33
230.207	19.07
230.671	18.81
231.134	18.58
231.597	18.33
232.061	18.11
232.524	17.88
232.987	17.67
233.45	17.47
233.914	17.25
234.377	17.04
234.84	16.85
235.303	16.66
235.766	16.48
236.229	16.28
236.691	16.11
237.154	15.94
237.617	15.78
238.08	15.6
238.542	15.43
239.005	15.29
239.468	15.12
239.93	14.96
240.393	14.83
240.855	14.66
241.317	14.52
241.78	14.37
242.242	14.2
242.704	14.07
243.166	13.93
243.629	13.8
244.091	13.65
244.553	13.52
245.015	13.39
245.477	13.26
245.939	13.13
246.4	13.01
246.862	12.88
247.324	12.77
247.786	12.64
248.247	12.53
248.709	12.4
249.17	12.27
249.632	12.17
250.093	12.07
250.555	11.96
251.016	11.86
251.477	11.75
251.939	11.67
252.4	11.58
252.861	11.49
253.322	11.4
253.783	11.33
254.244	11.26
254.705	11.17
255.166	11.09
255.627	11.02
256.088	10.95
256.549	10.88
257.009	10.79
257.47	10.71
257.931	10.63
258.391	10.56
258.852	10.47
259.312	10.39
259.773	10.32
260.233	10.26
260.694	10.18
261.154	10.11
261.614	10.04
262.074	9.98
262.534	9.91
262.994	9.86
263.455	9.8
263.915	9.75
264.374	9.7
264.834	9.65
265.294	9.6
265.754	9.56
266.214	9.52
266.673	9.48
267.133	9.44
267.593	9.41
268.052	9.37
268.512	9.33
268.971	9.29
269.431	9.26
269.89	9.23
270.349	9.2
270.809	9.17
271.268	9.14
271.727	9.11
272.186	9.08
272.645	9.05
273.104	9.02
273.563	8.99
274.022	8.96
274.481	8.93
274.94	8.9
275.399	8.87
275.857	8.83
276.316	8.79
276.775	8.76
277.233	8.73
277.692	8.69
278.15	8.67
278.609	8.63
279.067	8.61
279.525	8.57
279.984	8.54
280.442	8.51
280.9	8.48
281.358	8.46
281.816	8.44
282.274	8.4
282.732	8.38
283.19	8.36
283.648	8.33
284.106	8.29
284.564	8.27
285.021	8.26
285.479	8.23
285.937	8.2
286.394	8.18
286.852	8.15
287.309	8.13
287.767	8.09
288.224	8.05
288.682	8.02
289.139	7.99
289.596	7.95
290.053	7.9
290.511	7.87
290.968	7.84
291.425	7.8
291.882	7.77
292.339	7.72
292.796	7.69
293.252	7.66
293.709	7.63
294.166	7.6
294.623	7.57
295.079	7.54
295.536	7.51
295.992	7.49
296.449	7.46
296.905	7.43
297.362	7.41
297.818	7.39
298.274	7.36
298.731	7.34
299.187	7.31
299.643	7.29
300.099	7.27
300.555	7.24
301.011	7.22
301.467	7.2
301.923	7.16
302.379	7.15
302.835	7.13
303.291	7.11
303.746	7.09
304.202	7.07
304.658	7.05
305.113	7.03
305.569	7.01
306.024	6.99
306.479	6.97
306.935	6.96
307.39	6.95
307.845	6.94
308.301	6.92
308.756	6.91
309.211	6.9
309.666	6.89
310.121	6.88
310.576	6.87
311.031	6.86
311.486	6.86
311.94	6.85
312.395	6.84
312.85	6.83
313.305	6.82
313.759	6.81
314.214	6.8
314.668	6.78
315.123	6.76
315.577	6.75
316.032	6.73
316.486	6.71
316.94	6.69
317.394	6.66
317.849	6.64
318.303	6.61
318.757	6.57
319.211	6.55
319.665	6.52
320.119	6.5
320.572	6.47
321.026	6.44
321.48	6.42
321.934	6.4
322.387	6.38
322.841	6.36
323.295	6.35
323.748	6.34
324.202	6.32
324.655	6.31
325.108	6.29
325.562	6.28
326.015	6.27
326.468	6.26
326.921	6.24
327.374	6.23
327.827	6.23
328.28	6.21
328.733	6.19
329.186	6.18
329.639	6.17
330.092	6.16
330.545	6.15
330.997	6.14
331.45	6.14
331.903	6.14
332.355	6.14
332.808	6.13
333.26	6.12
333.713	6.12
334.165	6.12
334.617	6.13
335.069	6.12
335.522	6.13
335.974	6.13
336.426	6.12
336.878	6.11
337.33	6.11
337.782	6.1
338.234	6.11
338.686	6.1
339.137	6.1
339.589	6.08
340.041	6.07
340.493	6.05
340.944	6.02
341.396	6
341.847	5.98
342.299	5.95
342.75	5.93
343.201	5.91
343.653	5.89
344.104	5.85
344.555	5.83
345.006	5.8
345.457	5.79
345.908	5.78
346.359	5.76
346.81	5.75
347.261	5.73
347.712	5.72
348.163	5.7
348.613	5.69
349.064	5.69
349.515	5.68
349.965	5.68
350.416	5.66
350.866	5.65
351.317	5.64
351.767	5.63
352.217	5.63
352.668	5.62
353.118	5.61
353.568	5.61
354.018	5.61
354.468	5.61
354.918	5.61
355.368	5.61
355.818	5.61
356.268	5.61
356.718	5.6
357.168	5.6
357.617	5.6
358.067	5.6
358.517	5.6
358.966	5.59
359.416	5.58
359.865	5.57
360.315	5.58
360.764	5.57
361.213	5.57
361.663	5.57
362.112	5.57
362.561	5.56
363.01	5.56
363.459	5.55
363.908	5.54
364.357	5.54
364.806	5.53
365.255	5.52
365.703	5.52
366.152	5.52
366.601	5.51
367.05	5.51
367.498	5.5
367.947	5.49
368.395	5.49
368.844	5.49
369.292	5.48
369.74	5.48
370.189	5.46
370.637	5.45
371.085	5.43
371.533	5.43
371.981	5.42
372.429	5.42
372.877	5.41
373.325	5.4
373.773	5.39
374.221	5.38
374.669	5.37
375.116	5.36
375.564	5.35
376.012	5.35
376.459	5.35
376.907	5.35
377.354	5.34
377.801	5.34
378.249	5.34
378.696	5.34
379.143	5.34
379.591	5.35
380.038	5.35
380.485	5.35
380.932	5.35
381.379	5.35
381.826	5.34
382.273	5.34
382.72	5.33
383.166	5.32
383.613	5.32
384.06	5.3
384.506	5.29
384.953	5.3
385.4	5.3
385.846	5.3
386.292	5.3
386.739	5.31
387.185	5.31
387.631	5.32
388.078	5.33
388.524	5.33
388.97	5.34
389.416	5.35
389.862	5.36
390.308	5.37
390.754	5.38
391.2	5.4
391.645	5.41
392.091	5.44
392.537	5.46
392.983	5.46
393.428	5.49
393.874	5.52
394.319	5.54
394.765	5.55
395.21	5.56
395.655	5.56
396.101	5.58
396.546	5.6
396.991	5.62
397.436	5.63
397.881	5.67
398.326	5.69
398.771	5.71
399.216	5.74
399.661	5.77
400.106	5.8
400.551	5.82
400.995	5.82
401.44	5.84
401.885	5.85
402.329	5.87
402.774	5.88
403.218	5.9
403.663	5.93
404.107	5.94
404.551	5.95
404.995	5.96
405.44	5.98
405.884	6.01
406.328	6.03
406.772	6.04
407.216	6.06
407.66	6.07
408.104	6.07
408.547	6.09
408.991	6.1
409.435	6.11
409.879	6.13
410.322	6.14
410.766	6.16
411.209	6.19
411.653	6.22
412.096	6.23
412.54	6.25
412.983	6.27
413.426	6.3
413.869	6.32
414.312	6.36
414.756	6.39
415.199	6.42
415.642	6.44
416.085	6.45
416.527	6.44
416.97	6.44
417.413	6.44
417.856	6.44
418.298	6.44
418.741	6.44
419.184	6.44
419.626	6.44
420.069	6.44
420.511	6.44
420.953	6.44
421.396	6.46
421.838	6.47
422.28	6.48
422.722	6.51
423.164	6.51
423.606	6.53
424.048	6.54
424.49	6.55
424.932	6.56
425.374	6.55
425.816	6.54
426.258	6.51
426.699	6.5
427.141	6.48
427.582	6.48
428.024	6.49
428.465	6.49
428.907	6.48
429.348	6.47
429.789	6.47
430.231	6.48
430.672	6.5
431.113	6.53
431.554	6.56
431.995	6.58
432.436	6.58
432.877	6.59
433.318	6.6
433.759	6.62
434.2	6.64
434.64	6.65
435.081	6.66
435.522	6.67
435.962	6.69
436.403	6.72
436.843	6.74
437.284	6.76
437.724	6.76
438.164	6.77
438.604	6.79
439.045	6.78
439.485	6.79
439.925	6.8
440.365	6.81
440.805	6.81
441.245	6.82
441.685	6.84
442.125	6.87
442.564	6.88
443.004	6.87
443.444	6.88
443.883	6.91
444.323	6.93
444.762	6.95
445.202	6.97
445.641	6.99
446.081	7.02
446.52	7.02
446.959	7.05
447.398	7.08
447.837	7.12
448.276	7.15
448.716	7.17
449.154	7.21
449.593	7.23
450.032	7.24
450.471	7.26
450.91	7.27
451.349	7.28
451.787	7.27
452.226	7.26
452.664	7.26
453.103	7.25
453.541	7.25
453.98	7.24
454.418	7.22
454.856	7.2
455.295	7.18
455.733	7.14
456.171	7.13
456.609	7.11
457.047	7.08
457.485	7.06
457.923	7.05
458.361	7.02
458.798	7.01
459.236	7
459.674	6.99
460.111	6.98
460.549	6.99
460.987	6.99
461.424	7
461.862	7.01
462.299	7.02
462.736	7.01
463.173	7.02
463.611	7.02
464.048	7.03
464.485	7.03
464.922	7.03
465.359	7.03
465.796	7.04
466.233	7.03
466.67	7.04
467.106	7.05
467.543	7.04
467.98	7.04
468.416	7.03
468.853	7.05
469.29	7.04
469.726	7.05
470.162	7.04
470.599	7.04
471.035	7.02
471.471	7
471.907	6.99
472.344	7.01
472.78	7.01
473.216	7
473.652	6.99
474.088	6.97
474.523	6.96
474.959	6.97
475.395	6.95
475.831	6.96
476.266	6.97
476.702	6.97
477.138	6.96
477.573	6.95
478.008	6.96
478.444	6.94
478.879	6.95
479.314	6.95
479.75	6.94
480.185	6.92
480.62	6.91
481.055	6.9
481.49	6.9
481.925	6.89
482.36	6.89
482.795	6.88
483.229	6.88
483.664	6.89
484.099	6.89
484.534	6.9
484.968	6.92
485.403	6.93
485.837	6.94
486.271	6.97
486.706	6.99
487.14	7.01
487.574	7.04
488.009	7.06
488.443	7.08
488.877	7.12
489.311	7.16
489.745	7.2
490.179	7.24
490.613	7.28
491.046	7.32
491.48	7.36
491.914	7.42
492.348	7.48
492.781	7.54
493.215	7.62
493.648	7.69
494.082	7.76
494.515	7.83
494.948	7.92
495.382	8
495.815	8.11
496.248	8.21
496.681	8.32
497.114	8.43
497.547	8.54
497.98	8.65
498.413	8.77
498.846	8.9
499.279	9.03
499.711	9.16
500.144	9.32
500.577	9.46
501.009	9.62
501.442	9.78
501.874	9.95
502.306	10.13
502.739	10.32
503.171	10.49
503.603	10.69
504.036	10.89
504.468	11.1
504.9	11.31
505.332	11.54
505.764	11.76
506.196	12
506.627	12.25
507.059	12.51
507.491	12.77
507.923	13.04
508.354	13.32
508.786	13.61
509.217	13.9
509.649	14.2
510.08	14.5
510.512	14.81
510.943	15.12
511.374	15.44
511.805	15.77
512.237	16.09
512.668	16.43
513.099	16.76
513.53	17.1
513.961	17.45
514.391	17.81
514.822	18.16
515.253	18.51
515.684	18.87
516.114	19.23
516.545	19.58
516.975	19.94
517.406	20.29
517.836	20.65
518.267	21.03
518.697	21.38
519.127	21.71
519.558	22.05
519.988	22.39
520.418	22.71
520.848	23.03
521.278	23.36
521.708	23.7
522.138	24.02
522.567	24.33
522.997	24.59
523.427	24.89
523.857	25.17
524.286	25.44
524.716	25.69
525.145	25.94
525.575	26.19
526.004	26.44
526.433	26.65
526.863	26.85
527.292	27.05
527.721	27.26
528.15	27.44
528.579	27.63
529.008	27.82
529.437	27.99
529.866	28.17
530.295	28.33
530.724	28.47
531.152	28.61
531.581	28.75
532.01	28.89
532.438	29.02
532.867	29.12
533.295	29.22
533.723	29.32
534.152	29.42
534.58	29.51
535.008	29.56
535.436	29.64
535.865	29.69
536.293	29.78
536.721	29.84
537.149	29.88
537.576	29.92
538.004	29.99
538.432	30.03
538.86	30.07
539.287	30.1
539.715	30.17
540.143	30.21
540.57	30.24
540.998	30.26
541.425	30.27
541.852	30.31
542.28	30.36
542.707	30.39
543.134	30.42
543.561	30.46
543.988	30.5
544.415	30.52
544.842	30.54
545.269	30.58
545.696	30.61
546.123	30.64
546.549	30.67
546.976	30.71
547.403	30.74
547.829	30.77
548.256	30.79
548.682	30.82
549.108	30.84
549.535	30.89
549.961	30.92
550.387	30.94
550.813	30.98
551.24	30.99
551.666	30.99
552.092	31.01
552.518	31.01
552.943	30.99
553.369	30.97
553.795	30.96
554.221	30.92
554.646	30.89
555.072	30.87
555.498	30.81
555.923	30.77
556.349	30.7
556.774	30.63
557.199	30.56
557.625	30.5
558.05	30.43
558.475	30.35
558.9	30.27
559.325	30.19
559.75	30.07
560.175	29.98
560.6	29.87
561.025	29.78
561.449	29.67
561.874	29.55
562.299	29.41
562.723	29.28
563.148	29.14
563.572	28.99
563.997	28.83
564.421	28.67
564.846	28.51
565.27	28.37
565.694	28.2
566.118	28.03
566.542	27.86
566.966	27.68
567.39	27.49
567.814	27.31
568.238	27.12
568.662	26.93
569.086	26.75
569.509	26.57
569.933	26.37
570.357	26.17
570.78	25.97
571.204	25.78
571.627	25.61
572.05	25.44
572.474	25.28
572.897	25.13
573.32	24.96
573.743	24.81
574.166	24.66
574.589	24.51
575.012	24.38
575.435	24.25
575.858	24.12
576.281	24
576.704	23.87
577.126	23.75
577.549	23.63
577.972	23.53
578.394	23.42
578.817	23.31
579.239	23.22
579.661	23.11
580.084	23.02
580.506	22.94
580.928	22.85
581.35	22.76
581.772	22.67
582.194	22.58
582.616	22.48
583.038	22.38
583.46	22.29
583.882	22.2
584.303	22.1
584.725	22.01
585.147	21.93
585.568	21.85
585.99	21.77
586.411	21.69
586.833	21.61
587.254	21.55
587.675	21.48
588.096	21.43
588.518	21.37
588.939	21.33
589.36	21.28
589.781	21.21
590.202	21.16
590.623	21.11
591.043	21.06
591.464	21.01
591.885	20.96
592.305	20.92
592.726	20.89
593.147	20.84
593.567	20.8
593.987	20.76
594.408	20.73
594.828	20.68
595.248	20.66
595.669	20.62
596.089	20.59
596.509	20.55
596.929	20.51
597.349	20.46
597.769	20.42
598.189	20.38
598.608	20.35
599.028	20.31
599.448	20.27
599.867	20.22
600.287	20.18
600.706	20.11
601.126	20.05
601.545	20
601.965	19.95
602.384	19.88
602.803	19.82
603.222	19.73
603.641	19.65
604.061	19.57
604.48	19.48
604.898	19.4
605.317	19.32
605.736	19.24
606.155	19.14
606.574	19.03
606.992	18.93
607.411	18.83
607.829	18.71
608.248	18.6
608.666	18.5
609.085	18.4
609.503	18.31
609.921	18.21
610.339	18.11
610.758	18.03
611.176	17.94
611.594	17.84
612.012	17.75
612.43	17.67
612.847	17.59
613.265	17.51
613.683	17.41
614.101	17.31
614.518	17.23
614.936	17.14
615.353	17.04
615.771	16.96
616.188	16.87
616.606	16.79
617.023	16.72
617.44	16.65
617.857	16.59
618.274	16.53
618.691	16.46
619.108	16.39
619.525	16.33
619.942	16.29
620.359	16.23
620.776	16.2
621.192	16.15
621.609	16.11
622.026	16.07
622.442	16.03
622.859	16
623.275	15.96
623.691	15.93
624.108	15.91
624.524	15.88
624.94	15.87
625.356	15.84
625.772	15.82
626.188	15.8
626.604	15.78
627.02	15.77
627.436	15.76
627.852	15.75
628.268	15.74
628.683	15.72
629.099	15.71
629.514	15.68
629.93	15.66
630.345	15.62
630.761	15.58
631.176	15.54
631.591	15.48
632.007	15.41
632.422	15.35
632.837	15.3
633.252	15.23
633.667	15.14
634.082	15.05
634.497	14.97
634.911	14.86
635.326	14.76
635.741	14.65
636.155	14.54
636.57	14.43
636.984	14.3
637.399	14.15
637.813	14.02
638.228	13.87
638.642	13.73
639.056	13.58
639.47	13.44
639.884	13.3
640.298	13.14
640.712	12.98
641.126	12.84
641.54	12.68
641.954	12.52
642.368	12.37
642.781	12.22
643.195	12.08
643.609	11.94
644.022	11.8
644.436	11.66
644.849	11.53
645.262	11.41
645.676	11.29
646.089	11.19
646.502	11.1
646.915	11
647.328	10.92
647.741	10.83
648.154	10.75
648.567	10.67
648.98	10.6
649.393	10.55
649.805	10.49
650.218	10.44
650.631	10.38
651.043	10.33
651.456	10.28
651.868	10.23
652.28	10.17
652.693	10.12
653.105	10.07
653.517	10.01
653.929	9.94
654.341	9.86
654.753	9.78
655.165	9.69
655.577	9.61
655.989	9.51
656.401	9.42
656.813	9.33
657.224	9.22
657.636	9.1
658.047	8.99
658.459	8.89
658.87	8.78
659.282	8.65
659.693	8.55
660.104	8.43
660.515	8.31
660.926	8.19
661.338	8.07
661.749	7.96
662.159	7.86
662.57	7.76
662.981	7.65
663.392	7.56
663.803	7.48
664.213	7.39
664.624	7.32
665.035	7.24
665.445	7.18
665.855	7.12
666.266	7.07
666.676	7.03
667.086	6.98
667.497	6.94
667.907	6.91
668.317	6.87
668.727	6.83
669.137	6.81
669.547	6.8
669.956	6.78
670.366	6.76
670.776	6.73
671.186	6.73
671.595	6.73
672.005	6.73
672.414	6.73
672.824	6.73
673.233	6.76
673.642	6.77
674.052	6.77
674.461	6.78
674.87	6.8
675.279	6.83
675.688	6.86
676.097	6.89
676.506	6.91
676.915	6.95
677.323	7
677.732	7.04
678.141	7.11
678.549	7.17
678.958	7.24
679.366	7.33
679.775	7.4
680.183	7.5
680.592	7.61
681	7.73
681.408	7.86
681.816	8
682.224	8.15
682.632	8.32
683.04	8.51
683.448	8.72
683.856	8.94
684.264	9.2
684.671	9.48
685.079	9.79
685.487	10.13
685.894	10.5
686.302	10.89
686.709	11.32
687.116	11.77
687.524	12.26
687.931	12.77
688.338	13.32
688.745	13.88
689.152	14.46
689.559	15.08
689.966	15.71
690.373	16.35
690.78	17.02
691.187	17.7
691.593	18.39
692	19.09
692.407	19.79
692.813	20.51
693.22	21.21
693.626	21.95
694.032	22.66
694.439	23.37
694.845	24.09
695.251	24.8
695.657	25.48
696.063	26.19
696.469	26.88
696.875	27.57
697.281	28.22
697.687	28.89
698.093	29.52
698.498	30.14
698.904	30.78
699.31	31.37
699.715	31.96
700.12	32.54
700.526	33.11
700.931	33.67
701.337	34.21
701.742	34.74
702.147	35.27
702.552	35.77
702.957	36.26
703.362	36.75
703.767	37.22
704.172	37.69
704.577	38.16
704.981	38.6
705.386	39.02
705.791	39.45
706.195	39.88
706.6	40.28
707.004	40.67
707.408	41.08
707.813	41.47
708.217	41.86
708.621	42.24
709.025	42.59
709.43	42.95
709.834	43.29
710.237	43.6
710.641	43.93
711.045	44.25
711.449	44.6
711.853	44.92
712.256	45.21
712.66	45.48
713.064	45.76
713.467	46.02
713.87	46.32
714.274	46.59
714.677	46.87
715.08	47.12
715.484	47.39
715.887	47.65
716.29	47.87
716.693	48.12
717.096	48.38
717.499	48.61
717.901	48.86
718.304	49.06
718.707	49.3
719.109	49.54
719.512	49.76
719.915	49.96
720.317	50.13
720.719	50.32
721.122	50.5
721.524	50.67
721.926	50.86
722.328	51.04
722.731	51.2
723.133	51.37
723.535	51.52
723.937	51.7
724.338	51.83
724.74	51.97
725.142	52.15
725.544	52.29
725.945	52.45
726.347	52.55
726.748	52.67
727.15	52.79
727.551	52.92
727.952	53.01
728.354	53.09
728.755	53.22
729.156	53.32
729.557	53.38
729.958	53.47
730.359	53.55
730.76	53.68
731.161	53.78
731.562	53.91
731.962	53.98
732.363	54.07
732.763	54.16
733.164	54.22
733.564	54.31
733.965	54.38
734.365	54.45
734.766	54.51
735.166	54.54
735.566	54.56
735.966	54.62
736.366	54.67
736.766	54.71
737.166	54.76
737.566	54.81
737.966	54.85
738.365	54.9
738.765	54.97
739.165	54.99
739.564	55.05
739.964	55.1
740.363	55.08
740.763	55.11
741.162	55.13
741.561	55.14
741.96	55.15
742.36	55.16
742.759	55.2
743.158	55.21
743.557	55.2
743.955	55.23
744.354	55.26
744.753	55.31
745.152	55.35
745.55	55.4
745.949	55.45
746.348	55.5
746.746	55.53
747.144	55.55
747.543	55.57
747.941	55.63
748.339	55.63
748.737	55.66
749.136	55.66
749.534	55.65
749.932	55.63
750.33	55.63
750.727	55.63
751.125	55.63
751.523	55.63
751.921	55.64
752.318	55.64
752.716	55.66
753.113	55.65
753.511	55.66
753.908	55.71
754.305	55.73
754.703	55.72
755.1	55.68
755.497	55.68
755.894	55.66
756.291	55.63
756.688	55.61
757.085	55.61
757.482	55.59
757.878	55.59
758.275	55.55
758.672	55.54
759.068	55.57
759.465	55.58
759.861	55.58
760.258	55.6
760.654	55.61
761.05	55.61
761.447	55.59
761.843	55.61
762.239	55.59
762.635	55.59
763.031	55.57
763.427	55.54
763.822	55.56
764.218	55.59
764.614	55.57
765.01	55.55
765.405	55.54
765.801	55.51
766.196	55.5
766.592	55.51
766.987	55.51
767.382	55.5
767.778	55.49
768.173	55.5
768.568	55.47
768.963	55.46
769.358	55.49
769.753	55.5
770.148	55.53
770.542	55.53
770.937	55.54
771.332	55.51
771.726	55.51
772.121	55.52
772.515	55.49
772.91	55.49
773.304	55.49
773.699	55.47
774.093	55.44
774.487	55.43
774.881	55.44
775.275	55.43
775.669	55.45
776.063	55.42
776.457	55.42
776.851	55.41
777.245	55.37
777.638	55.35
778.032	55.34
778.425	55.36
778.819	55.35
779.212	55.34
