Data from N_3_HIR_IL_4N_Splice17_14-29-08-004.txt Node
Date: Sat Mar 07 14:29:08 EST 2020
User: sa697716
Spectrometer: NQ5500242
Trigger mode: 0
Integration Time (sec): 1.450000E-1
Scans to average: 20
Nonlinearity correction enabled: false
Boxcar width: 5
Storing dark spectrum: false
XAxis mode: Wavelengths
Number of Pixels in Spectrum: 512
>>>>>Begin Spectral Data<<<<<
187.83	190.16
188.298	202.59
188.766	150.67
189.233	123.92
189.701	127.99
190.169	159.47
190.636	153.38
191.104	184.81
191.571	-65.56
192.039	-123.5
192.506	-654.19
192.974	139.77
193.441	115.49
193.908	2.07
194.375	-2.22
194.842	-65.21
195.31	-68.11
195.777	-368.36
196.244	36.24
196.711	58.6
197.177	62.44
197.644	62.64
198.111	63.78
198.578	64.41
199.045	64.64
199.511	64.24
199.978	64.47
200.445	64.74
200.911	64.9
201.378	65.3
201.844	65.07
202.31	64.89
202.777	65.15
203.243	65.03
203.709	64.89
204.176	64.5
204.642	64.54
205.108	64.36
205.574	64.13
206.04	63.69
206.506	62.86
206.972	62.44
207.438	61.82
207.903	60.91
208.369	59.47
208.835	58.01
209.301	56.65
209.766	55.09
210.232	53.49
210.697	52.01
211.163	50.71
211.628	49.6
212.094	48.38
212.559	46.98
213.024	45.72
213.49	44.77
213.955	43.9
214.42	42.78
214.885	41.54
215.35	40.01
215.815	37.79
216.28	35.01
216.745	32.09
217.21	29.11
217.675	26.49
218.14	24.15
218.604	22.12
219.069	20.38
219.534	18.98
219.998	17.83
220.463	16.86
220.927	16.01
221.392	15.35
221.856	14.79
222.32	14.33
222.785	13.93
223.249	13.56
223.713	13.24
224.177	12.98
224.642	12.7
225.106	12.4
225.57	12.12
226.034	11.88
226.497	11.67
226.961	11.45
227.425	11.26
227.889	11.07
228.353	10.85
228.816	10.66
229.28	10.46
229.744	10.3
230.207	10.15
230.671	10.02
231.134	9.88
231.597	9.76
232.061	9.64
232.524	9.52
232.987	9.4
233.45	9.32
233.914	9.21
234.377	9.11
234.84	9.01
235.303	8.93
235.766	8.84
236.229	8.75
236.691	8.65
237.154	8.56
237.617	8.49
238.08	8.41
238.542	8.31
239.005	8.25
239.468	8.18
239.93	8.12
240.393	8.05
240.855	7.97
241.317	7.9
241.78	7.83
242.242	7.75
242.704	7.68
243.166	7.62
243.629	7.56
244.091	7.48
244.553	7.42
245.015	7.34
245.477	7.27
245.939	7.22
246.4	7.15
246.862	7.09
247.324	7.04
247.786	6.96
248.247	6.89
248.709	6.82
249.17	6.76
249.632	6.7
250.093	6.64
250.555	6.58
251.016	6.53
251.477	6.47
251.939	6.43
252.4	6.39
252.861	6.34
253.322	6.3
253.783	6.26
254.244	6.22
254.705	6.18
255.166	6.14
255.627	6.1
256.088	6.06
256.549	6.02
257.009	5.97
257.47	5.93
257.931	5.88
258.391	5.83
258.852	5.78
259.312	5.74
259.773	5.69
260.233	5.66
260.694	5.62
261.154	5.58
261.614	5.55
262.074	5.5
262.534	5.46
262.994	5.43
263.455	5.4
263.915	5.37
264.374	5.35
264.834	5.33
265.294	5.3
265.754	5.28
266.214	5.25
266.673	5.22
267.133	5.21
267.593	5.2
268.052	5.18
268.512	5.16
268.971	5.14
269.431	5.13
269.89	5.1
270.349	5.09
270.809	5.07
271.268	5.05
271.727	5.03
272.186	5.02
272.645	5
273.104	4.98
273.563	4.97
274.022	4.96
274.481	4.95
274.94	4.95
275.399	4.93
275.857	4.92
276.316	4.91
276.775	4.9
277.233	4.89
277.692	4.88
278.15	4.88
278.609	4.87
279.067	4.85
279.525	4.84
279.984	4.82
280.442	4.8
280.9	4.8
281.358	4.79
281.816	4.78
282.274	4.77
282.732	4.76
283.19	4.74
283.648	4.73
284.106	4.72
284.564	4.72
285.021	4.71
285.479	4.71
285.937	4.71
286.394	4.69
286.852	4.68
287.309	4.67
287.767	4.66
288.224	4.64
288.682	4.63
289.139	4.6
289.596	4.58
290.053	4.56
290.511	4.53
290.968	4.51
291.425	4.49
291.882	4.48
292.339	4.46
292.796	4.44
293.252	4.43
293.709	4.41
294.166	4.41
294.623	4.4
295.079	4.39
295.536	4.38
295.992	4.37
296.449	4.36
296.905	4.35
297.362	4.34
297.818	4.33
298.274	4.32
298.731	4.31
299.187	4.29
299.643	4.28
300.099	4.27
300.555	4.26
301.011	4.25
301.467	4.24
301.923	4.23
302.379	4.23
302.835	4.22
303.291	4.21
303.746	4.21
304.202	4.2
304.658	4.2
305.113	4.2
305.569	4.19
306.024	4.19
306.479	4.19
306.935	4.18
307.39	4.18
307.845	4.18
308.301	4.19
308.756	4.19
309.211	4.19
309.666	4.19
310.121	4.19
310.576	4.19
311.031	4.2
311.486	4.2
311.94	4.2
312.395	4.2
312.85	4.2
313.305	4.2
313.759	4.2
314.214	4.2
314.668	4.19
315.123	4.19
315.577	4.18
316.032	4.17
316.486	4.17
316.94	4.16
317.394	4.15
317.849	4.14
318.303	4.12
318.757	4.11
319.211	4.1
319.665	4.09
320.119	4.08
320.572	4.07
321.026	4.06
321.48	4.06
321.934	4.05
322.387	4.04
322.841	4.03
323.295	4.03
323.748	4.03
324.202	4.03
324.655	4.03
325.108	4.03
325.562	4.02
326.015	4.03
326.468	4.03
326.921	4.04
327.374	4.04
327.827	4.04
328.28	4.03
328.733	4.03
329.186	4.04
329.639	4.04
330.092	4.03
330.545	4.04
330.997	4.03
331.45	4.03
331.903	4.04
332.355	4.04
332.808	4.05
333.26	4.06
333.713	4.06
334.165	4.06
334.617	4.07
335.069	4.07
335.522	4.08
335.974	4.08
336.426	4.08
336.878	4.08
337.33	4.08
337.782	4.09
338.234	4.09
338.686	4.09
339.137	4.1
339.589	4.09
340.041	4.09
340.493	4.08
340.944	4.07
341.396	4.07
341.847	4.06
342.299	4.04
342.75	4.02
343.201	4
343.653	3.98
344.104	3.95
344.555	3.94
345.006	3.92
345.457	3.91
345.908	3.91
346.359	3.9
346.81	3.89
347.261	3.88
347.712	3.88
348.163	3.88
348.613	3.89
349.064	3.9
349.515	3.9
349.965	3.9
350.416	3.9
350.866	3.89
351.317	3.89
351.767	3.9
352.217	3.91
352.668	3.91
353.118	3.91
353.568	3.9
354.018	3.9
354.468	3.9
354.918	3.9
355.368	3.91
355.818	3.91
356.268	3.91
356.718	3.91
357.168	3.9
357.617	3.9
358.067	3.9
358.517	3.92
358.966	3.91
359.416	3.91
359.865	3.91
360.315	3.92
360.764	3.93
361.213	3.93
361.663	3.92
362.112	3.93
362.561	3.93
363.01	3.95
363.459	3.93
363.908	3.93
364.357	3.93
364.806	3.93
365.255	3.94
365.703	3.94
366.152	3.95
366.601	3.95
367.05	3.96
367.498	3.96
367.947	3.95
368.395	3.96
368.844	3.97
369.292	3.97
369.74	3.98
370.189	3.98
370.637	3.97
371.085	3.96
371.533	3.96
371.981	3.95
372.429	3.95
372.877	3.96
373.325	3.95
373.773	3.96
374.221	3.96
374.669	3.95
375.116	3.95
375.564	3.95
376.012	3.96
376.459	3.96
376.907	3.99
377.354	3.99
377.801	4
378.249	4.01
378.696	4.02
379.143	4.03
379.591	4.03
380.038	4.04
380.485	4.06
380.932	4.07
381.379	4.09
381.826	4.09
382.273	4.09
382.72	4.09
383.166	4.09
383.613	4.1
384.06	4.1
384.506	4.11
384.953	4.11
385.4	4.13
385.846	4.15
386.292	4.16
386.739	4.17
387.185	4.19
387.631	4.21
388.078	4.23
388.524	4.24
388.97	4.27
389.416	4.29
389.862	4.32
390.308	4.34
390.754	4.36
391.2	4.39
391.645	4.42
392.091	4.45
392.537	4.47
392.983	4.51
393.428	4.54
393.874	4.58
394.319	4.61
394.765	4.63
395.21	4.64
395.655	4.66
396.101	4.69
396.546	4.71
396.991	4.74
397.436	4.77
397.881	4.82
398.326	4.84
398.771	4.88
399.216	4.91
399.661	4.96
400.106	5
400.551	5.02
400.995	5.04
401.44	5.06
401.885	5.09
402.329	5.11
402.774	5.13
403.218	5.17
403.663	5.19
404.107	5.21
404.551	5.23
404.995	5.26
405.44	5.29
405.884	5.32
406.328	5.36
406.772	5.37
407.216	5.4
407.66	5.42
408.104	5.43
408.547	5.45
408.991	5.48
409.435	5.5
409.879	5.52
410.322	5.55
410.766	5.58
411.209	5.6
411.653	5.63
412.096	5.65
412.54	5.69
412.983	5.7
413.426	5.74
413.869	5.78
414.312	5.81
414.756	5.83
415.199	5.86
415.642	5.88
416.085	5.91
416.527	5.92
416.97	5.93
417.413	5.94
417.856	5.95
418.298	5.95
418.741	5.95
419.184	5.95
419.626	5.95
420.069	5.96
420.511	5.97
420.953	5.98
421.396	6
421.838	6.01
422.28	6.04
422.722	6.08
423.164	6.11
423.606	6.13
424.048	6.15
424.49	6.18
424.932	6.2
425.374	6.2
425.816	6.19
426.258	6.17
426.699	6.17
427.141	6.15
427.582	6.15
428.024	6.16
428.465	6.17
428.907	6.17
429.348	6.17
429.789	6.16
430.231	6.18
430.672	6.2
431.113	6.24
431.554	6.27
431.995	6.29
432.436	6.29
432.877	6.3
433.318	6.32
433.759	6.35
434.2	6.38
434.64	6.41
435.081	6.43
435.522	6.46
435.962	6.48
436.403	6.53
436.843	6.55
437.284	6.58
437.724	6.59
438.164	6.58
438.604	6.58
439.045	6.58
439.485	6.59
439.925	6.59
440.365	6.59
440.805	6.6
441.245	6.6
441.685	6.63
442.125	6.65
442.564	6.67
443.004	6.7
443.444	6.73
443.883	6.76
444.323	6.78
444.762	6.8
445.202	6.82
445.641	6.86
446.081	6.89
446.52	6.89
446.959	6.91
447.398	6.95
447.837	6.98
448.276	6.99
448.716	7.02
449.154	7.04
449.593	7.08
450.032	7.09
450.471	7.08
450.91	7.09
451.349	7.11
451.787	7.1
452.226	7.09
452.664	7.08
453.103	7.08
453.541	7.06
453.98	7.06
454.418	7.02
454.856	7.01
455.295	6.99
455.733	6.96
456.171	6.95
456.609	6.93
457.047	6.9
457.485	6.88
457.923	6.87
458.361	6.85
458.798	6.84
459.236	6.85
459.674	6.85
460.111	6.85
460.549	6.86
460.987	6.86
461.424	6.87
461.862	6.88
462.299	6.89
462.736	6.89
463.173	6.91
463.611	6.91
464.048	6.91
464.485	6.91
464.922	6.91
465.359	6.91
465.796	6.93
466.233	6.93
466.67	6.93
467.106	6.95
467.543	6.94
467.98	6.93
468.416	6.93
468.853	6.94
469.29	6.95
469.726	6.96
470.162	6.97
470.599	6.97
471.035	6.98
471.471	6.97
471.907	6.97
472.344	6.98
472.78	6.99
473.216	6.99
473.652	6.99
474.088	7
474.523	7
474.959	7.01
475.395	7
475.831	6.99
476.266	6.99
476.702	6.98
477.138	6.98
477.573	6.97
478.008	6.99
478.444	6.98
478.879	6.97
479.314	6.97
479.75	6.96
480.185	6.96
480.62	6.95
481.055	6.95
481.49	6.95
481.925	6.95
482.36	6.95
482.795	6.94
483.229	6.94
483.664	6.95
484.099	6.95
484.534	6.94
484.968	6.95
485.403	6.96
485.837	6.97
486.271	6.99
486.706	7
487.14	7.02
487.574	7.03
488.009	7.04
488.443	7.04
488.877	7.07
489.311	7.09
489.745	7.12
490.179	7.15
490.613	7.18
491.046	7.2
491.48	7.23
491.914	7.26
492.348	7.3
492.781	7.34
493.215	7.4
493.648	7.44
494.082	7.48
494.515	7.53
494.948	7.58
495.382	7.62
495.815	7.69
496.248	7.76
496.681	7.82
497.114	7.89
497.547	7.96
497.98	8.03
498.413	8.1
498.846	8.18
499.279	8.26
499.711	8.34
500.144	8.44
500.577	8.53
501.009	8.61
501.442	8.71
501.874	8.81
502.306	8.91
502.739	9.02
503.171	9.14
503.603	9.25
504.036	9.38
504.468	9.5
504.9	9.62
505.332	9.75
505.764	9.89
506.196	10.02
506.627	10.17
507.059	10.33
507.491	10.48
507.923	10.64
508.354	10.81
508.786	10.98
509.217	11.16
509.649	11.34
510.08	11.52
510.512	11.71
510.943	11.9
511.374	12.09
511.805	12.29
512.237	12.48
512.668	12.68
513.099	12.89
513.53	13.1
513.961	13.32
514.391	13.53
514.822	13.75
515.253	13.96
515.684	14.17
516.114	14.38
516.545	14.59
516.975	14.81
517.406	15.02
517.836	15.22
518.267	15.44
518.697	15.63
519.127	15.82
519.558	16.02
519.988	16.22
520.418	16.43
520.848	16.61
521.278	16.8
521.708	17.1
522.138	17.3
522.567	17.47
522.997	17.64
523.427	17.83
523.857	18.01
524.286	18.17
524.716	18.34
525.145	18.48
525.575	18.64
526.004	18.8
526.433	18.82
526.863	18.96
527.292	19.09
527.721	19.22
528.15	19.33
528.579	19.45
529.008	19.56
529.437	19.66
529.866	19.77
530.295	19.87
530.724	19.96
531.152	20.06
531.581	20.14
532.01	20.23
532.438	20.31
532.867	20.4
533.295	20.46
533.723	20.54
534.152	20.6
534.58	20.67
535.008	20.71
535.436	20.76
535.865	20.79
536.293	20.83
536.721	20.86
537.149	20.9
537.576	20.93
538.004	20.97
538.432	20.99
538.86	21.01
539.287	21.02
539.715	21.07
540.143	21.09
540.57	21.13
540.998	21.16
541.425	21.18
541.852	21.21
542.28	21.23
542.707	21.26
543.134	21.29
543.561	21.34
543.988	21.38
544.415	21.4
544.842	21.42
545.269	21.44
545.696	21.47
546.123	21.5
546.549	21.53
546.976	21.56
547.403	21.58
547.829	21.61
548.256	21.62
548.682	21.64
549.108	21.68
549.535	21.69
549.961	21.72
550.387	21.72
550.813	21.72
551.24	21.73
551.666	21.74
552.092	21.76
552.518	21.75
552.943	21.75
553.369	21.76
553.795	21.74
554.221	21.73
554.646	21.71
555.072	21.7
555.498	21.69
555.923	21.67
556.349	21.64
556.774	21.58
557.199	21.55
557.625	21.53
558.05	21.48
558.475	21.44
558.9	21.4
559.325	21.37
559.75	21.32
560.175	21.28
560.6	21.22
561.025	21.16
561.449	21.11
561.874	21.03
562.299	20.95
562.723	20.87
563.148	20.79
563.572	20.7
563.997	20.61
564.421	20.52
564.846	20.42
565.27	20.33
565.694	20.23
566.118	20.12
566.542	20.03
566.966	19.92
567.39	19.81
567.814	19.7
568.238	19.59
568.662	19.48
569.086	19.36
569.509	19.25
569.933	19.14
570.357	19.02
570.78	18.92
571.204	18.81
571.627	18.71
572.05	18.61
572.474	18.53
572.897	18.43
573.32	18.34
573.743	18.25
574.166	18.17
574.589	18.09
575.012	18.01
575.435	17.95
575.858	17.89
576.281	17.81
576.704	17.75
577.126	17.69
577.549	17.63
577.972	17.58
578.394	17.51
578.817	17.45
579.239	17.39
579.661	17.34
580.084	17.27
580.506	17.21
580.928	17.16
581.35	17.11
581.772	17.06
582.194	17
582.616	16.95
583.038	16.91
583.46	16.86
583.882	16.82
584.303	16.77
584.725	16.73
585.147	16.69
585.568	16.64
585.99	16.6
586.411	16.54
586.833	16.5
587.254	16.45
587.675	16.41
588.096	16.37
588.518	16.34
588.939	16.31
589.36	16.27
589.781	16.24
590.202	16.22
590.623	16.19
591.043	16.17
591.464	16.16
591.885	16.14
592.305	16.13
592.726	16.11
593.147	16.09
593.567	16.07
593.987	16.06
594.408	16.03
594.828	16
595.248	15.98
595.669	15.95
596.089	15.92
596.509	15.89
596.929	15.85
597.349	15.82
597.769	15.78
598.189	15.73
598.608	15.69
599.028	15.67
599.448	15.64
599.867	15.6
600.287	15.58
600.706	15.54
601.126	15.5
601.545	15.47
601.965	15.43
602.384	15.39
602.803	15.36
603.222	15.32
603.641	15.27
604.061	15.24
604.48	15.18
604.898	15.13
605.317	15.09
605.736	15.04
606.155	15
606.574	14.94
606.992	14.89
607.411	14.84
607.829	14.77
608.248	14.71
608.666	14.63
609.085	14.58
609.503	14.52
609.921	14.47
610.339	14.41
610.758	14.35
611.176	14.29
611.594	14.23
612.012	14.17
612.43	14.14
612.847	14.08
613.265	14.03
613.683	13.97
614.101	13.92
614.518	13.86
614.936	13.81
615.353	13.76
615.771	13.72
616.188	13.67
616.606	13.62
617.023	13.57
617.44	13.54
617.857	13.5
618.274	13.46
618.691	13.42
619.108	13.39
619.525	13.36
619.942	13.33
620.359	13.3
620.776	13.28
621.192	13.24
621.609	13.21
622.026	13.19
622.442	13.17
622.859	13.16
623.275	13.14
623.691	13.12
624.108	13.1
624.524	13.09
624.94	13.07
625.356	13.05
625.772	13.05
626.188	13.04
626.604	13.02
627.02	13.01
627.436	13
627.852	12.99
628.268	12.97
628.683	12.97
629.099	12.96
629.514	12.95
629.93	12.95
630.345	12.94
630.761	12.91
631.176	12.89
631.591	12.85
632.007	12.82
632.422	12.79
632.837	12.75
633.252	12.69
633.667	12.64
634.082	12.59
634.497	12.52
634.911	12.45
635.326	12.39
635.741	12.33
636.155	12.26
636.57	12.19
636.984	12.11
637.399	12.03
637.813	11.96
638.228	11.87
638.642	11.79
639.056	11.71
639.47	11.62
639.884	11.54
640.298	11.43
640.712	11.34
641.126	11.24
641.54	11.14
641.954	11.05
642.368	10.96
642.781	10.88
643.195	10.78
643.609	10.68
644.022	10.6
644.436	10.51
644.849	10.44
645.262	10.36
645.676	10.29
646.089	10.21
646.502	10.16
646.915	10.11
647.328	10.04
647.741	10
648.154	9.96
648.567	9.91
648.98	9.86
649.393	9.83
649.805	9.8
650.218	9.77
650.631	9.75
651.043	9.71
651.456	9.65
651.868	9.61
652.28	9.57
652.693	9.53
653.105	9.5
653.517	9.46
653.929	9.42
654.341	9.36
654.753	9.3
655.165	9.24
655.577	9.19
655.989	9.13
656.401	9.07
656.813	9.01
657.224	8.94
657.636	8.86
658.047	8.79
658.459	8.71
658.87	8.64
659.282	8.56
659.693	8.49
660.104	8.41
660.515	8.34
660.926	8.28
661.338	8.2
661.749	8.14
662.159	8.08
662.57	8.02
662.981	7.95
663.392	7.9
663.803	7.84
664.213	7.79
664.624	7.74
665.035	7.69
665.445	7.63
665.855	7.59
666.266	7.56
666.676	7.52
667.086	7.48
667.497	7.45
667.907	7.43
668.317	7.41
668.727	7.38
669.137	7.37
669.547	7.35
669.956	7.34
670.366	7.33
670.776	7.32
671.186	7.32
671.595	7.33
672.005	7.33
672.414	7.33
672.824	7.33
673.233	7.35
673.642	7.37
674.052	7.37
674.461	7.38
674.87	7.39
675.279	7.41
675.688	7.44
676.097	7.46
676.506	7.48
676.915	7.5
677.323	7.53
677.732	7.55
678.141	7.59
678.549	7.63
678.958	7.68
679.366	7.73
679.775	7.79
680.183	7.85
680.592	7.93
681	8
681.408	8.09
681.816	8.19
682.224	8.3
682.632	8.42
683.04	8.54
683.448	8.67
683.856	8.82
684.264	8.98
684.671	9.16
685.079	9.34
685.487	9.56
685.894	9.79
686.302	10.03
686.709	10.29
687.116	10.57
687.524	10.86
687.931	11.18
688.338	11.5
688.745	11.84
689.152	12.18
689.559	12.54
689.966	12.92
690.373	13.3
690.78	13.69
691.187	14.09
691.593	14.49
692	14.9
692.407	15.31
692.813	15.74
693.22	16.15
693.626	16.56
694.032	16.98
694.439	17.39
694.845	17.81
695.251	18.21
695.657	18.61
696.063	19.01
696.469	19.41
696.875	19.81
697.281	20.18
697.687	20.57
698.093	20.93
698.498	21.3
698.904	21.65
699.31	21.99
699.715	22.33
700.12	22.67
700.526	22.99
700.931	23.32
701.337	23.62
701.742	23.92
702.147	24.22
702.552	24.53
702.957	24.79
703.362	25.07
703.767	25.32
704.172	25.59
704.577	25.84
704.981	26.09
705.386	26.33
705.791	26.6
706.195	26.83
706.6	27.08
707.004	27.31
707.408	27.56
707.813	27.8
708.217	28.04
708.621	28.24
709.025	28.46
709.43	28.66
709.834	28.85
710.237	29.03
710.641	29.22
711.045	29.39
711.449	29.57
711.853	29.77
712.256	29.93
712.66	30.1
713.064	30.29
713.467	30.46
713.87	30.62
714.274	30.78
714.677	30.95
715.08	31.11
715.484	31.27
715.887	31.44
716.29	31.58
716.693	31.72
717.096	31.85
717.499	31.98
717.901	32.13
718.304	32.27
718.707	32.41
719.109	32.54
719.512	32.66
719.915	32.77
720.317	32.87
720.719	32.97
721.122	33.09
721.524	33.18
721.926	33.28
722.328	33.38
722.731	33.47
723.133	33.57
723.535	33.65
723.937	33.74
724.338	33.82
724.74	33.91
725.142	34.03
725.544	34.11
725.945	34.22
726.347	34.29
726.748	34.35
727.15	34.4
727.551	34.47
727.952	34.54
728.354	34.59
728.755	34.66
729.156	34.7
729.557	34.7
729.958	34.73
730.359	34.77
730.76	34.83
731.161	34.88
731.562	34.95
731.962	34.97
732.363	35.01
732.763	35.06
733.164	35.08
733.564	35.13
733.965	35.17
734.365	35.22
734.766	35.24
735.166	35.26
735.566	35.3
735.966	35.33
736.366	35.35
736.766	35.38
737.166	35.41
737.566	35.44
737.966	35.46
738.365	35.48
738.765	35.52
739.165	35.55
739.564	35.58
739.964	35.57
740.363	35.57
740.763	35.61
741.162	35.64
741.561	35.64
741.96	35.65
742.36	35.67
742.759	35.71
743.158	35.7
743.557	35.71
743.955	35.73
744.354	35.78
744.753	35.8
745.152	35.82
745.55	35.84
745.949	35.87
746.348	35.91
746.746	35.93
747.144	35.93
747.543	35.95
747.941	35.98
748.339	35.98
748.737	35.95
749.136	35.98
749.534	35.97
749.932	35.97
750.33	35.97
750.727	35.97
751.125	35.96
751.523	35.94
751.921	35.96
752.318	35.96
752.716	35.96
753.113	35.99
753.511	35.97
753.908	35.97
754.305	35.97
754.703	35.94
755.1	35.93
755.497	35.93
755.894	35.91
756.291	35.89
756.688	35.85
757.085	35.84
757.482	35.82
757.878	35.81
758.275	35.78
758.672	35.76
759.068	35.78
759.465	35.76
759.861	35.77
760.258	35.78
760.654	35.77
761.05	35.79
761.447	35.8
761.843	35.81
762.239	35.82
762.635	35.83
763.031	35.85
763.427	35.83
763.822	35.85
764.218	35.87
764.614	35.89
765.01	35.89
765.405	35.88
765.801	35.86
766.196	35.87
766.592	35.87
766.987	35.88
767.382	35.85
767.778	35.87
768.173	35.87
768.568	35.86
768.963	35.85
769.358	35.86
769.753	35.85
770.148	35.89
770.542	35.88
770.937	35.89
771.332	35.87
771.726	35.89
772.121	35.87
772.515	35.88
772.91	35.87
773.304	35.88
773.699	35.88
774.093	35.88
774.487	35.86
774.881	35.89
775.275	35.86
775.669	35.86
776.063	35.84
776.457	35.84
776.851	35.82
777.245	35.81
777.638	35.78
778.032	35.8
778.425	35.83
778.819	35.85
779.212	35.82
779.606	35.83
779.999	35.84
780.392	35.86
780.786	35.86
781.179	35.88
