Data from N_3_DEC_VA_2N_Splice17_14-19-30-220.txt Node
Date: Sat Mar 07 14:19:30 EST 2020
User: sa697716
Spectrometer: NQ5500242
Trigger mode: 0
Integration Time (sec): 1.450000E-1
Scans to average: 20
Nonlinearity correction enabled: false
Boxcar width: 5
Storing dark spectrum: false
XAxis mode: Wavelengths
Number of Pixels in Spectrum: 512
>>>>>Begin Spectral Data<<<<<
187.83	122.59
188.298	133.8
188.766	105.68
189.233	92.08
189.701	89.87
190.169	81.17
190.636	51.84
191.104	-24.43
191.571	-162.22
192.039	-10.03
192.506	214.99
192.974	76.7
193.441	126.5
193.908	48.93
194.375	72.12
194.842	1.66
195.31	-33.59
195.777	-396.61
196.244	51.72
196.711	80.13
197.177	84.26
197.644	86.62
198.111	86.57
198.578	86.83
199.045	87.15
199.511	86.97
199.978	87.37
200.445	87.39
200.911	88.03
201.378	88.34
201.844	88.29
202.31	88.07
202.777	87.86
203.243	87.77
203.709	87.37
204.176	86.69
204.642	85.93
205.108	85.54
205.574	84.98
206.04	84.07
206.506	83.32
206.972	82.87
207.438	82.08
207.903	80.73
208.369	79.03
208.835	77.39
209.301	75.58
209.766	73.88
210.232	71.69
210.697	69.89
211.163	68.21
211.628	66.32
212.094	64.4
212.559	62.98
213.024	61.77
213.49	60.68
213.955	59.4
214.42	58.38
214.885	56.75
215.35	54.95
215.815	52.14
216.28	48.73
216.745	45.14
217.21	41.47
217.675	37.94
218.14	34.85
218.604	32.07
219.069	29.8
219.534	27.79
219.998	26.23
220.463	24.94
220.927	23.82
221.392	22.96
221.856	22.16
222.32	21.48
222.785	20.92
223.249	20.38
223.713	19.93
224.177	19.52
224.642	19.12
225.106	18.71
225.57	18.29
226.034	17.95
226.497	17.59
226.961	17.28
227.425	17.01
227.889	16.73
228.353	16.44
228.816	16.17
229.28	15.9
229.744	15.67
230.207	15.44
230.671	15.21
231.134	14.99
231.597	14.8
232.061	14.6
232.524	14.41
232.987	14.21
233.45	14.05
233.914	13.88
234.377	13.69
234.84	13.51
235.303	13.38
235.766	13.25
236.229	13.1
236.691	12.97
237.154	12.85
237.617	12.7
238.08	12.58
238.542	12.45
239.005	12.35
239.468	12.24
239.93	12.14
240.393	12.03
240.855	11.91
241.317	11.8
241.78	11.68
242.242	11.55
242.704	11.44
243.166	11.33
243.629	11.23
244.091	11.11
244.553	11
245.015	10.88
245.477	10.78
245.939	10.67
246.4	10.58
246.862	10.48
247.324	10.38
247.786	10.29
248.247	10.2
248.709	10.09
249.17	10
249.632	9.92
250.093	9.85
250.555	9.76
251.016	9.68
251.477	9.6
251.939	9.53
252.4	9.47
252.861	9.41
253.322	9.34
253.783	9.29
254.244	9.25
254.705	9.19
255.166	9.15
255.627	9.1
256.088	9.07
256.549	9.03
257.009	8.98
257.47	8.93
257.931	8.88
258.391	8.82
258.852	8.76
259.312	8.71
259.773	8.65
260.233	8.59
260.694	8.53
261.154	8.46
261.614	8.41
262.074	8.35
262.534	8.3
262.994	8.25
263.455	8.21
263.915	8.16
264.374	8.12
264.834	8.09
265.294	8.05
265.754	8.02
266.214	8
266.673	7.96
267.133	7.94
267.593	7.91
268.052	7.89
268.512	7.87
268.971	7.84
269.431	7.82
269.89	7.79
270.349	7.78
270.809	7.75
271.268	7.73
271.727	7.72
272.186	7.7
272.645	7.68
273.104	7.66
273.563	7.64
274.022	7.63
274.481	7.61
274.94	7.59
275.399	7.56
275.857	7.54
276.316	7.52
276.775	7.5
277.233	7.49
277.692	7.47
278.15	7.47
278.609	7.45
279.067	7.43
279.525	7.42
279.984	7.4
280.442	7.39
280.9	7.39
281.358	7.38
281.816	7.36
282.274	7.35
282.732	7.34
283.19	7.32
283.648	7.31
284.106	7.3
284.564	7.29
285.021	7.29
285.479	7.28
285.937	7.26
286.394	7.25
286.852	7.24
287.309	7.23
287.767	7.21
288.224	7.19
288.682	7.16
289.139	7.13
289.596	7.1
290.053	7.06
290.511	7.03
290.968	7
291.425	6.96
291.882	6.93
292.339	6.9
292.796	6.88
293.252	6.85
293.709	6.83
294.166	6.81
294.623	6.8
295.079	6.79
295.536	6.77
295.992	6.76
296.449	6.75
296.905	6.74
297.362	6.72
297.818	6.7
298.274	6.69
298.731	6.67
299.187	6.65
299.643	6.62
300.099	6.61
300.555	6.59
301.011	6.57
301.467	6.55
301.923	6.55
302.379	6.54
302.835	6.54
303.291	6.53
303.746	6.53
304.202	6.53
304.658	6.53
305.113	6.53
305.569	6.53
306.024	6.53
306.479	6.52
306.935	6.51
307.39	6.51
307.845	6.51
308.301	6.51
308.756	6.51
309.211	6.5
309.666	6.5
310.121	6.5
310.576	6.49
311.031	6.5
311.486	6.51
311.94	6.51
312.395	6.51
312.85	6.5
313.305	6.5
313.759	6.49
314.214	6.49
314.668	6.48
315.123	6.48
315.577	6.47
316.032	6.45
316.486	6.44
316.94	6.43
317.394	6.4
317.849	6.38
318.303	6.36
318.757	6.34
319.211	6.32
319.665	6.29
320.119	6.27
320.572	6.25
321.026	6.23
321.48	6.21
321.934	6.2
322.387	6.2
322.841	6.19
323.295	6.18
323.748	6.17
324.202	6.15
324.655	6.14
325.108	6.14
325.562	6.14
326.015	6.13
326.468	6.12
326.921	6.11
327.374	6.1
327.827	6.1
328.28	6.09
328.733	6.08
329.186	6.09
329.639	6.09
330.092	6.09
330.545	6.09
330.997	6.09
331.45	6.09
331.903	6.1
332.355	6.11
332.808	6.11
333.26	6.11
333.713	6.12
334.165	6.13
334.617	6.13
335.069	6.13
335.522	6.13
335.974	6.14
336.426	6.14
336.878	6.14
337.33	6.14
337.782	6.15
338.234	6.16
338.686	6.15
339.137	6.15
339.589	6.14
340.041	6.14
340.493	6.12
340.944	6.09
341.396	6.08
341.847	6.05
342.299	6.03
342.75	6
343.201	5.97
343.653	5.95
344.104	5.91
344.555	5.89
345.006	5.86
345.457	5.85
345.908	5.82
346.359	5.81
346.81	5.8
347.261	5.8
347.712	5.78
348.163	5.78
348.613	5.77
349.064	5.77
349.515	5.76
349.965	5.76
350.416	5.76
350.866	5.77
351.317	5.75
351.767	5.75
352.217	5.75
352.668	5.75
353.118	5.76
353.568	5.75
354.018	5.76
354.468	5.77
354.918	5.77
355.368	5.77
355.818	5.78
356.268	5.8
356.718	5.8
357.168	5.8
357.617	5.8
358.067	5.79
358.517	5.81
358.966	5.82
359.416	5.81
359.865	5.81
360.315	5.81
360.764	5.82
361.213	5.8
361.663	5.8
362.112	5.81
362.561	5.82
363.01	5.81
363.459	5.8
363.908	5.8
364.357	5.8
364.806	5.8
365.255	5.79
365.703	5.79
366.152	5.8
366.601	5.81
367.05	5.8
367.498	5.79
367.947	5.79
368.395	5.8
368.844	5.8
369.292	5.79
369.74	5.79
370.189	5.78
370.637	5.78
371.085	5.76
371.533	5.75
371.981	5.75
372.429	5.75
372.877	5.75
373.325	5.74
373.773	5.74
374.221	5.74
374.669	5.72
375.116	5.71
375.564	5.71
376.012	5.71
376.459	5.7
376.907	5.71
377.354	5.71
377.801	5.71
378.249	5.7
378.696	5.7
379.143	5.7
379.591	5.71
380.038	5.71
380.485	5.72
380.932	5.73
381.379	5.72
381.826	5.72
382.273	5.73
382.72	5.72
383.166	5.73
383.613	5.73
384.06	5.72
384.506	5.72
384.953	5.73
385.4	5.74
385.846	5.74
386.292	5.76
386.739	5.76
387.185	5.77
387.631	5.79
388.078	5.79
388.524	5.8
388.97	5.82
389.416	5.84
389.862	5.86
390.308	5.88
390.754	5.9
391.2	5.92
391.645	5.95
392.091	5.98
392.537	6.01
392.983	6.04
393.428	6.07
393.874	6.09
394.319	6.12
394.765	6.14
395.21	6.16
395.655	6.18
396.101	6.2
396.546	6.22
396.991	6.25
397.436	6.26
397.881	6.31
398.326	6.34
398.771	6.38
399.216	6.41
399.661	6.45
400.106	6.48
400.551	6.49
400.995	6.51
401.44	6.52
401.885	6.54
402.329	6.56
402.774	6.57
403.218	6.59
403.663	6.61
404.107	6.63
404.551	6.64
404.995	6.67
405.44	6.69
405.884	6.73
406.328	6.75
406.772	6.78
407.216	6.8
407.66	6.81
408.104	6.81
408.547	6.83
408.991	6.84
409.435	6.85
409.879	6.87
410.322	6.9
410.766	6.93
411.209	6.97
411.653	6.99
412.096	7.01
412.54	7.03
412.983	7.05
413.426	7.11
413.869	7.13
414.312	7.18
414.756	7.2
415.199	7.23
415.642	7.23
416.085	7.25
416.527	7.26
416.97	7.25
417.413	7.25
417.856	7.26
418.298	7.24
418.741	7.26
419.184	7.25
419.626	7.24
420.069	7.23
420.511	7.23
420.953	7.24
421.396	7.26
421.838	7.29
422.28	7.31
422.722	7.34
423.164	7.36
423.606	7.37
424.048	7.37
424.49	7.4
424.932	7.4
425.374	7.39
425.816	7.35
426.258	7.33
426.699	7.31
427.141	7.29
427.582	7.27
428.024	7.29
428.465	7.28
428.907	7.28
429.348	7.26
429.789	7.25
430.231	7.27
430.672	7.31
431.113	7.34
431.554	7.37
431.995	7.39
432.436	7.41
432.877	7.42
433.318	7.44
433.759	7.46
434.2	7.5
434.64	7.54
435.081	7.56
435.522	7.56
435.962	7.57
436.403	7.62
436.843	7.65
437.284	7.65
437.724	7.66
438.164	7.66
438.604	7.68
439.045	7.68
439.485	7.69
439.925	7.69
440.365	7.71
440.805	7.72
441.245	7.72
441.685	7.74
442.125	7.77
442.564	7.79
443.004	7.81
443.444	7.8
443.883	7.83
444.323	7.84
444.762	7.87
445.202	7.89
445.641	7.92
446.081	7.93
446.52	7.94
446.959	7.96
447.398	7.98
447.837	8.02
448.276	8.05
448.716	8.06
449.154	8.09
449.593	8.13
450.032	8.14
450.471	8.14
450.91	8.13
451.349	8.14
451.787	8.13
452.226	8.12
452.664	8.11
453.103	8.1
453.541	8.08
453.98	8.06
454.418	8.02
454.856	7.99
455.295	7.98
455.733	7.94
456.171	7.92
456.609	7.88
457.047	7.85
457.485	7.81
457.923	7.79
458.361	7.77
458.798	7.76
459.236	7.75
459.674	7.74
460.111	7.71
460.549	7.73
460.987	7.72
461.424	7.73
461.862	7.73
462.299	7.74
462.736	7.74
463.173	7.74
463.611	7.72
464.048	7.73
464.485	7.72
464.922	7.74
465.359	7.74
465.796	7.74
466.233	7.75
466.67	7.75
467.106	7.74
467.543	7.74
467.98	7.75
468.416	7.74
468.853	7.74
469.29	7.74
469.726	7.73
470.162	7.71
470.599	7.72
471.035	7.71
471.471	7.72
471.907	7.73
472.344	7.73
472.78	7.72
473.216	7.72
473.652	7.73
474.088	7.72
474.523	7.72
474.959	7.72
475.395	7.71
475.831	7.69
476.266	7.69
476.702	7.67
477.138	7.67
477.573	7.66
478.008	7.66
478.444	7.63
478.879	7.63
479.314	7.61
479.75	7.59
480.185	7.58
480.62	7.56
481.055	7.54
481.49	7.53
481.925	7.52
482.36	7.51
482.795	7.49
483.229	7.5
483.664	7.5
484.099	7.5
484.534	7.49
484.968	7.5
485.403	7.5
485.837	7.5
486.271	7.51
486.706	7.52
487.14	7.53
487.574	7.54
488.009	7.55
488.443	7.57
488.877	7.59
489.311	7.61
489.745	7.64
490.179	7.68
490.613	7.71
491.046	7.73
491.48	7.78
491.914	7.81
492.348	7.86
492.781	7.92
493.215	7.97
493.648	8.02
494.082	8.08
494.515	8.13
494.948	8.18
495.382	8.25
495.815	8.33
496.248	8.4
496.681	8.48
497.114	8.55
497.547	8.63
497.98	8.72
498.413	8.81
498.846	8.91
499.279	9.01
499.711	9.12
500.144	9.23
500.577	9.33
501.009	9.45
501.442	9.57
501.874	9.71
502.306	9.84
502.739	9.99
503.171	10.14
503.603	10.3
504.036	10.46
504.468	10.63
504.9	10.81
505.332	11
505.764	11.2
506.196	11.4
506.627	11.6
507.059	11.81
507.491	12.01
507.923	12.22
508.354	12.45
508.786	12.7
509.217	12.95
509.649	13.2
510.08	13.46
510.512	13.72
510.943	13.99
511.374	14.27
511.805	14.56
512.237	14.85
512.668	15.15
513.099	15.46
513.53	15.75
513.961	16.04
514.391	16.35
514.822	16.66
515.253	16.97
515.684	17.29
516.114	17.61
516.545	17.93
516.975	18.25
517.406	18.57
517.836	18.9
518.267	19.25
518.697	19.59
519.127	19.91
519.558	20.23
519.988	20.56
520.418	20.87
520.848	21.19
521.278	21.5
521.708	21.91
522.138	22.22
522.567	22.51
522.997	22.78
523.427	23.06
523.857	23.34
524.286	23.6
524.716	23.85
525.145	24.11
525.575	24.34
526.004	24.58
526.433	24.7
526.863	24.91
527.292	25.14
527.721	25.34
528.15	25.53
528.579	25.71
529.008	25.88
529.437	26.04
529.866	26.19
530.295	26.35
530.724	26.49
531.152	26.63
531.581	26.77
532.01	26.89
532.438	27.01
532.867	27.12
533.295	27.21
533.723	27.31
534.152	27.39
534.58	27.49
535.008	27.55
535.436	27.64
535.865	27.7
536.293	27.76
536.721	27.79
537.149	27.83
537.576	27.87
538.004	27.91
538.432	27.95
538.86	27.97
539.287	27.98
539.715	28.02
540.143	28.03
540.57	28.06
540.998	28.08
541.425	28.11
541.852	28.14
542.28	28.17
542.707	28.2
543.134	28.22
543.561	28.27
543.988	28.32
544.415	28.35
544.842	28.38
545.269	28.42
545.696	28.47
546.123	28.51
546.549	28.54
546.976	28.58
547.403	28.61
547.829	28.65
548.256	28.67
548.682	28.69
549.108	28.73
549.535	28.77
549.961	28.78
550.387	28.77
550.813	28.78
551.24	28.79
551.666	28.79
552.092	28.8
552.518	28.78
552.943	28.76
553.369	28.75
553.795	28.71
554.221	28.68
554.646	28.65
555.072	28.62
555.498	28.57
555.923	28.53
556.349	28.46
556.774	28.38
557.199	28.31
557.625	28.25
558.05	28.17
558.475	28.09
558.9	27.99
559.325	27.91
559.75	27.8
560.175	27.7
560.6	27.59
561.025	27.48
561.449	27.37
561.874	27.25
562.299	27.1
562.723	26.97
563.148	26.8
563.572	26.63
563.997	26.46
564.421	26.3
564.846	26.12
565.27	25.94
565.694	25.76
566.118	25.56
566.542	25.37
566.966	25.17
567.39	24.98
567.814	24.8
568.238	24.61
568.662	24.42
569.086	24.21
569.509	24.02
569.933	23.83
570.357	23.63
570.78	23.45
571.204	23.25
571.627	23.08
572.05	22.91
572.474	22.76
572.897	22.61
573.32	22.45
573.743	22.31
574.166	22.17
574.589	22.02
575.012	21.89
575.435	21.78
575.858	21.66
576.281	21.54
576.704	21.41
577.126	21.28
577.549	21.16
577.972	21.03
578.394	20.91
578.817	20.8
579.239	20.7
579.661	20.6
580.084	20.49
580.506	20.4
580.928	20.31
581.35	20.22
581.772	20.14
582.194	20.06
582.616	19.98
583.038	19.9
583.46	19.81
583.882	19.73
584.303	19.65
584.725	19.56
585.147	19.48
585.568	19.4
585.99	19.33
586.411	19.25
586.833	19.18
587.254	19.1
587.675	19.05
588.096	18.99
588.518	18.93
588.939	18.89
589.36	18.82
589.781	18.78
590.202	18.75
590.623	18.69
591.043	18.64
591.464	18.59
591.885	18.55
592.305	18.5
592.726	18.46
593.147	18.41
593.567	18.36
593.987	18.32
594.408	18.26
594.828	18.2
595.248	18.18
595.669	18.15
596.089	18.12
596.509	18.08
596.929	18.03
597.349	18
597.769	17.97
598.189	17.92
598.608	17.89
599.028	17.86
599.448	17.81
599.867	17.74
600.287	17.68
600.706	17.63
601.126	17.58
601.545	17.53
601.965	17.47
602.384	17.41
602.803	17.35
603.222	17.28
603.641	17.22
604.061	17.17
604.48	17.11
604.898	17.05
605.317	16.98
605.736	16.91
606.155	16.84
606.574	16.76
606.992	16.67
607.411	16.61
607.829	16.52
608.248	16.42
608.666	16.33
609.085	16.24
609.503	16.15
609.921	16.08
610.339	15.99
610.758	15.91
611.176	15.81
611.594	15.74
612.012	15.63
612.43	15.56
612.847	15.49
613.265	15.41
613.683	15.34
614.101	15.25
614.518	15.16
614.936	15.09
615.353	15
615.771	14.94
616.188	14.87
616.606	14.81
617.023	14.74
617.44	14.69
617.857	14.63
618.274	14.57
618.691	14.51
619.108	14.47
619.525	14.42
619.942	14.39
620.359	14.35
620.776	14.32
621.192	14.27
621.609	14.24
622.026	14.2
622.442	14.17
622.859	14.14
623.275	14.11
623.691	14.09
624.108	14.06
624.524	14.05
624.94	14.03
625.356	14.01
625.772	13.98
626.188	13.97
626.604	13.96
627.02	13.93
627.436	13.93
627.852	13.93
628.268	13.9
628.683	13.89
629.099	13.87
629.514	13.84
629.93	13.82
630.345	13.8
630.761	13.75
631.176	13.71
631.591	13.67
632.007	13.61
632.422	13.55
632.837	13.48
633.252	13.39
633.667	13.32
634.082	13.23
634.497	13.15
634.911	13.05
635.326	12.98
635.741	12.88
636.155	12.77
636.57	12.65
636.984	12.54
637.399	12.43
637.813	12.32
638.228	12.19
638.642	12.07
639.056	11.94
639.47	11.82
639.884	11.68
640.298	11.54
640.712	11.42
641.126	11.3
641.54	11.17
641.954	11.04
642.368	10.93
642.781	10.82
643.195	10.71
643.609	10.61
644.022	10.49
644.436	10.39
644.849	10.29
645.262	10.2
645.676	10.11
646.089	10.03
646.502	9.96
646.915	9.89
647.328	9.82
647.741	9.76
648.154	9.71
648.567	9.65
648.98	9.6
649.393	9.57
649.805	9.54
650.218	9.5
650.631	9.47
651.043	9.44
651.456	9.41
651.868	9.38
652.28	9.33
652.693	9.29
653.105	9.26
653.517	9.23
653.929	9.18
654.341	9.14
654.753	9.09
655.165	9.03
655.577	8.97
655.989	8.91
656.401	8.84
656.813	8.79
657.224	8.71
657.636	8.64
658.047	8.57
658.459	8.49
658.87	8.41
659.282	8.34
659.693	8.26
660.104	8.18
660.515	8.11
660.926	8.04
661.338	7.96
661.749	7.91
662.159	7.84
662.57	7.78
662.981	7.73
663.392	7.67
663.803	7.62
664.213	7.57
664.624	7.53
665.035	7.48
665.445	7.46
665.855	7.43
666.266	7.39
666.676	7.36
667.086	7.34
667.497	7.31
667.907	7.29
668.317	7.28
668.727	7.26
669.137	7.26
669.547	7.25
669.956	7.23
670.366	7.23
670.776	7.24
671.186	7.25
671.595	7.25
672.005	7.26
672.414	7.27
672.824	7.29
673.233	7.31
673.642	7.33
674.052	7.36
674.461	7.38
674.87	7.4
675.279	7.43
675.688	7.46
676.097	7.5
676.506	7.53
676.915	7.58
677.323	7.62
677.732	7.66
678.141	7.71
678.549	7.75
678.958	7.81
679.366	7.88
679.775	7.94
680.183	8.01
680.592	8.1
681	8.2
681.408	8.28
681.816	8.39
682.224	8.5
682.632	8.63
683.04	8.76
683.448	8.92
683.856	9.08
684.264	9.25
684.671	9.46
685.079	9.67
685.487	9.91
685.894	10.18
686.302	10.48
686.709	10.8
687.116	11.14
687.524	11.52
687.931	11.92
688.338	12.34
688.745	12.8
689.152	13.26
689.559	13.77
689.966	14.29
690.373	14.84
690.78	15.42
691.187	16
691.593	16.63
692	17.25
692.407	17.88
692.813	18.54
693.22	19.19
693.626	19.87
694.032	20.55
694.439	21.24
694.845	21.92
695.251	22.61
695.657	23.29
696.063	23.97
696.469	24.67
696.875	25.36
697.281	26.04
697.687	26.74
698.093	27.42
698.498	28.08
698.904	28.75
699.31	29.39
699.715	30.04
700.12	30.67
700.526	31.31
700.931	31.95
701.337	32.56
701.742	33.15
702.147	33.75
702.552	34.33
702.957	34.88
703.362	35.42
703.767	35.95
704.172	36.48
704.577	37.04
704.981	37.56
705.386	38.05
705.791	38.53
706.195	39.04
706.6	39.51
707.004	39.97
707.408	40.46
707.813	40.93
708.217	41.41
708.621	41.88
709.025	42.29
709.43	42.7
709.834	43.16
710.237	43.59
710.641	44.03
711.045	44.43
711.449	44.86
711.853	45.27
712.256	45.67
712.66	46.06
713.064	46.41
713.467	46.8
713.87	47.21
714.274	47.54
714.677	47.91
715.08	48.27
715.484	48.66
715.887	49.02
716.29	49.33
716.693	49.66
717.096	49.99
717.499	50.35
717.901	50.68
718.304	50.97
718.707	51.27
719.109	51.56
719.512	51.82
719.915	52.08
720.317	52.32
720.719	52.59
721.122	52.86
721.524	53.11
721.926	53.34
722.328	53.58
722.731	53.81
723.133	54.06
723.535	54.24
723.937	54.46
724.338	54.66
724.74	54.87
725.142	55.09
725.544	55.25
725.945	55.41
726.347	55.57
726.748	55.69
727.15	55.85
727.551	56.02
727.952	56.18
728.354	56.32
728.755	56.44
729.156	56.6
729.557	56.7
729.958	56.84
730.359	56.98
730.76	57.1
731.161	57.26
731.562	57.4
731.962	57.47
732.363	57.59
732.763	57.69
733.164	57.8
733.564	57.88
733.965	57.95
734.365	58.05
734.766	58.13
735.166	58.2
735.566	58.23
735.966	58.28
736.366	58.35
736.766	58.39
737.166	58.46
737.566	58.53
737.966	58.59
738.365	58.66
738.765	58.74
739.165	58.8
739.564	58.89
739.964	58.95
740.363	58.98
740.763	59.01
741.162	59.08
741.561	59.15
741.96	59.16
742.36	59.19
742.759	59.22
743.158	59.24
743.557	59.26
743.955	59.26
744.354	59.3
744.753	59.36
745.152	59.44
745.55	59.48
745.949	59.52
746.348	59.6
746.746	59.65
747.144	59.7
747.543	59.73
747.941	59.78
748.339	59.82
748.737	59.83
749.136	59.85
749.534	59.84
749.932	59.84
750.33	59.83
750.727	59.84
751.125	59.83
751.523	59.84
751.921	59.82
752.318	59.81
752.716	59.81
753.113	59.81
753.511	59.79
753.908	59.81
754.305	59.81
754.703	59.78
755.1	59.75
755.497	59.76
755.894	59.73
756.291	59.73
756.688	59.7
757.085	59.71
757.482	59.71
757.878	59.71
758.275	59.67
758.672	59.66
759.068	59.7
759.465	59.7
759.861	59.68
760.258	59.72
760.654	59.72
761.05	59.72
761.447	59.71
761.843	59.69
762.239	59.69
762.635	59.69
763.031	59.68
763.427	59.66
763.822	59.66
764.218	59.68
764.614	59.65
765.01	59.64
765.405	59.64
765.801	59.6
766.196	59.62
766.592	59.59
766.987	59.59
767.382	59.57
767.778	59.59
768.173	59.59
768.568	59.55
768.963	59.54
769.358	59.55
769.753	59.59
770.148	59.61
770.542	59.6
770.937	59.63
771.332	59.64
771.726	59.66
772.121	59.63
772.515	59.65
772.91	59.65
773.304	59.68
773.699	59.69
774.093	59.66
774.487	59.67
774.881	59.68
775.275	59.69
775.669	59.67
776.063	59.66
776.457	59.69
776.851	59.66
777.245	59.65
777.638	59.65
778.032	59.64
778.425	59.66
778.819	59.64
779.212	59.65
779.606	59.64
779.999	59.66
780.392	59.68
