Data from N_3_DEC_NC_4N_Splice17_14-00-58-789.txt Node
Date: Sat Mar 07 14:00:58 EST 2020
User: sa697716
Spectrometer: NQ5500242
Trigger mode: 0
Integration Time (sec): 1.450000E-1
Scans to average: 20
Nonlinearity correction enabled: false
Boxcar width: 5
Storing dark spectrum: false
XAxis mode: Wavelengths
Number of Pixels in Spectrum: 512
>>>>>Begin Spectral Data<<<<<
187.83	152.58
188.298	158.16
188.766	140.66
189.233	109.47
189.701	119.86
190.169	141.32
190.636	145.93
191.104	172.51
191.571	157.93
192.039	100.88
192.506	-96.92
192.974	138.63
193.441	138.97
193.908	41.97
194.375	26.1
194.842	17.02
195.31	44.14
195.777	-104
196.244	28.85
196.711	41.08
197.177	44.62
197.644	44.17
198.111	43.83
198.578	44.51
199.045	44.87
199.511	44.69
199.978	44.7
200.445	45
200.911	45.43
201.378	45.27
201.844	45.37
202.31	45.21
202.777	45.32
203.243	45.15
203.709	44.77
204.176	44.39
204.642	44.31
205.108	44.37
205.574	43.96
206.04	43.32
206.506	43.11
206.972	42.87
207.438	42.14
207.903	41.62
208.369	40.97
208.835	40.29
209.301	39.41
209.766	38.25
210.232	37.17
210.697	36.18
211.163	35.16
211.628	34.31
212.094	33.41
212.559	32.79
213.024	31.99
213.49	31.2
213.955	30.58
214.42	30.03
214.885	29.36
215.35	28.3
215.815	27.08
216.28	25.53
216.745	23.62
217.21	21.71
217.675	20.11
218.14	18.62
218.604	17.33
219.069	16.28
219.534	15.31
219.998	14.49
220.463	13.82
220.927	13.22
221.392	12.76
221.856	12.42
222.32	12.11
222.785	11.78
223.249	11.52
223.713	11.3
224.177	11.07
224.642	10.88
225.106	10.68
225.57	10.51
226.034	10.36
226.497	10.21
226.961	10.06
227.425	9.93
227.889	9.8
228.353	9.68
228.816	9.56
229.28	9.44
229.744	9.33
230.207	9.21
230.671	9.1
231.134	8.99
231.597	8.9
232.061	8.81
232.524	8.72
232.987	8.63
233.45	8.56
233.914	8.47
234.377	8.38
234.84	8.3
235.303	8.25
235.766	8.19
236.229	8.11
236.691	8.04
237.154	7.99
237.617	7.93
238.08	7.87
238.542	7.79
239.005	7.74
239.468	7.68
239.93	7.64
240.393	7.59
240.855	7.52
241.317	7.47
241.78	7.42
242.242	7.36
242.704	7.31
243.166	7.26
243.629	7.23
244.091	7.17
244.553	7.12
245.015	7.07
245.477	7.01
245.939	6.97
246.4	6.92
246.862	6.88
247.324	6.83
247.786	6.77
248.247	6.72
248.709	6.66
249.17	6.62
249.632	6.59
250.093	6.56
250.555	6.52
251.016	6.49
251.477	6.45
251.939	6.42
252.4	6.39
252.861	6.37
253.322	6.34
253.783	6.31
254.244	6.27
254.705	6.23
255.166	6.2
255.627	6.17
256.088	6.15
256.549	6.13
257.009	6.09
257.47	6.05
257.931	6.02
258.391	5.98
258.852	5.96
259.312	5.94
259.773	5.91
260.233	5.89
260.694	5.86
261.154	5.84
261.614	5.82
262.074	5.79
262.534	5.77
262.994	5.75
263.455	5.73
263.915	5.72
264.374	5.7
264.834	5.7
265.294	5.68
265.754	5.66
266.214	5.66
266.673	5.64
267.133	5.64
267.593	5.64
268.052	5.64
268.512	5.63
268.971	5.62
269.431	5.61
269.89	5.6
270.349	5.59
270.809	5.58
271.268	5.58
271.727	5.57
272.186	5.56
272.645	5.55
273.104	5.54
273.563	5.53
274.022	5.53
274.481	5.53
274.94	5.53
275.399	5.52
275.857	5.51
276.316	5.5
276.775	5.49
277.233	5.49
277.692	5.48
278.15	5.47
278.609	5.46
279.067	5.46
279.525	5.45
279.984	5.44
280.442	5.43
280.9	5.43
281.358	5.42
281.816	5.41
282.274	5.4
282.732	5.39
283.19	5.37
283.648	5.36
284.106	5.34
284.564	5.33
285.021	5.32
285.479	5.32
285.937	5.3
286.394	5.29
286.852	5.27
287.309	5.27
287.767	5.27
288.224	5.26
288.682	5.25
289.139	5.24
289.596	5.24
290.053	5.22
290.511	5.2
290.968	5.19
291.425	5.17
291.882	5.17
292.339	5.15
292.796	5.14
293.252	5.12
293.709	5.1
294.166	5.1
294.623	5.08
295.079	5.08
295.536	5.07
295.992	5.07
296.449	5.06
296.905	5.05
297.362	5.05
297.818	5.03
298.274	5.03
298.731	5.03
299.187	5.02
299.643	5.02
300.099	5.01
300.555	5.01
301.011	5
301.467	4.99
301.923	4.98
302.379	4.98
302.835	4.98
303.291	4.97
303.746	4.97
304.202	4.96
304.658	4.95
305.113	4.95
305.569	4.94
306.024	4.94
306.479	4.92
306.935	4.91
307.39	4.9
307.845	4.9
308.301	4.9
308.756	4.89
309.211	4.88
309.666	4.89
310.121	4.89
310.576	4.89
311.031	4.89
311.486	4.89
311.94	4.9
312.395	4.9
312.85	4.9
313.305	4.89
313.759	4.9
314.214	4.9
314.668	4.89
315.123	4.89
315.577	4.9
316.032	4.9
316.486	4.89
316.94	4.89
317.394	4.89
317.849	4.87
318.303	4.87
318.757	4.86
319.211	4.85
319.665	4.84
320.119	4.82
320.572	4.79
321.026	4.77
321.48	4.76
321.934	4.75
322.387	4.73
322.841	4.73
323.295	4.73
323.748	4.71
324.202	4.71
324.655	4.71
325.108	4.72
325.562	4.72
326.015	4.73
326.468	4.74
326.921	4.74
327.374	4.73
327.827	4.73
328.28	4.72
328.733	4.73
329.186	4.72
329.639	4.72
330.092	4.71
330.545	4.71
330.997	4.69
331.45	4.69
331.903	4.7
332.355	4.71
332.808	4.71
333.26	4.71
333.713	4.71
334.165	4.7
334.617	4.71
335.069	4.7
335.522	4.71
335.974	4.73
336.426	4.72
336.878	4.72
337.33	4.71
337.782	4.71
338.234	4.71
338.686	4.72
339.137	4.73
339.589	4.73
340.041	4.73
340.493	4.72
340.944	4.7
341.396	4.7
341.847	4.69
342.299	4.68
342.75	4.67
343.201	4.66
343.653	4.65
344.104	4.63
344.555	4.62
345.006	4.61
345.457	4.61
345.908	4.61
346.359	4.6
346.81	4.61
347.261	4.6
347.712	4.6
348.163	4.59
348.613	4.6
349.064	4.6
349.515	4.6
349.965	4.6
350.416	4.59
350.866	4.59
351.317	4.58
351.767	4.58
352.217	4.58
352.668	4.58
353.118	4.6
353.568	4.59
354.018	4.59
354.468	4.6
354.918	4.6
355.368	4.61
355.818	4.62
356.268	4.63
356.718	4.65
357.168	4.64
357.617	4.65
358.067	4.64
358.517	4.66
358.966	4.66
359.416	4.66
359.865	4.66
360.315	4.67
360.764	4.68
361.213	4.67
361.663	4.66
362.112	4.68
362.561	4.68
363.01	4.69
363.459	4.69
363.908	4.69
364.357	4.7
364.806	4.7
365.255	4.7
365.703	4.72
366.152	4.73
366.601	4.74
367.05	4.75
367.498	4.75
367.947	4.75
368.395	4.77
368.844	4.78
369.292	4.78
369.74	4.8
370.189	4.8
370.637	4.8
371.085	4.8
371.533	4.8
371.981	4.81
372.429	4.82
372.877	4.84
373.325	4.84
373.773	4.85
374.221	4.86
374.669	4.87
375.116	4.88
375.564	4.89
376.012	4.91
376.459	4.93
376.907	4.95
377.354	4.96
377.801	4.99
378.249	5.01
378.696	5.04
379.143	5.06
379.591	5.08
380.038	5.1
380.485	5.13
380.932	5.15
381.379	5.18
381.826	5.21
382.273	5.23
382.72	5.24
383.166	5.27
383.613	5.28
384.06	5.31
384.506	5.33
384.953	5.36
385.4	5.38
385.846	5.42
386.292	5.44
386.739	5.47
387.185	5.51
387.631	5.55
388.078	5.59
388.524	5.62
388.97	5.66
389.416	5.71
389.862	5.75
390.308	5.79
390.754	5.84
391.2	5.88
391.645	5.92
392.091	5.97
392.537	6.01
392.983	6.05
393.428	6.1
393.874	6.14
394.319	6.18
394.765	6.23
395.21	6.26
395.655	6.29
396.101	6.32
396.546	6.36
396.991	6.41
397.436	6.44
397.881	6.48
398.326	6.53
398.771	6.57
399.216	6.6
399.661	6.64
400.106	6.68
400.551	6.71
400.995	6.73
401.44	6.75
401.885	6.77
402.329	6.8
402.774	6.82
403.218	6.85
403.663	6.88
404.107	6.91
404.551	6.92
404.995	6.94
405.44	6.95
405.884	6.98
406.328	7.01
406.772	7
407.216	7.02
407.66	7.02
408.104	7.02
408.547	7.01
408.991	7.02
409.435	7.02
409.879	7.02
410.322	7.04
410.766	7.05
411.209	7.07
411.653	7.1
412.096	7.12
412.54	7.15
412.983	7.16
413.426	7.19
413.869	7.21
414.312	7.24
414.756	7.27
415.199	7.29
415.642	7.29
416.085	7.31
416.527	7.3
416.97	7.3
417.413	7.29
417.856	7.31
418.298	7.32
418.741	7.32
419.184	7.31
419.626	7.31
420.069	7.32
420.511	7.32
420.953	7.32
421.396	7.33
421.838	7.33
422.28	7.35
422.722	7.35
423.164	7.35
423.606	7.35
424.048	7.36
424.49	7.36
424.932	7.35
425.374	7.32
425.816	7.3
426.258	7.29
426.699	7.26
427.141	7.23
427.582	7.21
428.024	7.2
428.465	7.19
428.907	7.15
429.348	7.12
429.789	7.12
430.231	7.13
430.672	7.13
431.113	7.14
431.554	7.14
431.995	7.14
432.436	7.15
432.877	7.15
433.318	7.16
433.759	7.19
434.2	7.2
434.64	7.21
435.081	7.21
435.522	7.22
435.962	7.23
436.403	7.26
436.843	7.29
437.284	7.28
437.724	7.27
438.164	7.28
438.604	7.27
439.045	7.29
439.485	7.31
439.925	7.31
440.365	7.33
440.805	7.34
441.245	7.36
441.685	7.38
442.125	7.42
442.564	7.46
443.004	7.47
443.444	7.51
443.883	7.53
444.323	7.53
444.762	7.56
445.202	7.59
445.641	7.62
446.081	7.64
446.52	7.67
446.959	7.72
447.398	7.76
447.837	7.81
448.276	7.84
448.716	7.86
449.154	7.91
449.593	7.95
450.032	7.98
450.471	7.99
450.91	7.99
451.349	8.01
451.787	8.01
452.226	8.01
452.664	8.01
453.103	8.02
453.541	8.02
453.98	8.03
454.418	8.03
454.856	8.01
455.295	8.02
455.733	8
456.171	8
456.609	7.99
457.047	7.97
457.485	7.98
457.923	7.97
458.361	7.95
458.798	7.94
459.236	7.94
459.674	7.93
460.111	7.91
460.549	7.92
460.987	7.92
461.424	7.92
461.862	7.92
462.299	7.91
462.736	7.91
463.173	7.92
463.611	7.93
464.048	7.93
464.485	7.94
464.922	7.93
465.359	7.92
465.796	7.93
466.233	7.93
466.67	7.93
467.106	7.93
467.543	7.93
467.98	7.92
468.416	7.91
468.853	7.91
469.29	7.91
469.726	7.92
470.162	7.93
470.599	7.92
471.035	7.92
471.471	7.92
471.907	7.92
472.344	7.93
472.78	7.95
473.216	7.95
473.652	7.96
474.088	7.96
474.523	7.98
474.959	7.99
475.395	8
475.831	8.01
476.266	8.02
476.702	8.02
477.138	8.02
477.573	8.03
478.008	8.04
478.444	8.03
478.879	8.05
479.314	8.05
479.75	8.06
480.185	8.06
480.62	8.06
481.055	8.05
481.49	8.07
481.925	8.07
482.36	8.09
482.795	8.09
483.229	8.11
483.664	8.13
484.099	8.13
484.534	8.14
484.968	8.15
485.403	8.18
485.837	8.21
486.271	8.24
486.706	8.27
487.14	8.29
487.574	8.33
488.009	8.36
488.443	8.39
488.877	8.44
489.311	8.49
489.745	8.55
490.179	8.61
490.613	8.65
491.046	8.7
491.48	8.77
491.914	8.83
492.348	8.89
492.781	8.96
493.215	9.04
493.648	9.11
494.082	9.19
494.515	9.26
494.948	9.34
495.382	9.42
495.815	9.51
496.248	9.61
496.681	9.71
497.114	9.8
497.547	9.9
497.98	10
498.413	10.1
498.846	10.21
499.279	10.33
499.711	10.44
500.144	10.59
500.577	10.72
501.009	10.84
501.442	10.98
501.874	11.13
502.306	11.28
502.739	11.44
503.171	11.6
503.603	11.77
504.036	11.92
504.468	12.09
504.9	12.25
505.332	12.42
505.764	12.6
506.196	12.78
506.627	12.97
507.059	13.15
507.491	13.33
507.923	13.53
508.354	13.73
508.786	13.95
509.217	14.16
509.649	14.38
510.08	14.59
510.512	14.8
510.943	15.02
511.374	15.23
511.805	15.45
512.237	15.68
512.668	15.9
513.099	16.11
513.53	16.32
513.961	16.55
514.391	16.78
514.822	17.02
515.253	17.24
515.684	17.47
516.114	17.69
516.545	17.91
516.975	18.11
517.406	18.32
517.836	18.54
518.267	18.76
518.697	18.95
519.127	19.14
519.558	19.35
519.988	19.56
520.418	19.75
520.848	19.94
521.278	20.14
521.708	20.48
522.138	20.68
522.567	20.85
522.997	21.02
523.427	21.2
523.857	21.35
524.286	21.49
524.716	21.64
525.145	21.79
525.575	21.95
526.004	22.09
526.433	22.07
526.863	22.17
527.292	22.3
527.721	22.41
528.15	22.52
528.579	22.64
529.008	22.75
529.437	22.84
529.866	22.92
530.295	23.01
530.724	23.09
531.152	23.17
531.581	23.26
532.01	23.33
532.438	23.4
532.867	23.49
533.295	23.55
533.723	23.6
534.152	23.66
534.58	23.72
535.008	23.75
535.436	23.78
535.865	23.81
536.293	23.85
536.721	23.88
537.149	23.91
537.576	23.94
538.004	23.98
538.432	24
538.86	24.02
539.287	24.04
539.715	24.08
540.143	24.1
540.57	24.12
540.998	24.12
541.425	24.16
541.852	24.18
542.28	24.2
542.707	24.21
543.134	24.22
543.561	24.26
543.988	24.27
544.415	24.28
544.842	24.29
545.269	24.31
545.696	24.34
546.123	24.34
546.549	24.35
546.976	24.36
547.403	24.38
547.829	24.38
548.256	24.4
548.682	24.41
549.108	24.44
549.535	24.47
549.961	24.48
550.387	24.51
550.813	24.52
551.24	24.53
551.666	24.54
552.092	24.54
552.518	24.56
552.943	24.55
553.369	24.55
553.795	24.53
554.221	24.52
554.646	24.51
555.072	24.49
555.498	24.47
555.923	24.43
556.349	24.4
556.774	24.38
557.199	24.35
557.625	24.32
558.05	24.28
558.475	24.24
558.9	24.2
559.325	24.16
559.75	24.1
560.175	24.05
560.6	24.01
561.025	23.96
561.449	23.9
561.874	23.84
562.299	23.77
562.723	23.71
563.148	23.63
563.572	23.55
563.997	23.47
564.421	23.4
564.846	23.32
565.27	23.22
565.694	23.13
566.118	23.04
566.542	22.95
566.966	22.84
567.39	22.74
567.814	22.64
568.238	22.53
568.662	22.43
569.086	22.33
569.509	22.23
569.933	22.14
570.357	22.03
570.78	21.93
571.204	21.83
571.627	21.74
572.05	21.64
572.474	21.56
572.897	21.49
573.32	21.41
573.743	21.33
574.166	21.25
574.589	21.17
575.012	21.09
575.435	21.01
575.858	20.93
576.281	20.86
576.704	20.79
577.126	20.72
577.549	20.65
577.972	20.57
578.394	20.5
578.817	20.44
579.239	20.38
579.661	20.33
580.084	20.29
580.506	20.25
580.928	20.19
581.35	20.15
581.772	20.09
582.194	20.03
582.616	20
583.038	19.94
583.46	19.89
583.882	19.84
584.303	19.78
584.725	19.72
585.147	19.68
585.568	19.65
585.99	19.59
586.411	19.55
586.833	19.49
587.254	19.44
587.675	19.4
588.096	19.36
588.518	19.31
588.939	19.27
589.36	19.23
589.781	19.18
590.202	19.15
590.623	19.11
591.043	19.07
591.464	19.06
591.885	19.02
592.305	18.99
592.726	18.97
593.147	18.95
593.567	18.92
593.987	18.89
594.408	18.86
594.828	18.82
595.248	18.8
595.669	18.77
596.089	18.74
596.509	18.72
596.929	18.7
597.349	18.67
597.769	18.63
598.189	18.61
598.608	18.58
599.028	18.56
599.448	18.53
599.867	18.5
600.287	18.47
600.706	18.45
601.126	18.41
601.545	18.38
601.965	18.35
602.384	18.31
602.803	18.27
603.222	18.23
603.641	18.19
604.061	18.16
604.48	18.13
604.898	18.08
605.317	18.04
605.736	17.99
606.155	17.93
606.574	17.88
606.992	17.84
607.411	17.8
607.829	17.74
608.248	17.67
608.666	17.61
609.085	17.56
609.503	17.51
609.921	17.43
610.339	17.39
610.758	17.33
611.176	17.27
611.594	17.22
612.012	17.16
612.43	17.1
612.847	17.05
613.265	16.98
613.683	16.93
614.101	16.87
614.518	16.82
614.936	16.75
615.353	16.69
615.771	16.64
616.188	16.59
616.606	16.54
617.023	16.49
617.44	16.45
617.857	16.41
618.274	16.36
618.691	16.32
619.108	16.27
619.525	16.23
619.942	16.21
620.359	16.18
620.776	16.14
621.192	16.12
621.609	16.1
622.026	16.07
622.442	16.05
622.859	16.02
623.275	16
623.691	15.99
624.108	15.98
624.524	15.96
624.94	15.95
625.356	15.93
625.772	15.91
626.188	15.89
626.604	15.89
627.02	15.87
627.436	15.87
627.852	15.86
628.268	15.85
628.683	15.84
629.099	15.82
629.514	15.8
629.93	15.79
630.345	15.77
630.761	15.74
631.176	15.71
631.591	15.68
632.007	15.64
632.422	15.59
632.837	15.55
633.252	15.49
633.667	15.44
634.082	15.36
634.497	15.29
634.911	15.21
635.326	15.13
635.741	15.05
636.155	14.96
636.57	14.87
636.984	14.79
637.399	14.68
637.813	14.57
638.228	14.45
638.642	14.34
639.056	14.23
639.47	14.12
639.884	14
640.298	13.86
640.712	13.74
641.126	13.6
641.54	13.47
641.954	13.34
642.368	13.23
642.781	13.11
643.195	12.99
643.609	12.88
644.022	12.77
644.436	12.66
644.849	12.55
645.262	12.45
645.676	12.36
646.089	12.27
646.502	12.18
646.915	12.11
647.328	12.03
647.741	11.95
648.154	11.88
648.567	11.81
648.98	11.75
649.393	11.71
649.805	11.67
650.218	11.61
650.631	11.58
651.043	11.54
651.456	11.5
651.868	11.45
652.28	11.42
652.693	11.38
653.105	11.34
653.517	11.3
653.929	11.25
654.341	11.2
654.753	11.14
655.165	11.07
655.577	11
655.989	10.92
656.401	10.84
656.813	10.77
657.224	10.67
657.636	10.57
658.047	10.47
658.459	10.36
658.87	10.25
659.282	10.15
659.693	10.05
660.104	9.94
660.515	9.84
660.926	9.75
661.338	9.63
661.749	9.54
662.159	9.45
662.57	9.36
662.981	9.28
663.392	9.18
663.803	9.09
664.213	9
664.624	8.92
665.035	8.84
665.445	8.76
665.855	8.7
666.266	8.63
666.676	8.57
667.086	8.51
667.497	8.45
667.907	8.41
668.317	8.37
668.727	8.34
669.137	8.3
669.547	8.26
669.956	8.23
670.366	8.2
670.776	8.16
671.186	8.14
671.595	8.11
672.005	8.11
672.414	8.1
672.824	8.08
673.233	8.08
673.642	8.08
674.052	8.08
674.461	8.08
674.87	8.09
675.279	8.12
675.688	8.14
676.097	8.17
676.506	8.2
676.915	8.23
677.323	8.28
677.732	8.31
678.141	8.36
678.549	8.41
678.958	8.48
679.366	8.56
679.775	8.63
680.183	8.73
680.592	8.84
681	8.97
681.408	9.11
681.816	9.26
682.224	9.45
682.632	9.63
683.04	9.83
683.448	10.05
683.856	10.28
684.264	10.53
684.671	10.79
685.079	11.06
685.487	11.35
685.894	11.67
686.302	12.01
686.709	12.35
687.116	12.71
687.524	13.1
687.931	13.5
688.338	13.91
688.745	14.33
689.152	14.77
689.559	15.22
689.966	15.68
690.373	16.12
690.78	16.57
691.187	17
691.593	17.46
692	17.92
692.407	18.37
692.813	18.81
693.22	19.24
693.626	19.67
694.032	20.1
694.439	20.51
694.845	20.94
695.251	21.35
695.657	21.74
696.063	22.14
696.469	22.53
696.875	22.9
697.281	23.27
697.687	23.63
698.093	23.98
698.498	24.31
698.904	24.65
699.31	24.96
699.715	25.29
700.12	25.6
700.526	25.9
700.931	26.18
701.337	26.46
701.742	26.74
702.147	27
702.552	27.26
702.957	27.5
703.362	27.73
703.767	27.95
704.172	28.17
704.577	28.38
704.981	28.59
705.386	28.79
705.791	29
706.195	29.21
706.6	29.41
707.004	29.59
707.408	29.78
707.813	29.95
708.217	30.12
708.621	30.32
709.025	30.47
709.43	30.63
709.834	30.79
710.237	30.94
710.641	31.08
711.045	31.2
711.449	31.36
711.853	31.52
712.256	31.67
712.66	31.82
713.064	31.95
713.467	32.08
713.87	32.23
714.274	32.34
714.677	32.47
715.08	32.59
715.484	32.72
715.887	32.84
716.29	32.93
716.693	33.03
717.096	33.14
717.499	33.24
717.901	33.35
718.304	33.44
718.707	33.55
719.109	33.64
719.512	33.72
719.915	33.81
720.317	33.88
720.719	33.95
721.122	34.02
721.524	34.1
721.926	34.16
722.328	34.24
722.731	34.28
723.133	34.35
723.535	34.43
723.937	34.5
724.338	34.54
724.74	34.61
725.142	34.75
725.544	34.8
725.945	34.85
726.347	34.91
726.748	34.97
727.15	35.02
727.551	35.07
727.952	35.12
728.354	35.18
728.755	35.23
729.156	35.26
729.557	35.23
729.958	35.27
730.359	35.31
730.76	35.35
731.161	35.36
731.562	35.41
731.962	35.4
732.363	35.43
732.763	35.46
733.164	35.48
733.564	35.5
733.965	35.52
734.365	35.56
734.766	35.57
735.166	35.59
735.566	35.6
735.966	35.64
736.366	35.66
736.766	35.67
737.166	35.69
737.566	35.71
737.966	35.72
738.365	35.73
738.765	35.75
739.165	35.76
739.564	35.77
739.964	35.79
740.363	35.75
740.763	35.78
741.162	35.79
741.561	35.76
741.96	35.76
742.36	35.78
742.759	35.81
743.158	35.8
743.557	35.8
743.955	35.82
744.354	35.84
744.753	35.88
745.152	35.89
745.55	35.92
745.949	35.96
746.348	35.99
746.746	35.99
747.144	36.02
747.543	36.02
747.941	36.04
748.339	36.03
748.737	36.04
749.136	36.03
749.534	36.02
749.932	36.01
750.33	36
750.727	36.01
751.125	35.99
751.523	35.96
751.921	35.96
752.318	35.97
752.716	35.99
753.113	36
753.511	36.01
753.908	36.05
754.305	36.05
754.703	36.03
755.1	36.03
755.497	36.04
755.894	36.03
756.291	36.03
756.688	36
757.085	36.01
757.482	35.99
757.878	35.98
758.275	35.95
758.672	35.94
759.068	35.95
759.465	35.94
759.861	35.95
760.258	35.98
760.654	35.96
761.05	35.99
761.447	35.98
761.843	35.96
762.239	35.95
762.635	35.96
763.031	35.95
763.427	35.92
763.822	35.93
764.218	35.93
764.614	35.92
765.01	35.93
765.405	35.92
765.801	35.91
766.196	35.93
766.592	35.92
766.987	35.9
767.382	35.92
767.778	35.93
768.173	35.93
768.568	35.92
768.963	35.89
769.358	35.88
769.753	35.87
770.148	35.87
770.542	35.86
770.937	35.86
771.332	35.88
771.726	35.87
772.121	35.86
772.515	35.83
772.91	35.81
773.304	35.81
773.699	35.82
774.093	35.82
774.487	35.81
774.881	35.82
775.275	35.81
775.669	35.78
776.063	35.75
776.457	35.76
776.851	35.78
777.245	35.77
777.638	35.76
778.032	35.76
778.425	35.79
778.819	35.8
779.212	35.8
779.606	35.82
779.999	35.82
780.392	35.85
780.786	35.85
