Data from N_3_HIR_IL_4N_Splice17_14-29-09-028.txt Node
Date: Sat Mar 07 14:29:09 EST 2020
User: sa697716
Spectrometer: NQ5500242
Trigger mode: 0
Integration Time (sec): 1.450000E-1
Scans to average: 20
Nonlinearity correction enabled: false
Boxcar width: 5
Storing dark spectrum: false
XAxis mode: Wavelengths
Number of Pixels in Spectrum: 512
>>>>>Begin Spectral Data<<<<<
187.83	161.78
188.298	203.43
188.766	181.12
189.233	145.62
189.701	149.63
190.169	159.31
190.636	193.42
191.104	267.21
191.571	389.41
192.039	217.28
192.506	275.46
192.974	-11.7
193.441	183.18
193.908	153.83
194.375	105.88
194.842	60.82
195.31	51.1
195.777	73.21
196.244	52.13
196.711	63.22
197.177	65.17
197.644	64.86
198.111	65.13
198.578	65.67
199.045	65.76
199.511	65.57
199.978	65.84
200.445	66.18
200.911	65.99
201.378	66.24
201.844	66.26
202.31	66.23
202.777	66.42
203.243	66.47
203.709	65.87
204.176	65.27
204.642	65.06
205.108	64.64
205.574	64.22
206.04	63.94
206.506	63.23
206.972	62.79
207.438	62.1
207.903	61.07
208.369	59.6
208.835	58.35
209.301	57.1
209.766	55.29
210.232	53.71
210.697	52.06
211.163	50.55
211.628	49.46
212.094	48.05
212.559	46.81
213.024	45.49
213.49	44.63
213.955	43.61
214.42	42.56
214.885	41.29
215.35	39.7
215.815	37.56
216.28	35.08
216.745	32.08
217.21	29.23
217.675	26.58
218.14	24.34
218.604	22.29
219.069	20.59
219.534	19.08
219.998	17.99
220.463	17.01
220.927	16.12
221.392	15.44
221.856	14.88
222.32	14.43
222.785	14.01
223.249	13.62
223.713	13.29
224.177	13
224.642	12.75
225.106	12.44
225.57	12.19
226.034	11.99
226.497	11.76
226.961	11.56
227.425	11.34
227.889	11.16
228.353	10.98
228.816	10.8
229.28	10.62
229.744	10.46
230.207	10.32
230.671	10.15
231.134	10.01
231.597	9.88
232.061	9.75
232.524	9.63
232.987	9.49
233.45	9.39
233.914	9.27
234.377	9.16
234.84	9.07
235.303	8.98
235.766	8.9
236.229	8.81
236.691	8.71
237.154	8.63
237.617	8.55
238.08	8.47
238.542	8.38
239.005	8.32
239.468	8.24
239.93	8.16
240.393	8.1
240.855	8.02
241.317	7.96
241.78	7.89
242.242	7.82
242.704	7.75
243.166	7.68
243.629	7.62
244.091	7.55
244.553	7.48
245.015	7.41
245.477	7.33
245.939	7.26
246.4	7.19
246.862	7.14
247.324	7.07
247.786	7.01
248.247	6.95
248.709	6.89
249.17	6.83
249.632	6.8
250.093	6.74
250.555	6.69
251.016	6.63
251.477	6.57
251.939	6.52
252.4	6.47
252.861	6.41
253.322	6.38
253.783	6.33
254.244	6.29
254.705	6.23
255.166	6.19
255.627	6.15
256.088	6.11
256.549	6.08
257.009	6.04
257.47	5.99
257.931	5.95
258.391	5.9
258.852	5.86
259.312	5.82
259.773	5.78
260.233	5.73
260.694	5.69
261.154	5.64
261.614	5.6
262.074	5.56
262.534	5.52
262.994	5.49
263.455	5.45
263.915	5.42
264.374	5.39
264.834	5.36
265.294	5.33
265.754	5.31
266.214	5.29
266.673	5.27
267.133	5.25
267.593	5.23
268.052	5.21
268.512	5.2
268.971	5.18
269.431	5.16
269.89	5.15
270.349	5.13
270.809	5.12
271.268	5.1
271.727	5.08
272.186	5.07
272.645	5.06
273.104	5.04
273.563	5.02
274.022	5.01
274.481	5
274.94	4.99
275.399	4.97
275.857	4.95
276.316	4.94
276.775	4.93
277.233	4.92
277.692	4.91
278.15	4.9
278.609	4.9
279.067	4.88
279.525	4.87
279.984	4.86
280.442	4.85
280.9	4.85
281.358	4.85
281.816	4.84
282.274	4.83
282.732	4.81
283.19	4.8
283.648	4.79
284.106	4.78
284.564	4.77
285.021	4.77
285.479	4.76
285.937	4.75
286.394	4.73
286.852	4.73
287.309	4.71
287.767	4.7
288.224	4.69
288.682	4.67
289.139	4.65
289.596	4.63
290.053	4.61
290.511	4.59
290.968	4.57
291.425	4.55
291.882	4.53
292.339	4.51
292.796	4.49
293.252	4.48
293.709	4.46
294.166	4.45
294.623	4.44
295.079	4.43
295.536	4.42
295.992	4.41
296.449	4.4
296.905	4.39
297.362	4.38
297.818	4.37
298.274	4.37
298.731	4.36
299.187	4.34
299.643	4.33
300.099	4.32
300.555	4.31
301.011	4.3
301.467	4.29
301.923	4.27
302.379	4.27
302.835	4.27
303.291	4.26
303.746	4.25
304.202	4.25
304.658	4.24
305.113	4.23
305.569	4.23
306.024	4.23
306.479	4.22
306.935	4.22
307.39	4.22
307.845	4.21
308.301	4.21
308.756	4.21
309.211	4.22
309.666	4.22
310.121	4.22
310.576	4.22
311.031	4.22
311.486	4.22
311.94	4.22
312.395	4.22
312.85	4.23
313.305	4.23
313.759	4.23
314.214	4.23
314.668	4.22
315.123	4.22
315.577	4.22
316.032	4.22
316.486	4.21
316.94	4.21
317.394	4.2
317.849	4.19
318.303	4.17
318.757	4.15
319.211	4.15
319.665	4.13
320.119	4.12
320.572	4.1
321.026	4.1
321.48	4.09
321.934	4.08
322.387	4.08
322.841	4.07
323.295	4.07
323.748	4.07
324.202	4.06
324.655	4.06
325.108	4.07
325.562	4.07
326.015	4.07
326.468	4.07
326.921	4.07
327.374	4.06
327.827	4.06
328.28	4.06
328.733	4.07
329.186	4.07
329.639	4.07
330.092	4.08
330.545	4.08
330.997	4.07
331.45	4.08
331.903	4.08
332.355	4.1
332.808	4.1
333.26	4.11
333.713	4.11
334.165	4.11
334.617	4.12
335.069	4.12
335.522	4.13
335.974	4.14
336.426	4.14
336.878	4.13
337.33	4.12
337.782	4.13
338.234	4.12
338.686	4.12
339.137	4.12
339.589	4.11
340.041	4.12
340.493	4.1
340.944	4.08
341.396	4.08
341.847	4.08
342.299	4.06
342.75	4.04
343.201	4.03
343.653	4.02
344.104	4
344.555	3.98
345.006	3.97
345.457	3.95
345.908	3.94
346.359	3.94
346.81	3.93
347.261	3.93
347.712	3.94
348.163	3.93
348.613	3.93
349.064	3.93
349.515	3.94
349.965	3.94
350.416	3.93
350.866	3.93
351.317	3.94
351.767	3.94
352.217	3.94
352.668	3.93
353.118	3.95
353.568	3.94
354.018	3.94
354.468	3.94
354.918	3.95
355.368	3.95
355.818	3.95
356.268	3.95
356.718	3.95
357.168	3.95
357.617	3.94
358.067	3.94
358.517	3.96
358.966	3.96
359.416	3.96
359.865	3.96
360.315	3.97
360.764	3.97
361.213	3.97
361.663	3.96
362.112	3.98
362.561	3.98
363.01	3.98
363.459	3.96
363.908	3.96
364.357	3.97
364.806	3.96
365.255	3.96
365.703	3.97
366.152	3.98
366.601	3.99
367.05	3.99
367.498	3.98
367.947	3.99
368.395	4
368.844	3.99
369.292	4
369.74	4
370.189	4.01
370.637	4
371.085	3.98
371.533	3.98
371.981	3.98
372.429	3.99
372.877	4
373.325	3.99
373.773	4
374.221	4
374.669	4
375.116	4
375.564	3.99
376.012	4.01
376.459	4.01
376.907	4.02
377.354	4.02
377.801	4.03
378.249	4.04
378.696	4.04
379.143	4.04
379.591	4.04
380.038	4.06
380.485	4.07
380.932	4.08
381.379	4.1
381.826	4.1
382.273	4.11
382.72	4.11
383.166	4.12
383.613	4.13
384.06	4.14
384.506	4.15
384.953	4.16
385.4	4.17
385.846	4.19
386.292	4.19
386.739	4.2
387.185	4.22
387.631	4.24
388.078	4.26
388.524	4.27
388.97	4.29
389.416	4.32
389.862	4.34
390.308	4.37
390.754	4.39
391.2	4.41
391.645	4.44
392.091	4.48
392.537	4.5
392.983	4.52
393.428	4.55
393.874	4.59
394.319	4.6
394.765	4.62
395.21	4.63
395.655	4.65
396.101	4.68
396.546	4.71
396.991	4.73
397.436	4.76
397.881	4.8
398.326	4.83
398.771	4.86
399.216	4.9
399.661	4.95
400.106	5
400.551	5.03
400.995	5.06
401.44	5.08
401.885	5.1
402.329	5.12
402.774	5.14
403.218	5.18
403.663	5.21
404.107	5.24
404.551	5.26
404.995	5.28
405.44	5.3
405.884	5.33
406.328	5.36
406.772	5.39
407.216	5.42
407.66	5.45
408.104	5.45
408.547	5.47
408.991	5.49
409.435	5.51
409.879	5.54
410.322	5.57
410.766	5.6
411.209	5.63
411.653	5.66
412.096	5.68
412.54	5.7
412.983	5.73
413.426	5.78
413.869	5.82
414.312	5.86
414.756	5.89
415.199	5.92
415.642	5.94
416.085	5.96
416.527	5.98
416.97	6
417.413	6.02
417.856	6.02
418.298	6
418.741	6.01
419.184	6.01
419.626	6.01
420.069	6.03
420.511	6.04
420.953	6.04
421.396	6.06
421.838	6.08
422.28	6.1
422.722	6.13
423.164	6.16
423.606	6.16
424.048	6.18
424.49	6.2
424.932	6.21
425.374	6.2
425.816	6.18
426.258	6.16
426.699	6.14
427.141	6.14
427.582	6.13
428.024	6.14
428.465	6.16
428.907	6.15
429.348	6.15
429.789	6.16
430.231	6.18
430.672	6.21
431.113	6.25
431.554	6.29
431.995	6.32
432.436	6.34
432.877	6.34
433.318	6.37
433.759	6.4
434.2	6.41
434.64	6.45
435.081	6.46
435.522	6.48
435.962	6.49
436.403	6.52
436.843	6.53
437.284	6.53
437.724	6.56
438.164	6.55
438.604	6.57
439.045	6.57
439.485	6.57
439.925	6.58
440.365	6.6
440.805	6.61
441.245	6.62
441.685	6.65
442.125	6.7
442.564	6.71
443.004	6.73
443.444	6.74
443.883	6.78
444.323	6.8
444.762	6.83
445.202	6.87
445.641	6.89
446.081	6.92
446.52	6.92
446.959	6.95
447.398	6.98
447.837	7.01
448.276	7.03
448.716	7.03
449.154	7.07
449.593	7.09
450.032	7.09
450.471	7.09
450.91	7.1
451.349	7.12
451.787	7.11
452.226	7.1
452.664	7.1
453.103	7.09
453.541	7.1
453.98	7.1
454.418	7.07
454.856	7.07
455.295	7.06
455.733	7.02
456.171	7.01
456.609	6.99
457.047	6.97
457.485	6.95
457.923	6.95
458.361	6.93
458.798	6.92
459.236	6.93
459.674	6.92
460.111	6.9
460.549	6.91
460.987	6.91
461.424	6.92
461.862	6.93
462.299	6.93
462.736	6.91
463.173	6.91
463.611	6.9
464.048	6.89
464.485	6.9
464.922	6.9
465.359	6.92
465.796	6.92
466.233	6.93
466.67	6.93
467.106	6.95
467.543	6.95
467.98	6.97
468.416	6.96
468.853	6.98
469.29	6.98
469.726	6.99
470.162	6.99
470.599	7
471.035	7
471.471	7
471.907	7
472.344	7.01
472.78	7.01
473.216	7.02
473.652	7.04
474.088	7.03
474.523	7.04
474.959	7.03
475.395	7.02
475.831	7.01
476.266	7.02
476.702	7.01
477.138	7
477.573	7.03
478.008	7.02
478.444	7.01
478.879	7.01
479.314	7.01
479.75	7.01
480.185	7
480.62	7
481.055	7
481.49	6.99
481.925	7
482.36	6.98
482.795	6.97
483.229	6.97
483.664	6.97
484.099	6.96
484.534	6.95
484.968	6.96
485.403	6.97
485.837	6.98
486.271	7
486.706	7
487.14	7.02
487.574	7.04
488.009	7.06
488.443	7.07
488.877	7.1
489.311	7.12
489.745	7.14
490.179	7.17
490.613	7.2
491.046	7.22
491.48	7.26
491.914	7.29
492.348	7.33
492.781	7.38
493.215	7.43
493.648	7.48
494.082	7.52
494.515	7.57
494.948	7.62
495.382	7.67
495.815	7.73
496.248	7.8
496.681	7.86
497.114	7.92
497.547	7.98
497.98	8.06
498.413	8.13
498.846	8.22
499.279	8.3
499.711	8.38
500.144	8.48
500.577	8.56
501.009	8.65
501.442	8.75
501.874	8.85
502.306	8.95
502.739	9.07
503.171	9.18
503.603	9.29
504.036	9.41
504.468	9.54
504.9	9.67
505.332	9.82
505.764	9.96
506.196	10.11
506.627	10.26
507.059	10.41
507.491	10.57
507.923	10.74
508.354	10.91
508.786	11.08
509.217	11.25
509.649	11.44
510.08	11.61
510.512	11.8
510.943	11.97
511.374	12.15
511.805	12.34
512.237	12.53
512.668	12.73
513.099	12.93
513.53	13.13
513.961	13.35
514.391	13.55
514.822	13.77
515.253	13.97
515.684	14.19
516.114	14.4
516.545	14.63
516.975	14.85
517.406	15.07
517.836	15.27
518.267	15.5
518.697	15.69
519.127	15.87
519.558	16.06
519.988	16.27
520.418	16.46
520.848	16.67
521.278	16.86
521.708	17.15
522.138	17.33
522.567	17.51
522.997	17.67
523.427	17.87
523.857	18.05
524.286	18.22
524.716	18.38
525.145	18.55
525.575	18.7
526.004	18.84
526.433	18.87
526.863	19.02
527.292	19.16
527.721	19.29
528.15	19.39
528.579	19.51
529.008	19.63
529.437	19.74
529.866	19.84
530.295	19.95
530.724	20.04
531.152	20.14
531.581	20.24
532.01	20.32
532.438	20.4
532.867	20.49
533.295	20.58
533.723	20.64
534.152	20.69
534.58	20.76
535.008	20.79
535.436	20.85
535.865	20.9
536.293	20.93
536.721	20.96
537.149	21
537.576	21.03
538.004	21.07
538.432	21.09
538.86	21.13
539.287	21.15
539.715	21.19
540.143	21.2
540.57	21.23
540.998	21.24
541.425	21.27
541.852	21.28
542.28	21.3
542.707	21.32
543.134	21.34
543.561	21.38
543.988	21.4
544.415	21.42
544.842	21.44
545.269	21.48
545.696	21.52
546.123	21.53
546.549	21.56
546.976	21.6
547.403	21.63
547.829	21.66
548.256	21.68
548.682	21.7
549.108	21.73
549.535	21.77
549.961	21.77
550.387	21.8
550.813	21.81
551.24	21.82
551.666	21.83
552.092	21.83
552.518	21.83
552.943	21.84
553.369	21.85
553.795	21.82
554.221	21.83
554.646	21.8
555.072	21.79
555.498	21.77
555.923	21.75
556.349	21.71
556.774	21.68
557.199	21.65
557.625	21.61
558.05	21.57
558.475	21.54
558.9	21.49
559.325	21.47
559.75	21.42
560.175	21.37
560.6	21.31
561.025	21.26
561.449	21.18
561.874	21.11
562.299	21.03
562.723	20.96
563.148	20.86
563.572	20.78
563.997	20.68
564.421	20.57
564.846	20.49
565.27	20.39
565.694	20.29
566.118	20.18
566.542	20.07
566.966	19.97
567.39	19.86
567.814	19.76
568.238	19.65
568.662	19.52
569.086	19.42
569.509	19.3
569.933	19.19
570.357	19.08
570.78	18.97
571.204	18.87
571.627	18.77
572.05	18.67
572.474	18.57
572.897	18.49
573.32	18.42
573.743	18.33
574.166	18.25
574.589	18.18
575.012	18.1
575.435	18.04
575.858	17.97
576.281	17.89
576.704	17.82
577.126	17.77
577.549	17.69
577.972	17.62
578.394	17.55
578.817	17.5
579.239	17.45
579.661	17.38
580.084	17.32
580.506	17.26
580.928	17.21
581.35	17.17
581.772	17.1
582.194	17.07
582.616	17.02
583.038	16.98
583.46	16.94
583.882	16.89
584.303	16.85
584.725	16.81
585.147	16.78
585.568	16.74
585.99	16.68
586.411	16.65
586.833	16.6
587.254	16.55
587.675	16.51
588.096	16.46
588.518	16.42
588.939	16.38
589.36	16.34
589.781	16.3
590.202	16.27
590.623	16.25
591.043	16.2
591.464	16.18
591.885	16.15
592.305	16.13
592.726	16.12
593.147	16.1
593.567	16.08
593.987	16.06
594.408	16.03
594.828	16
595.248	15.98
595.669	15.97
596.089	15.95
596.509	15.92
596.929	15.9
597.349	15.86
597.769	15.84
598.189	15.8
598.608	15.77
599.028	15.75
599.448	15.72
599.867	15.68
600.287	15.65
600.706	15.6
601.126	15.56
601.545	15.52
601.965	15.48
602.384	15.44
602.803	15.41
603.222	15.37
603.641	15.33
604.061	15.29
604.48	15.23
604.898	15.18
605.317	15.14
605.736	15.1
606.155	15.05
606.574	14.99
606.992	14.93
607.411	14.88
607.829	14.79
608.248	14.72
608.666	14.66
609.085	14.62
609.503	14.55
609.921	14.5
610.339	14.45
610.758	14.39
611.176	14.31
611.594	14.26
612.012	14.21
612.43	14.19
612.847	14.14
613.265	14.08
613.683	14.02
614.101	13.96
614.518	13.91
614.936	13.85
615.353	13.79
615.771	13.77
616.188	13.72
616.606	13.67
617.023	13.63
617.44	13.58
617.857	13.55
618.274	13.52
618.691	13.48
619.108	13.45
619.525	13.42
619.942	13.39
620.359	13.35
620.776	13.32
621.192	13.29
621.609	13.25
622.026	13.23
622.442	13.2
622.859	13.17
623.275	13.15
623.691	13.14
624.108	13.12
624.524	13.12
624.94	13.11
625.356	13.09
625.772	13.08
626.188	13.08
626.604	13.08
627.02	13.07
627.436	13.05
627.852	13.05
628.268	13.04
628.683	13.02
629.099	13
629.514	13
629.93	12.99
630.345	12.96
630.761	12.93
631.176	12.9
631.591	12.87
632.007	12.84
632.422	12.81
632.837	12.78
633.252	12.72
633.667	12.68
634.082	12.62
634.497	12.57
634.911	12.52
635.326	12.46
635.741	12.4
636.155	12.32
636.57	12.26
636.984	12.18
637.399	12.09
637.813	12.02
638.228	11.93
638.642	11.83
639.056	11.73
639.47	11.65
639.884	11.56
640.298	11.47
640.712	11.38
641.126	11.28
641.54	11.18
641.954	11.08
642.368	10.99
642.781	10.91
643.195	10.82
643.609	10.73
644.022	10.64
644.436	10.56
644.849	10.48
645.262	10.4
645.676	10.32
646.089	10.25
646.502	10.19
646.915	10.14
647.328	10.09
647.741	10.03
648.154	9.99
648.567	9.94
648.98	9.89
649.393	9.85
649.805	9.82
650.218	9.79
650.631	9.76
651.043	9.71
651.456	9.67
651.868	9.62
652.28	9.58
652.693	9.55
653.105	9.51
653.517	9.46
653.929	9.43
654.341	9.38
654.753	9.32
655.165	9.26
655.577	9.21
655.989	9.15
656.401	9.09
656.813	9.04
657.224	8.97
657.636	8.9
658.047	8.83
658.459	8.75
658.87	8.68
659.282	8.6
659.693	8.54
660.104	8.46
660.515	8.4
660.926	8.32
661.338	8.24
661.749	8.17
662.159	8.1
662.57	8.05
662.981	7.98
663.392	7.92
663.803	7.87
664.213	7.81
664.624	7.76
665.035	7.71
665.445	7.66
665.855	7.63
666.266	7.59
666.676	7.56
667.086	7.5
667.497	7.48
667.907	7.45
668.317	7.42
668.727	7.41
669.137	7.39
669.547	7.38
669.956	7.36
670.366	7.35
670.776	7.35
671.186	7.35
671.595	7.35
672.005	7.35
672.414	7.37
672.824	7.38
673.233	7.39
673.642	7.4
674.052	7.41
674.461	7.42
674.87	7.42
675.279	7.44
675.688	7.46
676.097	7.49
676.506	7.51
676.915	7.54
677.323	7.57
677.732	7.59
678.141	7.63
678.549	7.67
678.958	7.72
679.366	7.79
679.775	7.84
680.183	7.9
680.592	7.97
681	8.05
681.408	8.13
681.816	8.22
682.224	8.33
682.632	8.45
683.04	8.57
683.448	8.71
683.856	8.86
684.264	9.02
684.671	9.21
685.079	9.4
685.487	9.62
685.894	9.84
686.302	10.09
686.709	10.34
687.116	10.62
687.524	10.92
687.931	11.23
688.338	11.55
688.745	11.9
689.152	12.24
689.559	12.61
689.966	12.98
690.373	13.36
690.78	13.76
691.187	14.16
691.593	14.55
692	14.95
692.407	15.35
692.813	15.77
693.22	16.18
693.626	16.59
694.032	17.01
694.439	17.42
694.845	17.85
695.251	18.25
695.657	18.64
696.063	19.05
696.469	19.45
696.875	19.85
697.281	20.24
697.687	20.62
698.093	20.99
698.498	21.34
698.904	21.71
699.31	22.06
699.715	22.41
700.12	22.76
700.526	23.1
700.931	23.42
701.337	23.73
701.742	24.04
702.147	24.34
702.552	24.63
702.957	24.93
703.362	25.21
703.767	25.46
704.172	25.72
704.577	25.97
704.981	26.21
705.386	26.46
705.791	26.69
706.195	26.92
706.6	27.15
707.004	27.4
707.408	27.62
707.813	27.85
708.217	28.08
708.621	28.3
709.025	28.51
709.43	28.73
709.834	28.94
710.237	29.14
710.641	29.34
711.045	29.55
711.449	29.74
711.853	29.93
712.256	30.1
712.66	30.27
713.064	30.43
713.467	30.62
713.87	30.78
714.274	30.93
714.677	31.11
715.08	31.26
715.484	31.39
715.887	31.54
716.29	31.67
716.693	31.82
717.096	31.98
717.499	32.13
717.901	32.26
718.304	32.41
718.707	32.55
719.109	32.67
719.512	32.8
719.915	32.94
720.317	33.03
720.719	33.15
721.122	33.25
721.524	33.32
721.926	33.41
722.328	33.53
722.731	33.62
723.133	33.73
723.535	33.82
723.937	33.91
724.338	34
724.74	34.1
725.142	34.23
725.544	34.3
725.945	34.4
726.347	34.46
726.748	34.53
727.15	34.58
727.551	34.65
727.952	34.71
728.354	34.77
728.755	34.8
729.156	34.85
729.557	34.85
729.958	34.92
730.359	34.97
730.76	35.03
731.161	35.06
731.562	35.13
731.962	35.15
732.363	35.2
732.763	35.24
733.164	35.29
733.564	35.35
733.965	35.37
734.365	35.4
734.766	35.42
735.166	35.47
735.566	35.52
735.966	35.55
736.366	35.58
736.766	35.58
737.166	35.62
737.566	35.67
737.966	35.65
738.365	35.69
738.765	35.71
739.165	35.73
739.564	35.76
739.964	35.76
740.363	35.76
740.763	35.78
741.162	35.8
741.561	35.8
741.96	35.78
742.36	35.8
742.759	35.83
743.158	35.83
743.557	35.83
743.955	35.85
744.354	35.85
744.753	35.89
745.152	35.94
745.55	35.96
745.949	35.97
746.348	36.02
746.746	36.04
747.144	36.07
747.543	36.1
747.941	36.12
748.339	36.11
748.737	36.12
749.136	36.13
749.534	36.11
749.932	36.12
750.33	36.12
750.727	36.13
751.125	36.15
751.523	36.13
751.921	36.12
752.318	36.13
752.716	36.14
753.113	36.13
753.511	36.12
753.908	36.13
754.305	36.13
754.703	36.13
755.1	36.11
755.497	36.09
755.894	36.08
756.291	36.07
756.688	36.05
757.085	36.04
757.482	36.02
757.878	36.01
758.275	35.98
758.672	35.96
759.068	35.96
759.465	35.96
759.861	35.96
760.258	35.97
760.654	35.98
761.05	36.01
761.447	35.99
761.843	35.99
762.239	35.99
762.635	36
763.031	36.01
763.427	36
763.822	36.02
764.218	36.03
764.614	36.05
765.01	36.04
765.405	36.04
765.801	36.03
766.196	36.05
766.592	36.07
766.987	36.06
767.382	36.05
767.778	36.05
768.173	36.06
768.568	36.03
768.963	36.01
769.358	36.02
769.753	36.01
770.148	36.02
770.542	36.02
770.937	36.03
771.332	36.03
771.726	36.03
772.121	36.02
772.515	36.02
772.91	36.03
773.304	36.06
773.699	36.07
774.093	36.07
774.487	36.07
774.881	36.08
775.275	36.06
775.669	36.04
776.063	36.03
776.457	36.04
776.851	36.01
777.245	35.99
777.638	35.98
778.032	35.96
778.425	35.99
778.819	35.98
779.212	35.98
779.606	35.99
779.999	36
780.392	36.05
780.786	36.05
781.179	36.07
781.572	36.12
781.965	36.11
782.358	36.13
782.751	36.12
