Data from N_3_HIR_WI_4N_Splice17_14-07-39-708.txt Node
Date: Sat Mar 07 14:07:39 EST 2020
User: sa697716
Spectrometer: NQ5500242
Trigger mode: 0
Integration Time (sec): 1.450000E-1
Scans to average: 20
Nonlinearity correction enabled: false
Boxcar width: 5
Storing dark spectrum: false
XAxis mode: Wavelengths
Number of Pixels in Spectrum: 512
>>>>>Begin Spectral Data<<<<<
187.83	148.14
188.298	154.42
188.766	120.63
189.233	99.45
189.701	92.17
190.169	122.14
190.636	120.75
191.104	93.5
191.571	-115.91
192.039	-134.93
192.506	-22.86
192.974	83.02
193.441	172.48
193.908	-3.01
194.375	-3.55
194.842	-63.93
195.31	2.53
195.777	-38.03
196.244	46.36
196.711	57.02
197.177	61.15
197.644	62.02
198.111	62.05
198.578	62.39
199.045	63.04
199.511	62.88
199.978	63.16
200.445	63.39
200.911	63.66
201.378	64.05
201.844	64.16
202.31	63.76
202.777	64.18
203.243	64.03
203.709	63.57
204.176	63.11
204.642	62.87
205.108	62.33
205.574	61.76
206.04	60.96
206.506	60.04
206.972	59.66
207.438	59.1
207.903	57.86
208.369	56.48
208.835	55.42
209.301	54.11
209.766	52.48
210.232	50.96
210.697	49.39
211.163	47.96
211.628	46.79
212.094	45.37
212.559	44.11
213.024	42.95
213.49	42.07
213.955	40.88
214.42	39.86
214.885	38.6
215.35	37.11
215.815	34.91
216.28	32.3
216.745	29.39
217.21	26.5
217.675	23.85
218.14	21.38
218.604	19.3
219.069	17.51
219.534	15.98
219.998	14.77
220.463	13.68
220.927	12.81
221.392	12.1
221.856	11.49
222.32	10.95
222.785	10.51
223.249	10.14
223.713	9.78
224.177	9.5
224.642	9.21
225.106	8.91
225.57	8.68
226.034	8.44
226.497	8.25
226.961	8.05
227.425	7.87
227.889	7.68
228.353	7.51
228.816	7.34
229.28	7.16
229.744	7.02
230.207	6.89
230.671	6.76
231.134	6.64
231.597	6.52
232.061	6.4
232.524	6.3
232.987	6.19
233.45	6.1
233.914	6.01
234.377	5.91
234.84	5.83
235.303	5.76
235.766	5.69
236.229	5.61
236.691	5.53
237.154	5.47
237.617	5.41
238.08	5.33
238.542	5.27
239.005	5.22
239.468	5.17
239.93	5.12
240.393	5.07
240.855	5
241.317	4.95
241.78	4.9
242.242	4.84
242.704	4.79
243.166	4.75
243.629	4.72
244.091	4.65
244.553	4.59
245.015	4.53
245.477	4.47
245.939	4.43
246.4	4.38
246.862	4.34
247.324	4.3
247.786	4.25
248.247	4.21
248.709	4.15
249.17	4.11
249.632	4.09
250.093	4.06
250.555	4.03
251.016	3.99
251.477	3.96
251.939	3.93
252.4	3.9
252.861	3.87
253.322	3.85
253.783	3.83
254.244	3.8
254.705	3.77
255.166	3.75
255.627	3.73
256.088	3.71
256.549	3.67
257.009	3.64
257.47	3.62
257.931	3.59
258.391	3.55
258.852	3.51
259.312	3.48
259.773	3.45
260.233	3.41
260.694	3.37
261.154	3.33
261.614	3.3
262.074	3.26
262.534	3.23
262.994	3.2
263.455	3.17
263.915	3.14
264.374	3.11
264.834	3.09
265.294	3.07
265.754	3.05
266.214	3.03
266.673	3.01
267.133	2.99
267.593	2.98
268.052	2.97
268.512	2.96
268.971	2.95
269.431	2.94
269.89	2.92
270.349	2.91
270.809	2.9
271.268	2.88
271.727	2.87
272.186	2.86
272.645	2.85
273.104	2.83
273.563	2.82
274.022	2.81
274.481	2.8
274.94	2.8
275.399	2.79
275.857	2.78
276.316	2.77
276.775	2.77
277.233	2.77
277.692	2.76
278.15	2.76
278.609	2.76
279.067	2.75
279.525	2.76
279.984	2.76
280.442	2.75
280.9	2.76
281.358	2.76
281.816	2.76
282.274	2.76
282.732	2.76
283.19	2.76
283.648	2.76
284.106	2.76
284.564	2.76
285.021	2.76
285.479	2.76
285.937	2.76
286.394	2.75
286.852	2.75
287.309	2.74
287.767	2.73
288.224	2.73
288.682	2.71
289.139	2.7
289.596	2.68
290.053	2.66
290.511	2.64
290.968	2.63
291.425	2.61
291.882	2.6
292.339	2.59
292.796	2.57
293.252	2.56
293.709	2.55
294.166	2.54
294.623	2.54
295.079	2.53
295.536	2.53
295.992	2.52
296.449	2.51
296.905	2.51
297.362	2.5
297.818	2.49
298.274	2.49
298.731	2.48
299.187	2.47
299.643	2.46
300.099	2.46
300.555	2.45
301.011	2.45
301.467	2.44
301.923	2.43
302.379	2.43
302.835	2.43
303.291	2.43
303.746	2.43
304.202	2.44
304.658	2.45
305.113	2.45
305.569	2.46
306.024	2.46
306.479	2.46
306.935	2.46
307.39	2.47
307.845	2.47
308.301	2.47
308.756	2.48
309.211	2.47
309.666	2.48
310.121	2.49
310.576	2.49
311.031	2.5
311.486	2.5
311.94	2.51
312.395	2.51
312.85	2.51
313.305	2.52
313.759	2.52
314.214	2.52
314.668	2.51
315.123	2.51
315.577	2.5
316.032	2.5
316.486	2.49
316.94	2.49
317.394	2.48
317.849	2.47
318.303	2.46
318.757	2.45
319.211	2.44
319.665	2.42
320.119	2.41
320.572	2.4
321.026	2.39
321.48	2.39
321.934	2.38
322.387	2.37
322.841	2.37
323.295	2.37
323.748	2.37
324.202	2.36
324.655	2.36
325.108	2.37
325.562	2.38
326.015	2.37
326.468	2.37
326.921	2.37
327.374	2.38
327.827	2.38
328.28	2.38
328.733	2.38
329.186	2.39
329.639	2.39
330.092	2.38
330.545	2.39
330.997	2.39
331.45	2.41
331.903	2.42
332.355	2.43
332.808	2.43
333.26	2.43
333.713	2.43
334.165	2.43
334.617	2.45
335.069	2.45
335.522	2.45
335.974	2.46
336.426	2.46
336.878	2.46
337.33	2.46
337.782	2.47
338.234	2.47
338.686	2.48
339.137	2.49
339.589	2.48
340.041	2.49
340.493	2.48
340.944	2.47
341.396	2.46
341.847	2.45
342.299	2.43
342.75	2.43
343.201	2.41
343.653	2.4
344.104	2.38
344.555	2.37
345.006	2.35
345.457	2.35
345.908	2.35
346.359	2.35
346.81	2.35
347.261	2.35
347.712	2.34
348.163	2.33
348.613	2.33
349.064	2.34
349.515	2.35
349.965	2.36
350.416	2.35
350.866	2.35
351.317	2.36
351.767	2.36
352.217	2.37
352.668	2.38
353.118	2.39
353.568	2.4
354.018	2.41
354.468	2.42
354.918	2.43
355.368	2.45
355.818	2.47
356.268	2.48
356.718	2.49
357.168	2.5
357.617	2.52
358.067	2.53
358.517	2.56
358.966	2.59
359.416	2.62
359.865	2.65
360.315	2.68
360.764	2.71
361.213	2.74
361.663	2.78
362.112	2.83
362.561	2.88
363.01	2.94
363.459	2.98
363.908	3.04
364.357	3.1
364.806	3.16
365.255	3.23
365.703	3.32
366.152	3.41
366.601	3.5
367.05	3.59
367.498	3.69
367.947	3.8
368.395	3.92
368.844	4.03
369.292	4.14
369.74	4.27
370.189	4.39
370.637	4.52
371.085	4.64
371.533	4.76
371.981	4.9
372.429	5.04
372.877	5.18
373.325	5.32
373.773	5.47
374.221	5.62
374.669	5.77
375.116	5.93
375.564	6.07
376.012	6.23
376.459	6.39
376.907	6.56
377.354	6.72
377.801	6.88
378.249	7.04
378.696	7.19
379.143	7.35
379.591	7.5
380.038	7.66
380.485	7.82
380.932	7.96
381.379	8.11
381.826	8.25
382.273	8.38
382.72	8.51
383.166	8.64
383.613	8.78
384.06	8.89
384.506	9.01
384.953	9.14
385.4	9.26
385.846	9.37
386.292	9.48
386.739	9.59
387.185	9.7
387.631	9.82
388.078	9.91
388.524	10.01
388.97	10.11
389.416	10.2
389.862	10.29
390.308	10.37
390.754	10.44
391.2	10.51
391.645	10.56
392.091	10.63
392.537	10.69
392.983	10.73
393.428	10.79
393.874	10.83
394.319	10.86
394.765	10.87
395.21	10.87
395.655	10.89
396.101	10.92
396.546	10.93
396.991	10.93
397.436	10.93
397.881	10.96
398.326	10.97
398.771	10.97
399.216	10.97
399.661	10.98
400.106	10.97
400.551	10.96
400.995	10.93
401.44	10.89
401.885	10.87
402.329	10.84
402.774	10.8
403.218	10.76
403.663	10.73
404.107	10.7
404.551	10.66
404.995	10.63
405.44	10.58
405.884	10.55
406.328	10.52
406.772	10.47
407.216	10.43
407.66	10.38
408.104	10.33
408.547	10.29
408.991	10.26
409.435	10.22
409.879	10.18
410.322	10.16
410.766	10.14
411.209	10.12
411.653	10.1
412.096	10.08
412.54	10.08
412.983	10.06
413.426	10.06
413.869	10.04
414.312	10.02
414.756	10.01
415.199	9.98
415.642	9.96
416.085	9.94
416.527	9.92
416.97	9.88
417.413	9.83
417.856	9.79
418.298	9.74
418.741	9.71
419.184	9.7
419.626	9.67
420.069	9.65
420.511	9.63
420.953	9.62
421.396	9.6
421.838	9.59
422.28	9.6
422.722	9.6
423.164	9.59
423.606	9.59
424.048	9.56
424.49	9.55
424.932	9.52
425.374	9.47
425.816	9.41
426.258	9.37
426.699	9.33
427.141	9.3
427.582	9.28
428.024	9.27
428.465	9.25
428.907	9.24
429.348	9.21
429.789	9.2
430.231	9.22
430.672	9.24
431.113	9.25
431.554	9.27
431.995	9.28
432.436	9.28
432.877	9.3
433.318	9.31
433.759	9.34
434.2	9.39
434.64	9.42
435.081	9.44
435.522	9.47
435.962	9.51
436.403	9.57
436.843	9.61
437.284	9.65
437.724	9.69
438.164	9.72
438.604	9.77
439.045	9.82
439.485	9.88
439.925	9.93
440.365	9.98
440.805	10.04
441.245	10.1
441.685	10.17
442.125	10.28
442.564	10.36
443.004	10.43
443.444	10.52
443.883	10.6
444.323	10.69
444.762	10.8
445.202	10.91
445.641	11.01
446.081	11.13
446.52	11.22
446.959	11.35
447.398	11.45
447.837	11.57
448.276	11.67
448.716	11.77
449.154	11.89
449.593	12
450.032	12.08
450.471	12.15
450.91	12.23
451.349	12.33
451.787	12.37
452.226	12.43
452.664	12.49
453.103	12.54
453.541	12.59
453.98	12.64
454.418	12.65
454.856	12.69
455.295	12.72
455.733	12.74
456.171	12.76
456.609	12.81
457.047	12.83
457.485	12.86
457.923	12.89
458.361	12.92
458.798	12.94
459.236	12.98
459.674	13.02
460.111	13.04
460.549	13.09
460.987	13.11
461.424	13.13
461.862	13.16
462.299	13.17
462.736	13.19
463.173	13.21
463.611	13.25
464.048	13.27
464.485	13.3
464.922	13.31
465.359	13.32
465.796	13.35
466.233	13.36
466.67	13.38
467.106	13.41
467.543	13.41
467.98	13.42
468.416	13.41
468.853	13.41
469.29	13.42
469.726	13.43
470.162	13.44
470.599	13.45
471.035	13.46
471.471	13.47
471.907	13.47
472.344	13.5
472.78	13.51
473.216	13.51
473.652	13.53
474.088	13.51
474.523	13.54
474.959	13.54
475.395	13.53
475.831	13.54
476.266	13.56
476.702	13.55
477.138	13.54
477.573	13.57
478.008	13.59
478.444	13.6
478.879	13.64
479.314	13.64
479.75	13.66
480.185	13.68
480.62	13.7
481.055	13.73
481.49	13.75
481.925	13.79
482.36	13.82
482.795	13.86
483.229	13.9
483.664	13.95
484.099	14
484.534	14.05
484.968	14.13
485.403	14.2
485.837	14.28
486.271	14.38
486.706	14.47
487.14	14.57
487.574	14.67
488.009	14.79
488.443	14.89
488.877	15.02
489.311	15.16
489.745	15.31
490.179	15.46
490.613	15.63
491.046	15.79
491.48	15.96
491.914	16.14
492.348	16.32
492.781	16.5
493.215	16.71
493.648	16.92
494.082	17.12
494.515	17.34
494.948	17.57
495.382	17.8
495.815	18.04
496.248	18.3
496.681	18.56
497.114	18.82
497.547	19.09
497.98	19.36
498.413	19.63
498.846	19.92
499.279	20.21
499.711	20.49
500.144	20.77
500.577	21.07
501.009	21.35
501.442	21.64
501.874	21.94
502.306	22.25
502.739	22.57
503.171	22.89
503.603	23.2
504.036	23.53
504.468	23.85
504.9	24.18
505.332	24.51
505.764	24.86
506.196	25.2
506.627	25.56
507.059	25.91
507.491	26.26
507.923	26.6
508.354	26.96
508.786	27.31
509.217	27.67
509.649	28.04
510.08	28.39
510.512	28.74
510.943	29.09
511.374	29.44
511.805	29.79
512.237	30.14
512.668	30.49
513.099	30.84
513.53	31.18
513.961	31.51
514.391	31.85
514.822	32.2
515.253	32.52
515.684	32.83
516.114	33.15
516.545	33.45
516.975	33.74
517.406	34.04
517.836	34.33
518.267	34.64
518.697	34.91
519.127	35.15
519.558	35.43
519.988	35.71
520.418	35.97
520.848	36.22
521.278	36.46
521.708	36.82
522.138	37.04
522.567	37.27
522.997	37.47
523.427	37.68
523.857	37.9
524.286	38.07
524.716	38.25
525.145	38.42
525.575	38.6
526.004	38.77
526.433	38.81
526.863	38.99
527.292	39.14
527.721	39.26
528.15	39.4
528.579	39.52
529.008	39.65
529.437	39.78
529.866	39.89
530.295	40
530.724	40.12
531.152	40.24
531.581	40.33
532.01	40.42
532.438	40.54
532.867	40.62
533.295	40.71
533.723	40.79
534.152	40.86
534.58	40.94
535.008	40.98
535.436	41.03
535.865	41.08
536.293	41.12
536.721	41.15
537.149	41.19
537.576	41.23
538.004	41.28
538.432	41.3
538.86	41.33
539.287	41.35
539.715	41.41
540.143	41.42
540.57	41.45
540.998	41.47
541.425	41.51
541.852	41.55
542.28	41.59
542.707	41.61
543.134	41.66
543.561	41.68
543.988	41.7
544.415	41.7
544.842	41.73
545.269	41.77
545.696	41.81
546.123	41.82
546.549	41.84
546.976	41.87
547.403	41.9
547.829	41.92
548.256	41.94
548.682	41.98
549.108	42.05
549.535	42.11
549.961	42.13
550.387	42.15
550.813	42.2
551.24	42.22
551.666	42.22
552.092	42.25
552.518	42.27
552.943	42.3
553.369	42.31
553.795	42.31
554.221	42.31
554.646	42.31
555.072	42.31
555.498	42.29
555.923	42.28
556.349	42.28
556.774	42.25
557.199	42.22
557.625	42.2
558.05	42.17
558.475	42.15
558.9	42.11
559.325	42.09
559.75	42.08
560.175	42.05
560.6	41.99
561.025	41.94
561.449	41.89
561.874	41.83
562.299	41.79
562.723	41.71
563.148	41.63
563.572	41.55
563.997	41.46
564.421	41.34
564.846	41.24
565.27	41.15
565.694	41.08
566.118	40.99
566.542	40.89
566.966	40.77
567.39	40.66
567.814	40.55
568.238	40.44
568.662	40.32
569.086	40.22
569.509	40.11
569.933	40
570.357	39.86
570.78	39.72
571.204	39.61
571.627	39.51
572.05	39.4
572.474	39.31
572.897	39.22
573.32	39.13
573.743	39.04
574.166	38.96
574.589	38.86
575.012	38.8
575.435	38.72
575.858	38.66
576.281	38.57
576.704	38.51
577.126	38.43
577.549	38.36
577.972	38.3
578.394	38.22
578.817	38.15
579.239	38.11
579.661	38.03
580.084	37.99
580.506	37.92
580.928	37.87
581.35	37.82
581.772	37.76
582.194	37.7
582.616	37.65
583.038	37.61
583.46	37.55
583.882	37.47
584.303	37.42
584.725	37.35
585.147	37.3
585.568	37.25
585.99	37.2
586.411	37.15
586.833	37.12
587.254	37.06
587.675	37.01
588.096	36.97
588.518	36.94
588.939	36.92
589.36	36.88
589.781	36.84
590.202	36.81
590.623	36.78
591.043	36.74
591.464	36.71
591.885	36.67
592.305	36.65
592.726	36.62
593.147	36.59
593.567	36.56
593.987	36.55
594.408	36.51
594.828	36.49
595.248	36.47
595.669	36.45
596.089	36.43
596.509	36.4
596.929	36.37
597.349	36.33
597.769	36.29
598.189	36.25
598.608	36.23
599.028	36.2
599.448	36.15
599.867	36.09
600.287	36.05
600.706	35.99
601.126	35.95
601.545	35.9
601.965	35.85
602.384	35.8
602.803	35.74
603.222	35.66
603.641	35.6
604.061	35.54
604.48	35.47
604.898	35.4
605.317	35.34
605.736	35.26
606.155	35.19
606.574	35.11
606.992	35.04
607.411	34.97
607.829	34.87
608.248	34.78
608.666	34.69
609.085	34.62
609.503	34.52
609.921	34.44
610.339	34.37
610.758	34.28
611.176	34.2
611.594	34.11
612.012	34.02
612.43	33.94
612.847	33.86
613.265	33.77
613.683	33.7
614.101	33.62
614.518	33.53
614.936	33.43
615.353	33.33
615.771	33.26
616.188	33.19
616.606	33.12
617.023	33.06
617.44	33.02
617.857	32.96
618.274	32.88
618.691	32.83
619.108	32.77
619.525	32.72
619.942	32.69
620.359	32.64
620.776	32.59
621.192	32.54
621.609	32.52
622.026	32.45
622.442	32.41
622.859	32.39
623.275	32.35
623.691	32.33
624.108	32.3
624.524	32.27
624.94	32.25
625.356	32.24
625.772	32.23
626.188	32.2
626.604	32.21
627.02	32.22
627.436	32.21
627.852	32.19
628.268	32.18
628.683	32.17
629.099	32.17
629.514	32.16
629.93	32.12
630.345	32.09
630.761	32.06
631.176	32.01
631.591	31.95
632.007	31.9
632.422	31.86
632.837	31.79
633.252	31.72
633.667	31.64
634.082	31.55
634.497	31.48
634.911	31.39
635.326	31.3
635.741	31.2
636.155	31.09
636.57	30.95
636.984	30.82
637.399	30.68
637.813	30.54
638.228	30.38
638.642	30.22
639.056	30.04
639.47	29.88
639.884	29.7
640.298	29.5
640.712	29.3
641.126	29.11
641.54	28.9
641.954	28.71
642.368	28.51
642.781	28.31
643.195	28.11
643.609	27.9
644.022	27.71
644.436	27.5
644.849	27.32
645.262	27.13
645.676	26.96
646.089	26.8
646.502	26.62
646.915	26.48
647.328	26.32
647.741	26.19
648.154	26.06
648.567	25.94
648.98	25.83
649.393	25.73
649.805	25.62
650.218	25.52
650.631	25.43
651.043	25.33
651.456	25.22
651.868	25.11
652.28	24.99
652.693	24.9
653.105	24.77
653.517	24.64
653.929	24.51
654.341	24.36
654.753	24.19
655.165	24.02
655.577	23.85
655.989	23.68
656.401	23.51
656.813	23.32
657.224	23.08
657.636	22.85
658.047	22.63
658.459	22.38
658.87	22.14
659.282	21.9
659.693	21.65
660.104	21.38
660.515	21.1
660.926	20.82
661.338	20.55
661.749	20.29
662.159	20.03
662.57	19.77
662.981	19.52
663.392	19.26
663.803	19.01
664.213	18.77
664.624	18.55
665.035	18.33
665.445	18.13
665.855	17.91
666.266	17.72
666.676	17.54
667.086	17.34
667.497	17.18
667.907	17.03
668.317	16.87
668.727	16.72
669.137	16.58
669.547	16.47
669.956	16.35
670.366	16.25
670.776	16.16
671.186	16.08
671.595	16
672.005	15.92
672.414	15.86
672.824	15.8
673.233	15.77
673.642	15.74
674.052	15.71
674.461	15.67
674.87	15.65
675.279	15.65
675.688	15.65
676.097	15.68
676.506	15.73
676.915	15.78
677.323	15.86
677.732	15.95
678.141	16.06
678.549	16.19
678.958	16.38
679.366	16.6
679.775	16.81
680.183	17.09
680.592	17.39
681	17.71
681.408	18.09
681.816	18.49
682.224	18.94
682.632	19.42
683.04	19.94
683.448	20.47
683.856	21.03
684.264	21.65
684.671	22.29
685.079	22.95
685.487	23.64
685.894	24.35
686.302	25.07
686.709	25.8
687.116	26.55
687.524	27.31
687.931	28.07
688.338	28.84
688.745	29.59
689.152	30.32
689.559	31.07
689.966	31.8
690.373	32.51
690.78	33.22
691.187	33.9
691.593	34.59
692	35.23
692.407	35.85
692.813	36.47
693.22	37.03
693.626	37.61
694.032	38.17
694.439	38.71
694.845	39.23
695.251	39.71
695.657	40.19
696.063	40.62
696.469	41.07
696.875	41.51
697.281	41.91
697.687	42.33
698.093	42.7
698.498	43.05
698.904	43.4
699.31	43.73
699.715	44.06
700.12	44.35
700.526	44.64
700.931	44.9
701.337	45.16
701.742	45.42
702.147	45.67
702.552	45.91
702.957	46.14
703.362	46.34
703.767	46.53
704.172	46.73
704.577	46.93
704.981	47.14
705.386	47.33
705.791	47.49
706.195	47.68
706.6	47.83
707.004	47.99
707.408	48.15
707.813	48.32
708.217	48.49
708.621	48.65
709.025	48.78
709.43	48.9
709.834	49.03
710.237	49.15
710.641	49.26
711.045	49.4
711.449	49.54
711.853	49.65
712.256	49.75
712.66	49.84
713.064	49.93
713.467	50.05
713.87	50.16
714.274	50.25
714.677	50.36
715.08	50.45
715.484	50.52
715.887	50.62
716.29	50.72
716.693	50.81
717.096	50.9
717.499	51
717.901	51.08
718.304	51.14
718.707	51.25
719.109	51.34
719.512	51.43
719.915	51.52
720.317	51.55
720.719	51.55
721.122	51.62
721.524	51.67
721.926	51.71
722.328	51.77
722.731	51.82
723.133	51.87
723.535	51.91
723.937	51.95
724.338	51.97
724.74	52.05
725.142	52.18
725.544	52.23
725.945	52.3
726.347	52.33
726.748	52.35
727.15	52.39
727.551	52.41
727.952	52.43
728.354	52.46
728.755	52.5
729.156	52.51
729.557	52.48
729.958	52.48
730.359	52.5
730.76	52.53
731.161	52.58
731.562	52.62
731.962	52.62
732.363	52.66
732.763	52.69
733.164	52.7
733.564	52.73
733.965	52.75
734.365	52.76
734.766	52.76
735.166	52.78
735.566	52.79
735.966	52.78
736.366	52.81
736.766	52.81
737.166	52.82
737.566	52.86
737.966	52.86
738.365	52.88
738.765	52.9
739.165	52.92
739.564	52.92
739.964	52.91
740.363	52.93
740.763	52.93
741.162	52.94
741.561	52.92
741.96	52.88
742.36	52.9
742.759	52.92
743.158	52.9
743.557	52.89
743.955	52.9
744.354	52.92
744.753	52.94
745.152	52.98
745.55	53.01
745.949	53.05
746.348	53.08
746.746	53.1
747.144	53.1
747.543	53.15
747.941	53.18
748.339	53.2
748.737	53.2
749.136	53.22
749.534	53.17
749.932	53.17
750.33	53.16
750.727	53.19
751.125	53.19
751.523	53.18
751.921	53.16
752.318	53.16
752.716	53.15
753.113	53.14
753.511	53.12
753.908	53.12
754.305	53.11
754.703	53.08
755.1	53.05
755.497	53.03
755.894	53.02
756.291	53.01
756.688	52.99
757.085	52.97
757.482	52.97
757.878	52.95
758.275	52.93
758.672	52.91
759.068	52.91
759.465	52.91
759.861	52.91
760.258	52.89
760.654	52.88
761.05	52.88
761.447	52.89
761.843	52.87
762.239	52.88
762.635	52.89
763.031	52.88
763.427	52.87
763.822	52.85
764.218	52.85
764.614	52.87
765.01	52.87
765.405	52.86
765.801	52.85
766.196	52.86
766.592	52.83
766.987	52.83
767.382	52.83
767.778	52.85
768.173	52.85
768.568	52.85
768.963	52.83
769.358	52.84
769.753	52.83
770.148	52.83
770.542	52.86
770.937	52.88
771.332	52.87
771.726	52.9
772.121	52.89
772.515	52.91
772.91	52.9
773.304	52.9
773.699	52.89
