Data from N_3_HIR_WI_4N_Splice17_14-08-12-397.txt Node
Date: Sat Mar 07 14:08:12 EST 2020
User: sa697716
Spectrometer: NQ5500242
Trigger mode: 0
Integration Time (sec): 1.450000E-1
Scans to average: 20
Nonlinearity correction enabled: false
Boxcar width: 5
Storing dark spectrum: false
XAxis mode: Wavelengths
Number of Pixels in Spectrum: 512
>>>>>Begin Spectral Data<<<<<
187.83	61.17
188.298	90.92
188.766	69.96
189.233	57.32
189.701	53.85
190.169	68.7
190.636	65.4
191.104	45.23
191.571	-108.41
192.039	64.93
192.506	-154.08
192.974	166.35
193.441	455.91
193.908	194.41
194.375	90.98
194.842	39.42
195.31	75.65
195.777	121.47
196.244	55.24
196.711	50.43
197.177	53.46
197.644	53.36
198.111	52.16
198.578	51.74
199.045	52
199.511	52.37
199.978	52.86
200.445	53.04
200.911	53.26
201.378	53.41
201.844	53.61
202.31	53.56
202.777	53.6
203.243	53.91
203.709	54.04
204.176	53.89
204.642	53.69
205.108	53.3
205.574	53.01
206.04	52.65
206.506	52.04
206.972	51.47
207.438	50.78
207.903	49.9
208.369	48.76
208.835	47.52
209.301	46.29
209.766	44.8
210.232	43.48
210.697	42.24
211.163	40.91
211.628	39.63
212.094	38.74
212.559	37.87
213.024	36.8
213.49	35.99
213.955	35.06
214.42	34.16
214.885	33.14
215.35	31.78
215.815	29.98
216.28	27.87
216.745	25.56
217.21	22.93
217.675	20.57
218.14	18.55
218.604	16.83
219.069	15.42
219.534	14.19
219.998	13.2
220.463	12.35
220.927	11.57
221.392	10.99
221.856	10.52
222.32	10.16
222.785	9.82
223.249	9.52
223.713	9.23
224.177	8.99
224.642	8.77
225.106	8.53
225.57	8.32
226.034	8.16
226.497	7.98
226.961	7.8
227.425	7.62
227.889	7.46
228.353	7.32
228.816	7.19
229.28	7.05
229.744	6.94
230.207	6.83
230.671	6.72
231.134	6.61
231.597	6.53
232.061	6.44
232.524	6.35
232.987	6.26
233.45	6.19
233.914	6.11
234.377	6.03
234.84	5.95
235.303	5.89
235.766	5.84
236.229	5.79
236.691	5.72
237.154	5.66
237.617	5.62
238.08	5.57
238.542	5.51
239.005	5.48
239.468	5.42
239.93	5.38
240.393	5.35
240.855	5.29
241.317	5.25
241.78	5.2
242.242	5.14
242.704	5.11
243.166	5.05
243.629	5.03
244.091	4.97
244.553	4.92
245.015	4.88
245.477	4.83
245.939	4.79
246.4	4.75
246.862	4.7
247.324	4.68
247.786	4.63
248.247	4.6
248.709	4.55
249.17	4.51
249.632	4.48
250.093	4.45
250.555	4.42
251.016	4.4
251.477	4.36
251.939	4.34
252.4	4.32
252.861	4.29
253.322	4.27
253.783	4.26
254.244	4.24
254.705	4.22
255.166	4.2
255.627	4.17
256.088	4.15
256.549	4.13
257.009	4.11
257.47	4.09
257.931	4.06
258.391	4.03
258.852	3.99
259.312	3.97
259.773	3.94
260.233	3.91
260.694	3.89
261.154	3.86
261.614	3.83
262.074	3.8
262.534	3.78
262.994	3.76
263.455	3.74
263.915	3.72
264.374	3.7
264.834	3.68
265.294	3.66
265.754	3.65
266.214	3.63
266.673	3.62
267.133	3.61
267.593	3.6
268.052	3.59
268.512	3.59
268.971	3.58
269.431	3.57
269.89	3.56
270.349	3.55
270.809	3.54
271.268	3.54
271.727	3.53
272.186	3.52
272.645	3.51
273.104	3.5
273.563	3.49
274.022	3.48
274.481	3.48
274.94	3.47
275.399	3.46
275.857	3.46
276.316	3.45
276.775	3.44
277.233	3.44
277.692	3.43
278.15	3.43
278.609	3.43
279.067	3.43
279.525	3.43
279.984	3.43
280.442	3.43
280.9	3.43
281.358	3.43
281.816	3.43
282.274	3.43
282.732	3.42
283.19	3.42
283.648	3.42
284.106	3.41
284.564	3.41
285.021	3.41
285.479	3.41
285.937	3.4
286.394	3.4
286.852	3.4
287.309	3.4
287.767	3.38
288.224	3.38
288.682	3.37
289.139	3.35
289.596	3.34
290.053	3.33
290.511	3.32
290.968	3.3
291.425	3.28
291.882	3.27
292.339	3.26
292.796	3.26
293.252	3.24
293.709	3.23
294.166	3.22
294.623	3.21
295.079	3.2
295.536	3.2
295.992	3.2
296.449	3.19
296.905	3.18
297.362	3.18
297.818	3.17
298.274	3.18
298.731	3.17
299.187	3.16
299.643	3.15
300.099	3.15
300.555	3.15
301.011	3.14
301.467	3.14
301.923	3.13
302.379	3.13
302.835	3.12
303.291	3.12
303.746	3.12
304.202	3.12
304.658	3.13
305.113	3.13
305.569	3.13
306.024	3.13
306.479	3.13
306.935	3.13
307.39	3.13
307.845	3.13
308.301	3.13
308.756	3.14
309.211	3.14
309.666	3.14
310.121	3.14
310.576	3.15
311.031	3.15
311.486	3.16
311.94	3.17
312.395	3.17
312.85	3.17
313.305	3.17
313.759	3.17
314.214	3.18
314.668	3.17
315.123	3.17
315.577	3.18
316.032	3.17
316.486	3.17
316.94	3.16
317.394	3.16
317.849	3.16
318.303	3.15
318.757	3.14
319.211	3.14
319.665	3.12
320.119	3.11
320.572	3.09
321.026	3.09
321.48	3.07
321.934	3.06
322.387	3.05
322.841	3.05
323.295	3.04
323.748	3.03
324.202	3.02
324.655	3.03
325.108	3.03
325.562	3.03
326.015	3.03
326.468	3.04
326.921	3.04
327.374	3.04
327.827	3.04
328.28	3.03
328.733	3.04
329.186	3.05
329.639	3.05
330.092	3.05
330.545	3.06
330.997	3.07
331.45	3.07
331.903	3.07
332.355	3.09
332.808	3.1
333.26	3.11
333.713	3.1
334.165	3.1
334.617	3.11
335.069	3.11
335.522	3.12
335.974	3.12
336.426	3.12
336.878	3.12
337.33	3.11
337.782	3.1
338.234	3.11
338.686	3.12
339.137	3.14
339.589	3.13
340.041	3.12
340.493	3.11
340.944	3.1
341.396	3.09
341.847	3.09
342.299	3.08
342.75	3.06
343.201	3.05
343.653	3.04
344.104	3.02
344.555	3
345.006	2.99
345.457	2.99
345.908	2.99
346.359	3
346.81	3
347.261	3
347.712	2.99
348.163	2.99
348.613	2.99
349.064	2.99
349.515	3
349.965	3
350.416	2.99
350.866	2.99
351.317	2.98
351.767	2.98
352.217	2.98
352.668	2.98
353.118	2.99
353.568	2.99
354.018	2.99
354.468	3
354.918	3.01
355.368	3.02
355.818	3.03
356.268	3.04
356.718	3.04
357.168	3.05
357.617	3.05
358.067	3.06
358.517	3.09
358.966	3.1
359.416	3.1
359.865	3.11
360.315	3.12
360.764	3.14
361.213	3.15
361.663	3.16
362.112	3.19
362.561	3.21
363.01	3.22
363.459	3.21
363.908	3.23
364.357	3.25
364.806	3.26
365.255	3.29
365.703	3.32
366.152	3.36
366.601	3.39
367.05	3.41
367.498	3.44
367.947	3.48
368.395	3.52
368.844	3.56
369.292	3.6
369.74	3.65
370.189	3.69
370.637	3.72
371.085	3.74
371.533	3.79
371.981	3.84
372.429	3.89
372.877	3.93
373.325	3.97
373.773	4.02
374.221	4.08
374.669	4.12
375.116	4.17
375.564	4.22
376.012	4.28
376.459	4.33
376.907	4.39
377.354	4.45
377.801	4.52
378.249	4.58
378.696	4.64
379.143	4.69
379.591	4.75
380.038	4.81
380.485	4.87
380.932	4.93
381.379	4.99
381.826	5.04
382.273	5.1
382.72	5.15
383.166	5.21
383.613	5.26
384.06	5.3
384.506	5.36
384.953	5.41
385.4	5.45
385.846	5.51
386.292	5.56
386.739	5.6
387.185	5.65
387.631	5.7
388.078	5.75
388.524	5.8
388.97	5.85
389.416	5.89
389.862	5.94
390.308	5.99
390.754	6.03
391.2	6.08
391.645	6.12
392.091	6.15
392.537	6.2
392.983	6.22
393.428	6.27
393.874	6.29
394.319	6.31
394.765	6.32
395.21	6.32
395.655	6.34
396.101	6.35
396.546	6.36
396.991	6.37
397.436	6.38
397.881	6.4
398.326	6.42
398.771	6.43
399.216	6.45
399.661	6.48
400.106	6.5
400.551	6.5
400.995	6.48
401.44	6.48
401.885	6.48
402.329	6.48
402.774	6.46
403.218	6.46
403.663	6.47
404.107	6.45
404.551	6.45
404.995	6.43
405.44	6.41
405.884	6.42
406.328	6.41
406.772	6.4
407.216	6.4
407.66	6.4
408.104	6.39
408.547	6.37
408.991	6.37
409.435	6.35
409.879	6.34
410.322	6.35
410.766	6.35
411.209	6.34
411.653	6.34
412.096	6.33
412.54	6.33
412.983	6.33
413.426	6.35
413.869	6.35
414.312	6.37
414.756	6.38
415.199	6.38
415.642	6.38
416.085	6.39
416.527	6.38
416.97	6.38
417.413	6.36
417.856	6.35
418.298	6.33
418.741	6.33
419.184	6.32
419.626	6.32
420.069	6.31
420.511	6.3
420.953	6.29
421.396	6.29
421.838	6.28
422.28	6.29
422.722	6.31
423.164	6.31
423.606	6.3
424.048	6.3
424.49	6.3
424.932	6.28
425.374	6.27
425.816	6.24
426.258	6.21
426.699	6.17
427.141	6.15
427.582	6.13
428.024	6.13
428.465	6.13
428.907	6.11
429.348	6.09
429.789	6.1
430.231	6.1
430.672	6.12
431.113	6.14
431.554	6.17
431.995	6.19
432.436	6.19
432.877	6.2
433.318	6.19
433.759	6.21
434.2	6.24
434.64	6.24
435.081	6.25
435.522	6.26
435.962	6.28
436.403	6.31
436.843	6.32
437.284	6.33
437.724	6.33
438.164	6.34
438.604	6.37
439.045	6.38
439.485	6.39
439.925	6.41
440.365	6.44
440.805	6.45
441.245	6.47
441.685	6.51
442.125	6.54
442.564	6.58
443.004	6.61
443.444	6.61
443.883	6.64
444.323	6.67
444.762	6.71
445.202	6.72
445.641	6.77
446.081	6.8
446.52	6.81
446.959	6.86
447.398	6.89
447.837	6.93
448.276	6.97
448.716	7.01
449.154	7.05
449.593	7.09
450.032	7.13
450.471	7.15
450.91	7.17
451.349	7.2
451.787	7.19
452.226	7.19
452.664	7.21
453.103	7.2
453.541	7.21
453.98	7.2
454.418	7.18
454.856	7.18
455.295	7.16
455.733	7.14
456.171	7.13
456.609	7.13
457.047	7.13
457.485	7.11
457.923	7.11
458.361	7.09
458.798	7.08
459.236	7.08
459.674	7.06
460.111	7.06
460.549	7.07
460.987	7.08
461.424	7.08
461.862	7.08
462.299	7.09
462.736	7.1
463.173	7.11
463.611	7.11
464.048	7.12
464.485	7.14
464.922	7.15
465.359	7.15
465.796	7.15
466.233	7.15
466.67	7.14
467.106	7.16
467.543	7.15
467.98	7.15
468.416	7.16
468.853	7.16
469.29	7.15
469.726	7.15
470.162	7.17
470.599	7.17
471.035	7.18
471.471	7.19
471.907	7.19
472.344	7.2
472.78	7.22
473.216	7.23
473.652	7.24
474.088	7.23
474.523	7.25
474.959	7.25
475.395	7.25
475.831	7.25
476.266	7.26
476.702	7.25
477.138	7.25
477.573	7.26
478.008	7.27
478.444	7.26
478.879	7.27
479.314	7.27
479.75	7.27
480.185	7.26
480.62	7.26
481.055	7.25
481.49	7.25
481.925	7.25
482.36	7.24
482.795	7.24
483.229	7.25
483.664	7.26
484.099	7.27
484.534	7.28
484.968	7.29
485.403	7.31
485.837	7.33
486.271	7.36
486.706	7.38
487.14	7.42
487.574	7.45
488.009	7.48
488.443	7.51
488.877	7.56
489.311	7.61
489.745	7.66
490.179	7.71
490.613	7.77
491.046	7.82
491.48	7.88
491.914	7.95
492.348	8.02
492.781	8.1
493.215	8.18
493.648	8.25
494.082	8.33
494.515	8.41
494.948	8.5
495.382	8.59
495.815	8.69
496.248	8.79
496.681	8.89
497.114	8.99
497.547	9.1
497.98	9.21
498.413	9.33
498.846	9.44
499.279	9.56
499.711	9.68
500.144	9.82
500.577	9.96
501.009	10.09
501.442	10.24
501.874	10.4
502.306	10.54
502.739	10.71
503.171	10.87
503.603	11.04
504.036	11.22
504.468	11.39
504.9	11.56
505.332	11.74
505.764	11.94
506.196	12.13
506.627	12.32
507.059	12.53
507.491	12.72
507.923	12.93
508.354	13.15
508.786	13.36
509.217	13.58
509.649	13.82
510.08	14.04
510.512	14.26
510.943	14.49
511.374	14.72
511.805	14.97
512.237	15.21
512.668	15.46
513.099	15.69
513.53	15.94
513.961	16.17
514.391	16.41
514.822	16.66
515.253	16.91
515.684	17.17
516.114	17.42
516.545	17.65
516.975	17.9
517.406	18.13
517.836	18.37
518.267	18.62
518.697	18.85
519.127	19.08
519.558	19.3
519.988	19.52
520.418	19.73
520.848	19.93
521.278	20.12
521.708	20.43
522.138	20.63
522.567	20.81
522.997	20.98
523.427	21.17
523.857	21.34
524.286	21.5
524.716	21.68
525.145	21.84
525.575	22
526.004	22.17
526.433	22.2
526.863	22.35
527.292	22.5
527.721	22.62
528.15	22.75
528.579	22.87
529.008	23
529.437	23.1
529.866	23.21
530.295	23.32
530.724	23.43
531.152	23.52
531.581	23.6
532.01	23.69
532.438	23.78
532.867	23.85
533.295	23.92
533.723	23.98
534.152	24.04
534.58	24.11
535.008	24.14
535.436	24.19
535.865	24.23
536.293	24.27
536.721	24.3
537.149	24.32
537.576	24.35
538.004	24.39
538.432	24.42
538.86	24.44
539.287	24.44
539.715	24.49
540.143	24.5
540.57	24.52
540.998	24.53
541.425	24.56
541.852	24.59
542.28	24.62
542.707	24.64
543.134	24.66
543.561	24.7
543.988	24.74
544.415	24.75
544.842	24.76
545.269	24.8
545.696	24.81
546.123	24.84
546.549	24.86
546.976	24.88
547.403	24.9
547.829	24.91
548.256	24.92
548.682	24.94
549.108	24.96
549.535	25
549.961	25.02
550.387	25.04
550.813	25.06
551.24	25.09
551.666	25.1
552.092	25.11
552.518	25.11
552.943	25.13
553.369	25.13
553.795	25.13
554.221	25.12
554.646	25.08
555.072	25.07
555.498	25.04
555.923	25
556.349	24.96
556.774	24.94
557.199	24.9
557.625	24.85
558.05	24.81
558.475	24.76
558.9	24.71
559.325	24.67
559.75	24.61
560.175	24.56
560.6	24.5
561.025	24.44
561.449	24.37
561.874	24.3
562.299	24.23
562.723	24.13
563.148	24.04
563.572	23.95
563.997	23.85
564.421	23.74
564.846	23.63
565.27	23.53
565.694	23.44
566.118	23.32
566.542	23.21
566.966	23.08
567.39	22.98
567.814	22.86
568.238	22.74
568.662	22.64
569.086	22.52
569.509	22.41
569.933	22.29
570.357	22.16
570.78	22.05
571.204	21.94
571.627	21.83
572.05	21.71
572.474	21.62
572.897	21.54
573.32	21.43
573.743	21.33
574.166	21.24
574.589	21.15
575.012	21.06
575.435	20.98
575.858	20.9
576.281	20.82
576.704	20.76
577.126	20.68
577.549	20.58
577.972	20.51
578.394	20.43
578.817	20.37
579.239	20.3
579.661	20.24
580.084	20.18
580.506	20.14
580.928	20.07
581.35	20.02
581.772	19.96
582.194	19.91
582.616	19.86
583.038	19.81
583.46	19.76
583.882	19.71
584.303	19.66
584.725	19.6
585.147	19.53
585.568	19.49
585.99	19.43
586.411	19.39
586.833	19.34
587.254	19.29
587.675	19.25
588.096	19.21
588.518	19.16
588.939	19.13
589.36	19.08
589.781	19.06
590.202	19.02
590.623	18.98
591.043	18.95
591.464	18.92
591.885	18.87
592.305	18.85
592.726	18.83
593.147	18.8
593.567	18.78
593.987	18.75
594.408	18.72
594.828	18.69
595.248	18.67
595.669	18.64
596.089	18.62
596.509	18.6
596.929	18.55
597.349	18.52
597.769	18.5
598.189	18.45
598.608	18.42
599.028	18.38
599.448	18.34
599.867	18.31
600.287	18.26
600.706	18.23
601.126	18.19
601.545	18.16
601.965	18.13
602.384	18.08
602.803	18.03
603.222	17.98
603.641	17.92
604.061	17.88
604.48	17.83
604.898	17.79
605.317	17.74
605.736	17.68
606.155	17.62
606.574	17.55
606.992	17.48
607.411	17.43
607.829	17.34
608.248	17.28
608.666	17.21
609.085	17.13
609.503	17.06
609.921	16.99
610.339	16.93
610.758	16.88
611.176	16.8
611.594	16.74
612.012	16.66
612.43	16.61
612.847	16.56
613.265	16.48
613.683	16.41
614.101	16.35
614.518	16.28
614.936	16.21
615.353	16.12
615.771	16.06
616.188	16.02
616.606	15.97
617.023	15.93
617.44	15.88
617.857	15.84
618.274	15.8
618.691	15.75
619.108	15.71
619.525	15.67
619.942	15.65
620.359	15.61
620.776	15.57
621.192	15.54
621.609	15.51
622.026	15.48
622.442	15.45
622.859	15.43
623.275	15.42
623.691	15.4
624.108	15.39
624.524	15.37
624.94	15.36
625.356	15.36
625.772	15.34
626.188	15.33
626.604	15.31
627.02	15.3
627.436	15.28
627.852	15.27
628.268	15.26
628.683	15.25
629.099	15.24
629.514	15.23
629.93	15.2
630.345	15.18
630.761	15.14
631.176	15.12
631.591	15.08
632.007	15.06
632.422	15.01
632.837	14.95
633.252	14.9
633.667	14.84
634.082	14.78
634.497	14.72
634.911	14.65
635.326	14.58
635.741	14.49
636.155	14.42
636.57	14.34
636.984	14.24
637.399	14.14
637.813	14.03
638.228	13.91
638.642	13.79
639.056	13.66
639.47	13.54
639.884	13.43
640.298	13.3
640.712	13.17
641.126	13.05
641.54	12.93
641.954	12.81
642.368	12.69
642.781	12.57
643.195	12.47
643.609	12.35
644.022	12.25
644.436	12.14
644.849	12.03
645.262	11.94
645.676	11.84
646.089	11.76
646.502	11.68
646.915	11.6
647.328	11.53
647.741	11.46
648.154	11.39
648.567	11.32
648.98	11.26
649.393	11.2
649.805	11.15
650.218	11.11
650.631	11.05
651.043	11
651.456	10.95
651.868	10.9
652.28	10.85
652.693	10.8
653.105	10.75
653.517	10.69
653.929	10.63
654.341	10.56
654.753	10.48
655.165	10.41
655.577	10.33
655.989	10.25
656.401	10.16
656.813	10.06
657.224	9.96
657.636	9.85
658.047	9.76
658.459	9.66
658.87	9.55
659.282	9.45
659.693	9.34
660.104	9.22
660.515	9.11
660.926	8.99
661.338	8.89
661.749	8.78
662.159	8.67
662.57	8.57
662.981	8.46
663.392	8.35
663.803	8.26
664.213	8.16
664.624	8.07
665.035	7.98
665.445	7.91
665.855	7.85
666.266	7.78
666.676	7.73
667.086	7.66
667.497	7.61
667.907	7.57
668.317	7.53
668.727	7.48
669.137	7.45
669.547	7.43
669.956	7.4
670.366	7.37
670.776	7.34
671.186	7.31
671.595	7.3
672.005	7.28
672.414	7.27
672.824	7.26
673.233	7.27
673.642	7.26
674.052	7.25
674.461	7.25
674.87	7.26
675.279	7.28
675.688	7.3
676.097	7.33
676.506	7.36
676.915	7.39
677.323	7.43
677.732	7.47
678.141	7.51
678.549	7.58
678.958	7.64
679.366	7.73
679.775	7.81
680.183	7.91
680.592	8.02
681	8.15
681.408	8.29
681.816	8.44
682.224	8.61
682.632	8.8
683.04	9
683.448	9.22
683.856	9.44
684.264	9.7
684.671	9.98
685.079	10.27
685.487	10.58
685.894	10.92
686.302	11.27
686.709	11.64
687.116	12.02
687.524	12.41
687.931	12.83
688.338	13.28
688.745	13.72
689.152	14.16
689.559	14.64
689.966	15.11
690.373	15.58
690.78	16.06
691.187	16.55
691.593	17.03
692	17.53
692.407	18.01
692.813	18.49
693.22	18.96
693.626	19.45
694.032	19.92
694.439	20.38
694.845	20.85
695.251	21.3
695.657	21.74
696.063	22.19
696.469	22.63
696.875	23.06
697.281	23.49
697.687	23.91
698.093	24.31
698.498	24.7
698.904	25.11
699.31	25.47
699.715	25.83
700.12	26.21
700.526	26.56
700.931	26.91
701.337	27.23
701.742	27.55
702.147	27.88
702.552	28.22
702.957	28.51
703.362	28.79
703.767	29.05
704.172	29.32
704.577	29.58
704.981	29.85
705.386	30.09
705.791	30.37
706.195	30.62
706.6	30.86
707.004	31.06
707.408	31.29
707.813	31.53
708.217	31.77
708.621	32.02
709.025	32.24
709.43	32.44
709.834	32.67
710.237	32.87
710.641	33.06
711.045	33.24
711.449	33.44
711.853	33.65
712.256	33.83
712.66	33.99
713.064	34.16
713.467	34.33
713.87	34.49
714.274	34.61
714.677	34.76
715.08	34.93
715.484	35.09
715.887	35.25
716.29	35.39
716.693	35.55
717.096	35.7
717.499	35.82
717.901	35.94
718.304	36.08
718.707	36.23
719.109	36.36
719.512	36.45
719.915	36.58
720.317	36.67
720.719	36.76
721.122	36.83
721.524	36.96
721.926	37.09
722.328	37.2
722.731	37.3
723.133	37.41
723.535	37.5
723.937	37.62
724.338	37.7
724.74	37.8
725.142	37.95
725.544	38.04
725.945	38.13
726.347	38.17
726.748	38.24
727.15	38.3
727.551	38.37
727.952	38.44
728.354	38.51
728.755	38.56
729.156	38.59
729.557	38.6
729.958	38.66
730.359	38.67
730.76	38.75
731.161	38.81
731.562	38.86
731.962	38.88
732.363	38.93
732.763	38.96
733.164	39.02
733.564	39.07
733.965	39.11
734.365	39.15
734.766	39.2
735.166	39.23
735.566	39.25
735.966	39.29
736.366	39.32
736.766	39.33
737.166	39.34
737.566	39.36
737.966	39.38
738.365	39.41
738.765	39.41
739.165	39.41
739.564	39.44
739.964	39.46
740.363	39.45
740.763	39.46
741.162	39.49
741.561	39.5
741.96	39.49
742.36	39.49
742.759	39.49
743.158	39.5
743.557	39.51
743.955	39.53
744.354	39.54
744.753	39.58
745.152	39.62
745.55	39.64
745.949	39.67
746.348	39.72
746.746	39.75
747.144	39.78
747.543	39.82
747.941	39.83
748.339	39.83
748.737	39.83
749.136	39.81
749.534	39.8
749.932	39.81
750.33	39.82
750.727	39.82
751.125	39.83
751.523	39.83
751.921	39.82
752.318	39.84
752.716	39.86
753.113	39.88
753.511	39.87
753.908	39.87
754.305	39.86
754.703	39.83
755.1	39.81
755.497	39.78
755.894	39.74
756.291	39.73
756.688	39.68
757.085	39.68
757.482	39.67
757.878	39.67
758.275	39.64
758.672	39.64
759.068	39.66
759.465	39.63
759.861	39.6
760.258	39.64
760.654	39.65
761.05	39.66
761.447	39.64
761.843	39.6
762.239	39.62
762.635	39.63
763.031	39.62
763.427	39.62
763.822	39.65
764.218	39.68
764.614	39.66
765.01	39.66
765.405	39.64
765.801	39.62
766.196	39.66
766.592	39.63
766.987	39.61
767.382	39.61
767.778	39.61
768.173	39.59
768.568	39.57
768.963	39.56
769.358	39.56
769.753	39.57
770.148	39.57
770.542	39.58
770.937	39.59
771.332	39.59
771.726	39.61
772.121	39.59
772.515	39.59
772.91	39.61
773.304	39.61
773.699	39.62
774.093	39.61
774.487	39.63
774.881	39.63
775.275	39.62
775.669	39.61
776.063	39.58
776.457	39.59
776.851	39.58
777.245	39.57
777.638	39.58
778.032	39.58
778.425	39.6
778.819	39.59
779.212	39.59
779.606	39.62
779.999	39.63
780.392	39.65
780.786	39.66
781.179	39.67
